ENTRY            30226   20081203                             31323022600000001 
SUBENT        30226001   20081203                             31323022600100001 
BIB                 11         30                                 3022600100002 
INSTITUTE  (3BZLIPE)                                              3022600100003 
REFERENCE  (C,68COPENHGN,2,197,196805) Tot+scat sigma,graphs, TOF 3022600100004 
           (J,NIM,63,13,1968) Description of TOF spectrometer     3022600100005 
           (R,IEA-136,196702) Description of TOF spectrometer     3022600100006 
           (R,IEA-152,97,1967) Portuguese,graphs scat sigma/H-atom3022600100007 
AUTHOR     (S.B.Herdade)                                          3022600100008 
TITLE      Slow-neutron scattering and rotational freedom of      3022600100009 
           methyl groups in several organic compounds             3022600100010 
FACILITY   (REAC) IEA-R1 research reactor                         3022600100011 
           Curved slit slow neutron chopper and time-of-flight    3022600100012 
           spectrometer.                                          3022600100013 
SAMPLE     Liquid state at room temperature (296 deg K). Contained3022600100014 
           in aluminium cells such as to present a thickness of   3022600100015 
           0.25 cm. Number of molecules per sq.cm. determined from3022600100016 
           measured internal dimensions of cells and density of   3022600100017 
           liquid at room temperature. Uncertainty in number of   3022600100018 
           molecules per sq.cm. was about 3 %                     3022600100019 
METHOD     (TOF) and transmission                                 3022600100020 
ANALYSIS   Scattering cross-sections per H atom calculated by     3022600100021 
           subtracting the absorption cross section from the total3022600100022 
           cross section per molecule and dividing the result by  3022600100023 
           the number of H atoms in the molecule. Slopes were     3022600100024 
           calculated by a weighted least-squares fit to the data.3022600100025 
STATUS     (TABLE) Data from Herdade.Private comm.Dec.1968        3022600100026 
HISTORY    (19730112T)converted from Dastar-775 to 780 and 793,7943022600100027 
           (20040311U) SD: corrected 4-dig. year and lower cases. 3022600100028 
           description in bib was slightly changed.               3022600100029 
           (20080211A) BIB section updated                        3022600100030 
             Added REL to REACTION and changed units to ARB-UNITS 3022600100031 
ERR-ANALYS (ERR-S) Errors are statistical                         3022600100032 
ENDBIB              30          0                                 3022600100033 
COMMON               1          3                                 3022600100034 
TEMP                                                              3022600100035 
K                                                                 3022600100036 
 2.9600E+02                                                       3022600100037 
ENDCOMMON            3          0                                 3022600100038 
ENDSUBENT           37          0                                 3022600199999 
SUBENT        30226002   20081203                             31323022600200001 
BIB                  3          4                                 3022600200002 
REACTION   (1-H-CXX(N,TOT),,SIG,,FCT)                             3022600200003 
            in barns per molecule                                 3022600200004 
SAMPLE     Acetone, (C-H3)-(2CO)                                  3022600200005 
HISTORY    (20080430S) Dataset was restored.                      3022600200006 
ENDBIB               4          0                                 3022600200007 
NOCOMMON             0          0                                 3022600200008 
DATA                 3        151                                 3022600200009 
WVE-LN     DATA       ERR-S                                       3022600200010 
ANGSTROM   B          B                                           3022600200011 
0.83       210.2       3.9                                        3022600200012 
0.87       212.1       3.4                                        3022600200013 
0.92       220.1       3.1                                        3022600200014 
0.97       233.2       2.9                                        3022600200015 
1.02       231.8       2.7                                        3022600200016 
1.06       243.6       2.6                                        3022600200017 
1.11       241.6       2.5                                        3022600200018 
1.16       251.3       2.5                                        3022600200019 
1.21       257.2       2.4                                        3022600200020 
1.25       259.9       2.4                                        3022600200021 
1.30       274.4       2.4                                        3022600200022 
1.35       280.1       2.3                                        3022600200023 
1.40       286.1       2.3                                        3022600200024 
1.45       288.1       2.3                                        3022600200025 
1.49       299.0       2.3                                        3022600200026 
1.54       302.0       2.3                                        3022600200027 
1.59       304.3       2.3                                        3022600200028 
1.64       306.5       2.3                                        3022600200029 
1.68       318.9       2.3                                        3022600200030 
1.73       322.4       2.3                                        3022600200031 
1.78       329.9       2.3                                        3022600200032 
1.83       333.1       2.4                                        3022600200033 
1.87       338.8       2.3                                        3022600200034 
1.92       337.7       2.3                                        3022600200035 
1.97       345.5       2.3                                        3022600200036 
2.02       351.8       2.3                                        3022600200037 
2.06       351.4       2.3                                        3022600200038 
2.11       357.9       2.4                                        3022600200039 
2.16       364.7       2.4                                        3022600200040 
2.21       364.4       2.4                                        3022600200041 
2.25       369.5       2.4                                        3022600200042 
2.30       371.0       2.4                                        3022600200043 
2.35       377.5       2.6                                        3022600200044 
2.40       380.5       2.5                                        3022600200045 
2.44       387.3       2.6                                        3022600200046 
2.49       383.9       2.6                                        3022600200047 
2.54       394.0       2.7                                        3022600200048 
2.59       392.2       2.8                                        3022600200049 
2.63       398.4       2.9                                        3022600200050 
2.68       402.8       2.9                                        3022600200051 
2.73       408.2       3.0                                        3022600200052 
2.78       406.6       3.1                                        3022600200053 
2.82       407.4       3.2                                        3022600200054 
2.87       413.9       3.2                                        3022600200055 
2.92       426.4       3.2                                        3022600200056 
2.97       420.2       3.2                                        3022600200057 
3.01       428.2       3.2                                        3022600200058 
3.06       427.9       3.2                                        3022600200059 
3.11       434.4       3.3                                        3022600200060 
3.16       436.0       3.3                                        3022600200061 
3.21       435.4       3.4                                        3022600200062 
3.25       437.8       3.5                                        3022600200063 
3.30       441.6       3.7                                        3022600200064 
3.35       448.3       3.9                                        3022600200065 
3.40       452.0       3.9                                        3022600200066 
3.44       461.4       4.0                                        3022600200067 
3.49       474.1       4.0                                        3022600200068 
3.54       470.7       4.1                                        3022600200069 
3.59       467.7       4.3                                        3022600200070 
3.63       469.5       4.4                                        3022600200071 
3.68       464.6       4.6                                        3022600200072 
3.73       482.9       4.7                                        3022600200073 
3.78       492.3       4.8                                        3022600200074 
3.82       495.4       4.9                                        3022600200075 
3.87       488.3       5.1                                        3022600200076 
3.92       504.9       5.4                                        3022600200077 
3.97       491.0       5.6                                        3022600200078 
4.01       507.7       5.9                                        3022600200079 
4.06       506.9       5.9                                        3022600200080 
4.11       505.3       6.0                                        3022600200081 
4.16       513.2       6.0                                        3022600200082 
4.20       525.3       6.0                                        3022600200083 
4.25       513.5       6.1                                        3022600200084 
4.30       515.3       6.2                                        3022600200085 
4.35       518.4       6.3                                        3022600200086 
4.39       523.5       6.9                                        3022600200087 
4.44       541.9       7.0                                        3022600200088 
4.49       537.4       7.2                                        3022600200089 
4.54       545.7       7.5                                        3022600200090 
4.58       531.9       7.8                                        3022600200091 
4.63       546.3       8.4                                        3022600200092 
4.68       553.5       8.6                                        3022600200093 
4.73       552.4       8.4                                        3022600200094 
4.77       560.3       8.5                                        3022600200095 
4.82       567.5       8.7                                        3022600200096 
4.87       558.3       8.8                                        3022600200097 
4.92       577.9       9.0                                        3022600200098 
4.96       578.1       9.2                                        3022600200099 
5.01       578.9       9.2                                        3022600200100 
5.06       584.4       9.3                                        3022600200101 
5.11       594.6       9.7                                        3022600200102 
5.16       583.8      10.0                                        3022600200103 
5.20       587.3      10.2                                        3022600200104 
5.25       595.6      10.5                                        3022600200105 
5.30       606.7      11.0                                        3022600200106 
5.35       592.2      11.4                                        3022600200107 
5.39       603.2      11.7                                        3022600200108 
5.44       591.1      12.0                                        3022600200109 
5.51       609.8       2.6                                        3022600200110 
5.59       615.7       2.7                                        3022600200111 
5.68       622.6       2.9                                        3022600200112 
5.76       628.7       2.9                                        3022600200113 
5.85       628.6       3.1                                        3022600200114 
5.93       639.4       3.2                                        3022600200115 
6.02       633.2       3.3                                        3022600200116 
6.11       645.9       3.4                                        3022600200117 
6.19       655.5       3.6                                        3022600200118 
6.28       661.6       3.7                                        3022600200119 
6.36       662.5       3.8                                        3022600200120 
6.45       677.0       4.0                                        3022600200121 
6.53       680.2       4.2                                        3022600200122 
6.62       686.3       4.4                                        3022600200123 
6.70       695.9       4.6                                        3022600200124 
6.79       705.5       4.7                                        3022600200125 
6.88       704.0       4.9                                        3022600200126 
6.96       704.7       5.1                                        3022600200127 
7.05       724.8       5.4                                        3022600200128 
7.13       715.7       5.7                                        3022600200129 
7.22       729.5       6.0                                        3022600200130 
7.30       739.7       6.2                                        3022600200131 
7.39       727.1       6.3                                        3022600200132 
7.47       739.5       6.5                                        3022600200133 
7.56       756.3       6.8                                        3022600200134 
7.64       747.7       7.1                                        3022600200135 
7.73       757.7       7.4                                        3022600200136 
7.82       765.4       7.7                                        3022600200137 
7.90       773.4       8.0                                        3022600200138 
8.00       765.2       8.3                                        3022600200139 
8.07       770.6       8.6                                        3022600200140 
8.15       784.0       9.1                                        3022600200141 
8.24       820.1       9.8                                        3022600200142 
8.33       800.9      10.0                                        3022600200143 
8.41       795.8      10.5                                        3022600200144 
8.50       806.3      11.0                                        3022600200145 
8.59       827.2      11.7                                        3022600200146 
8.67       826.6      12.2                                        3022600200147 
8.76       821.9      12.6                                        3022600200148 
8.84       845.6      13.6                                        3022600200149 
8.93       819.3      13.8                                        3022600200150 
9.01       852.5      14.9                                        3022600200151 
9.10       871.3      15.7                                        3022600200152 
9.18       868.9      16.9                                        3022600200153 
9.27       841.1      17.0                                        3022600200154 
9.36       895.6      18.5                                        3022600200155 
9.44       862.1      18.8                                        3022600200156 
9.53       920.5      21.6                                        3022600200157 
9.61       890.0      21.4                                        3022600200158 
9.70       930.0      24.2                                        3022600200159 
9.78       897.7      24.8                                        3022600200160 
9.87       928.2      26.4                                        3022600200161 
9.95       927.2      28.0                                        3022600200162 
ENDDATA            153          0                                 3022600200163 
ENDSUBENT          162          0                                 3022600299999 
SUBENT        30226003   20081203                             31323022600300001 
BIB                  3          5                                 3022600300002 
REACTION   (1-H-CXX(N,THS)1-H-CXX,,SIG,,FCT)                      3022600300003 
            in barns per hydrogen atom.                           3022600300004 
SAMPLE     Acetone, (CH3)2CO                                      3022600300005 
COMMENT    Scattering cross-section slope = 11.6+-0.3 barns/angst/3022600300006 
           H-atom                                                 3022600300007 
ENDBIB               5          0                                 3022600300008 
NOCOMMON             0          0                                 3022600300009 
DATA                 3        151                                 3022600300010 
EN         DATA       ERR-S                                       3022600300011 
ANGSTROM   B          B                                           3022600300012 
 8.3000E-01 3.4900E+01 6.0000E-01                                 3022600300013 
 8.7000E-01 3.5200E+01 6.0000E-01                                 3022600300014 
 9.2000E-01 3.6500E+01 5.0000E-01                                 3022600300015 
 9.7000E-01 3.8700E+01 5.0000E-01                                 3022600300016 
 1.0200E+00 3.8400E+01 4.0000E-01                                 3022600300017 
 1.0600E+00 4.0400E+01 4.0000E-01                                 3022600300018 
 1.1100E+00 4.0100E+01 4.0000E-01                                 3022600300019 
 1.1600E+00 4.1700E+01 4.0000E-01                                 3022600300020 
 1.2100E+00 4.2600E+01 4.0000E-01                                 3022600300021 
 1.2500E+00 4.3100E+01 4.0000E-01                                 3022600300022 
 1.3000E+00 4.5500E+01 4.0000E-01                                 3022600300023 
 1.3500E+00 4.6400E+01 4.0000E-01                                 3022600300024 
 1.4000E+00 4.7400E+01 4.0000E-01                                 3022600300025 
 1.4500E+00 4.7700E+01 4.0000E-01                                 3022600300026 
 1.4900E+00 4.9600E+01 4.0000E-01                                 3022600300027 
 1.5400E+00 5.0000E+01 4.0000E-01                                 3022600300028 
 1.5900E+00 5.0400E+01 4.0000E-01                                 3022600300029 
 1.6400E+00 5.0800E+01 4.0000E-01                                 3022600300030 
 1.6800E+00 5.2800E+01 4.0000E-01                                 3022600300031 
 1.7300E+00 5.3400E+01 4.0000E-01                                 3022600300032 
 1.7800E+00 5.4600E+01 4.0000E-01                                 3022600300033 
 1.8300E+00 5.5200E+01 4.0000E-01                                 3022600300034 
 1.8700E+00 5.6100E+01 4.0000E-01                                 3022600300035 
 1.9200E+00 5.5900E+01 4.0000E-01                                 3022600300036 
 1.9700E+00 5.7200E+01 4.0000E-01                                 3022600300037 
 2.0200E+00 5.8300E+01 4.0000E-01                                 3022600300038 
 2.0600E+00 5.8200E+01 4.0000E-01                                 3022600300039 
 2.1100E+00 5.9300E+01 4.0000E-01                                 3022600300040 
 2.1600E+00 6.0400E+01 4.0000E-01                                 3022600300041 
 2.2100E+00 6.0300E+01 4.0000E-01                                 3022600300042 
 2.2500E+00 6.1200E+01 4.0000E-01                                 3022600300043 
 2.3000E+00 6.1400E+01 4.0000E-01                                 3022600300044 
 2.3500E+00 6.2500E+01 4.0000E-01                                 3022600300045 
 2.4000E+00 6.3000E+01 4.0000E-01                                 3022600300046 
 2.4400E+00 6.4100E+01 4.0000E-01                                 3022600300047 
 2.4900E+00 6.3500E+01 4.0000E-01                                 3022600300048 
 2.5400E+00 6.5200E+01 4.0000E-01                                 3022600300049 
 2.5900E+00 6.4900E+01 5.0000E-01                                 3022600300050 
 2.6300E+00 6.5900E+01 5.0000E-01                                 3022600300051 
 2.6800E+00 6.6600E+01 5.0000E-01                                 3022600300052 
 2.7300E+00 6.7500E+01 5.0000E-01                                 3022600300053 
 2.7800E+00 6.7200E+01 5.0000E-01                                 3022600300054 
 2.8200E+00 6.7400E+01 5.0000E-01                                 3022600300055 
 2.8700E+00 6.8400E+01 5.0000E-01                                 3022600300056 
 2.9200E+00 7.0500E+01 5.0000E-01                                 3022600300057 
 2.9700E+00 6.9500E+01 5.0000E-01                                 3022600300058 
 3.0100E+00 7.0800E+01 5.0000E-01                                 3022600300059 
 3.0600E+00 7.0700E+01 5.0000E-01                                 3022600300060 
 3.1100E+00 7.1800E+01 5.0000E-01                                 3022600300061 
 3.1600E+00 7.2100E+01 5.0000E-01                                 3022600300062 
 3.2100E+00 7.2000E+01 6.0000E-01                                 3022600300063 
 3.2500E+00 7.2400E+01 6.0000E-01                                 3022600300064 
 3.3000E+00 7.3000E+01 6.0000E-01                                 3022600300065 
 3.3500E+00 7.4100E+01 6.0000E-01                                 3022600300066 
 3.4000E+00 7.4700E+01 6.0000E-01                                 3022600300067 
 3.4400E+00 7.6300E+01 7.0000E-01                                 3022600300068 
 3.4900E+00 7.8400E+01 7.0000E-01                                 3022600300069 
 3.5400E+00 7.7800E+01 7.0000E-01                                 3022600300070 
 3.5900E+00 7.7300E+01 7.0000E-01                                 3022600300071 
 3.6300E+00 7.7600E+01 7.0000E-01                                 3022600300072 
 3.6800E+00 7.6700E+01 8.0000E-01                                 3022600300073 
 3.7300E+00 7.9800E+01 8.0000E-01                                 3022600300074 
 3.7800E+00 8.1300E+01 8.0000E-01                                 3022600300075 
 3.8200E+00 8.1900E+01 8.0000E-01                                 3022600300076 
 3.8700E+00 8.0700E+01 8.0000E-01                                 3022600300077 
 3.9200E+00 8.3400E+01 9.0000E-01                                 3022600300078 
 3.9700E+00 8.1100E+01 9.0000E-01                                 3022600300079 
 4.0100E+00 8.3900E+01 1.0000E+00                                 3022600300080 
 4.0600E+00 8.3700E+01 1.0000E+00                                 3022600300081 
 4.1100E+00 8.3500E+01 1.0000E+00                                 3022600300082 
 4.1600E+00 8.4800E+01 1.0000E+00                                 3022600300083 
 4.2000E+00 8.6800E+01 1.0000E+00                                 3022600300084 
 4.2500E+00 8.4800E+01 1.0000E+00                                 3022600300085 
 4.3000E+00 8.5100E+01 1.0000E+00                                 3022600300086 
 4.3500E+00 8.5600E+01 1.0000E+00                                 3022600300087 
 4.3900E+00 8.6400E+01 1.1000E+00                                 3022600300088 
 4.4400E+00 8.9500E+01 1.1000E+00                                 3022600300089 
 4.4900E+00 8.8700E+01 1.2000E+00                                 3022600300090 
 4.5400E+00 9.0100E+01 1.2000E+00                                 3022600300091 
 4.5800E+00 8.7800E+01 1.3000E+00                                 3022600300092 
 4.6300E+00 9.0200E+01 1.4000E+00                                 3022600300093 
 4.6800E+00 9.1400E+01 1.4000E+00                                 3022600300094 
 4.7300E+00 9.1200E+01 1.4000E+00                                 3022600300095 
 4.7700E+00 9.2500E+01 1.4000E+00                                 3022600300096 
 4.8200E+00 9.3700E+01 1.4000E+00                                 3022600300097 
 4.8700E+00 9.2100E+01 1.5000E+00                                 3022600300098 
 4.9200E+00 9.5400E+01 1.5000E+00                                 3022600300099 
 4.9600E+00 9.5400E+01 1.5000E+00                                 3022600300100 
 5.0100E+00 9.5600E+01 1.5000E+00                                 3022600300101 
 5.0600E+00 9.6500E+01 1.5000E+00                                 3022600300102 
 5.1100E+00 9.8300E+01 1.6000E+00                                 3022600300103 
 5.1600E+00 9.6300E+01 1.7000E+00                                 3022600300104 
 5.2000E+00 9.6900E+01 1.7000E+00                                 3022600300105 
 5.2500E+00 9.8300E+01 1.7000E+00                                 3022600300106 
 5.3000E+00 1.0010E+02 1.8000E+00                                 3022600300107 
 5.3500E+00 9.7700E+01 1.9000E+00                                 3022600300108 
 5.3900E+00 9.9500E+01 1.9000E+00                                 3022600300109 
 5.4400E+00 9.7500E+01 2.0000E+00                                 3022600300110 
 5.5100E+00 1.0060E+02 4.0000E-01                                 3022600300111 
 5.5900E+00 1.0160E+02 4.0000E-01                                 3022600300112 
 5.6800E+00 1.0270E+02 5.0000E-01                                 3022600300113 
 5.7600E+00 1.0370E+02 5.0000E-01                                 3022600300114 
 5.8500E+00 1.0370E+02 5.0000E-01                                 3022600300115 
 5.9300E+00 1.0550E+02 5.0000E-01                                 3022600300116 
 6.0200E+00 1.0440E+02 5.0000E-01                                 3022600300117 
 6.1100E+00 1.0650E+02 6.0000E-01                                 3022600300118 
 6.1900E+00 1.0810E+02 6.0000E-01                                 3022600300119 
 6.2800E+00 1.0910E+02 6.0000E-01                                 3022600300120 
 6.3600E+00 1.0920E+02 6.0000E-01                                 3022600300121 
 6.4500E+00 1.1160E+02 7.0000E-01                                 3022600300122 
 6.5300E+00 1.1220E+02 7.0000E-01                                 3022600300123 
 6.6200E+00 1.1310E+02 7.0000E-01                                 3022600300124 
 6.7000E+00 1.1470E+02 8.0000E-01                                 3022600300125 
 6.7900E+00 1.1630E+02 8.0000E-01                                 3022600300126 
 6.8800E+00 1.1610E+02 8.0000E-01                                 3022600300127 
 6.9600E+00 1.1620E+02 8.0000E-01                                 3022600300128 
 7.0500E+00 1.1950E+02 9.0000E-01                                 3022600300129 
 7.1300E+00 1.1800E+02 9.0000E-01                                 3022600300130 
 7.2200E+00 1.2020E+02 1.0000E+00                                 3022600300131 
 7.3000E+00 1.2190E+02 1.0000E+00                                 3022600300132 
 7.3900E+00 1.1980E+02 1.0000E+00                                 3022600300133 
 7.4700E+00 1.2190E+02 1.1000E+00                                 3022600300134 
 7.5600E+00 1.2460E+02 1.1000E+00                                 3022600300135 
 7.6400E+00 1.2320E+02 1.2000E+00                                 3022600300136 
 7.7300E+00 1.2490E+02 1.2000E+00                                 3022600300137 
 7.8200E+00 1.2610E+02 1.3000E+00                                 3022600300138 
 7.9000E+00 1.2740E+02 1.3000E+00                                 3022600300139 
 8.0000E+00 1.2610E+02 1.4000E+00                                 3022600300140 
 8.0700E+00 1.2690E+02 1.4000E+00                                 3022600300141 
 8.1500E+00 1.2920E+02 1.5000E+00                                 3022600300142 
 8.2400E+00 1.3520E+02 1.6000E+00                                 3022600300143 
 8.3300E+00 1.3190E+02 1.7000E+00                                 3022600300144 
 8.4100E+00 1.3110E+02 1.7000E+00                                 3022600300145 
 8.5000E+00 1.3280E+02 1.8000E+00                                 3022600300146 
 8.5900E+00 1.3630E+02 1.9000E+00                                 3022600300147 
 8.6700E+00 1.3620E+02 2.0000E+00                                 3022600300148 
 8.7600E+00 1.3540E+02 2.1000E+00                                 3022600300149 
 8.8400E+00 1.3930E+02 2.3000E+00                                 3022600300150 
 8.9300E+00 1.3490E+02 2.3000E+00                                 3022600300151 
 9.0100E+00 1.4040E+02 2.5000E+00                                 3022600300152 
 9.1000E+00 1.4350E+02 2.6000E+00                                 3022600300153 
 9.1800E+00 1.4310E+02 2.8000E+00                                 3022600300154 
 9.2700E+00 1.3850E+02 2.8000E+00                                 3022600300155 
 9.3600E+00 1.4750E+02 3.1000E+00                                 3022600300156 
 9.4400E+00 1.4190E+02 3.1000E+00                                 3022600300157 
 9.5300E+00 1.5170E+02 3.6000E+00                                 3022600300158 
 9.6100E+00 1.4650E+02 3.6000E+00                                 3022600300159 
 9.7000E+00 1.5320E+02 4.0000E+00                                 3022600300160 
 9.7800E+00 1.4780E+02 4.1000E+00                                 3022600300161 
 9.8700E+00 1.5290E+02 4.4000E+00                                 3022600300162 
 9.9500E+00 1.5270E+02 4.7000E+00                                 3022600300163 
ENDDATA            153          0                                 3022600300164 
ENDSUBENT          163          0                                 3022600399999 
SUBENT        30226004   20081203                             31323022600400001 
BIB                  3          4                                 3022600400002 
REACTION   (1-H-CXX(N,TOT),,SIG,,FCT)                             3022600400003 
            in barns per molecule                                 3022600400004 
SAMPLE     Methyl acetate, (CH3)2CO2                              3022600400005 
HISTORY    (20080430S) Dataset was restored.                      3022600400006 
ENDBIB               4          0                                 3022600400007 
NOCOMMON             0          0                                 3022600400008 
DATA                 3         59                                 3022600400009 
WVE-LN     DATA       ERR-S                                       3022600400010 
ANGSTROM   B          B                                           3022600400011 
4.99       571.7       2.0                                        3022600400012 
5.08       577.4       2.1                                        3022600400013 
5.16       586.6       2.2                                        3022600400014 
5.25       595.8       2.3                                        3022600400015 
5.34       597.7       2.3                                        3022600400016 
5.42       606.3       2.4                                        3022600400017 
5.51       610.4       2.5                                        3022600400018 
5.59       614.7       2.6                                        3022600400019 
5.68       621.0       2.7                                        3022600400020 
5.76       633.1       2.9                                        3022600400021 
5.85       638.9       3.0                                        3022600400022 
5.93       646.1       3.1                                        3022600400023 
6.02       644.0       3.2                                        3022600400024 
6.11       658.2       3.4                                        3022600400025 
6.19       661.1       3.5                                        3022600400026 
6.28       666.8       3.7                                        3022600400027 
6.36       668.1       3.8                                        3022600400028 
6.45       681.4       4.0                                        3022600400029 
6.53       691.0       4.3                                        3022600400030 
6.62       692.4       4.5                                        3022600400031 
6.70       709.2       4.7                                        3022600400032 
6.79       703.8       4.8                                        3022600400033 
6.88       717.5       5.1                                        3022600400034 
6.96       719.3       5.2                                        3022600400035 
7.05       728.0       5.6                                        3022600400036 
7.13       737.1       5.8                                        3022600400037 
7.22       736.4       6.3                                        3022600400038 
7.30       744.4       6.5                                        3022600400039 
7.39       761.4       6.7                                        3022600400040 
7.47       751.0       6.8                                        3022600400041 
7.56       753.6       7.2                                        3022600400042 
7.64       759.8       7.5                                        3022600400043 
7.73       761.4       7.8                                        3022600400044 
7.82       789.0       8.3                                        3022600400045 
7.90       782.3       8.7                                        3022600400046 
7.99       794.1       9.2                                        3022600400047 
8.07       794.7       9.5                                        3022600400048 
8.16       794.0      10.0                                        3022600400049 
8.24       819.9      11.0                                        3022600400050 
8.33       805.9      11.4                                        3022600400051 
8.41       807.1      11.9                                        3022600400052 
8.50       833.6      12.7                                        3022600400053 
8.59       834.2      13.6                                        3022600400054 
8.67       839.3      14.3                                        3022600400055 
8.76       840.9      15.1                                        3022600400056 
8.84       846.3      16.0                                        3022600400057 
8.93       847.9      16.8                                        3022600400058 
9.01       869.6      18.1                                        3022600400059 
9.10       867.1      19.1                                        3022600400060 
9.19       896.9      21.6                                        3022600400061 
9.27       851.2      22.0                                        3022600400062 
9.35       878.9      23.4                                        3022600400063 
9.44       905.5      27.4                                        3022600400064 
9.53       842.3      27.4                                        3022600400065 
9.61       859.6      33.1                                        3022600400066 
9.70       916.8      42.1                                        3022600400067 
9.78       914.1      46.5                                        3022600400068 
9.87       910.0      58.8                                        3022600400069 
9.95       920.6      68.3                                        3022600400070 
ENDDATA             61          0                                 3022600400071 
ENDSUBENT           70          0                                 3022600499999 
SUBENT        30226005   20081203                             31323022600500001 
BIB                  4          6                                 3022600500002 
REACTION   (1-H-CXX(N,THS)1-H-CXX,,SIG,,FCT)                      3022600500003 
            in barns per hydrogen atom                            3022600500004 
SAMPLE     Methyl acetate, (CH3)2CO2                              3022600500005 
COMMENT    Scattering cross-section slope = 10.6+-0.4 b/angstrom/ 3022600500006 
           H-atom                                                 3022600500007 
HISTORY    (20080430S) Dataset was restored.                      3022600500008 
ENDBIB               6          0                                 3022600500009 
NOCOMMON             0          0                                 3022600500010 
DATA                 3         59                                 3022600500011 
WVE-LN     DATA       ERR-S                                       3022600500012 
ANGSTROM   B          B                                           3022600500013 
4.99        94.4       0.3                                        3022600500014 
5.08        95.3       0.3                                        3022600500015 
5.16        96.8       0.4                                        3022600500016 
5.25        98.3       0.4                                        3022600500017 
5.34        98.6       0.4                                        3022600500018 
5.42       100.1       0.4                                        3022600500019 
5.51       100.7       0.4                                        3022600500020 
5.59       101.4       0.4                                        3022600500021 
5.68       102.4       0.5                                        3022600500022 
5.76       104.4       0.5                                        3022600500023 
5.85       105.4       0.5                                        3022600500024 
5.93       106.6       0.5                                        3022600500025 
6.02       106.2       0.5                                        3022600500026 
6.11       108.5       0.6                                        3022600500027 
6.19       109.1       0.6                                        3022600500028 
6.28       109.9       0.6                                        3022600500029 
6.36       110.2       0.6                                        3022600500030 
6.45       112.4       0.7                                        3022600500031 
6.53       114.0       0.7                                        3022600500032 
6.62       114.2       0.7                                        3022600500033 
6.70       117.0       0.8                                        3022600500034 
6.79       116.0       0.8                                        3022600500035 
6.88       118.3       0.8                                        3022600500036 
6.96       118.6       0.9                                        3022600500037 
7.05       120.0       0.9                                        3022600500038 
7.13       121.5       1.0                                        3022600500039 
7.22       121.4       1.0                                        3022600500040 
7.30       122.7       1.1                                        3022600500041 
7.39       125.5       1.1                                        3022600500042 
7.47       123.8       1.1                                        3022600500043 
7.56       124.2       1.2                                        3022600500044 
7.64       125.2       1.3                                        3022600500045 
7.73       125.5       1.3                                        3022600500046 
7.82       130.1       1.4                                        3022600500047 
7.90       128.9       1.5                                        3022600500048 
7.99       130.9       1.5                                        3022600500049 
8.07       131.0       1.6                                        3022600500050 
8.16       130.8       1.7                                        3022600500051 
8.24       135.1       1.8                                        3022600500052 
8.33       132.8       1.9                                        3022600500053 
8.41       133.0       2.0                                        3022600500054 
8.50       137.4       2.1                                        3022600500055 
8.59       137.4       2.3                                        3022600500056 
8.67       138.3       2.4                                        3022600500057 
8.76       138.5       2.5                                        3022600500058 
8.84       139.8       2.7                                        3022600500059 
8.93       139.7       2.8                                        3022600500060 
9.01       143.3       3.0                                        3022600500061 
9.10       142.8       3.2                                        3022600500062 
9.19       147.8       3.6                                        3022600500063 
9.27       140.2       3.7                                        3022600500064 
9.35       144.7       3.9                                        3022600500065 
9.44       149.2       4.5                                        3022600500066 
9.53       138.6       4.6                                        3022600500067 
9.61       141.5       5.5                                        3022600500068 
9.70       151.0       7.0                                        3022600500069 
9.78       150.5       7.8                                        3022600500070 
9.87       149.8       9.8                                        3022600500071 
9.95       151.6      11.4                                        3022600500072 
ENDDATA             61          0                                 3022600500073 
ENDSUBENT           72          0                                 3022600599999 
SUBENT        30226006   20081203                             31323022600600001 
BIB                  3          4                                 3022600600002 
REACTION   (1-H-CXX(N,TOT),,SIG,,FCT)                             3022600600003 
            in barns per molecule                                 3022600600004 
SAMPLE     Acetic anhydride, (CH3CO)2O                            3022600600005 
HISTORY    (20080430S) Dataset was restored.                      3022600600006 
ENDBIB               4          0                                 3022600600007 
NOCOMMON             0          0                                 3022600600008 
DATA                 3        146                                 3022600600009 
WVE-LN     DATA       ERR-S                                       3022600600010 
ANGSTROM   B          B                                           3022600600011 
0.73       197.5      12.3                                        3022600600012 
0.78       203.9       7.4                                        3022600600013 
0.82       208.0       6.1                                        3022600600014 
0.87       220.3       5.3                                        3022600600015 
0.92       222.9       4.8                                        3022600600016 
0.96       239.0       4.5                                        3022600600017 
1.01       246.1       4.3                                        3022600600018 
1.06       257.6       4.1                                        3022600600019 
1.11       262.8       4.0                                        3022600600020 
1.15       267.4       3.9                                        3022600600021 
1.20       274.5       3.7                                        3022600600022 
1.25       270.5       3.7                                        3022600600023 
1.30       288.8       3.7                                        3022600600024 
1.34       298.7       3.5                                        3022600600025 
1.39       295.6       3.5                                        3022600600026 
1.44       299.2       3.5                                        3022600600027 
1.48       310.5       3.5                                        3022600600028 
1.53       318.2       3.4                                        3022600600029 
1.58       321.7       3.4                                        3022600600030 
1.63       325.2       3.3                                        3022600600031 
1.67       325.9       3.3                                        3022600600032 
1.72       337.4       3.3                                        3022600600033 
1.77       332.8       3.4                                        3022600600034 
1.82       347.3       3.4                                        3022600600035 
1.86       358.0       3.4                                        3022600600036 
1.91       359.6       3.3                                        3022600600037 
1.96       354.8       3.3                                        3022600600038 
2.00       364.7       3.3                                        3022600600039 
2.05       368.4       3.4                                        3022600600040 
2.10       375.5       3.4                                        3022600600041 
2.15       374.3       3.5                                        3022600600042 
2.19       376.1       3.5                                        3022600600043 
2.24       383.3       3.5                                        3022600600044 
2.29       389.5       3.5                                        3022600600045 
2.34       384.4       3.6                                        3022600600046 
2.38       387.2       3.8                                        3022600600047 
2.43       394.0       3.9                                        3022600600048 
2.48       400.5       4.0                                        3022600600049 
2.53       399.2       4.0                                        3022600600050 
2.57       411.4       4.0                                        3022600600051 
2.62       411.2       4.2                                        3022600600052 
2.67       415.7       4.3                                        3022600600053 
2.72       415.3       4.4                                        3022600600054 
2.76       418.5       4.5                                        3022600600055 
2.81       427.3       4.7                                        3022600600056 
2.86       429.4       4.8                                        3022600600057 
2.90       430.6       4.8                                        3022600600058 
2.95       438.3       4.9                                        3022600600059 
3.00       444.4       4.8                                        3022600600060 
3.05       448.9       4.8                                        3022600600061 
3.09       447.5       4.9                                        3022600600062 
3.14       453.7       5.0                                        3022600600063 
3.19       458.1       5.0                                        3022600600064 
3.24       460.0       5.1                                        3022600600065 
3.28       450.4       5.3                                        3022600600066 
3.33       463.4       5.5                                        3022600600067 
3.38       477.7       5.6                                        3022600600068 
3.42       468.0       5.9                                        3022600600069 
3.47       481.0       6.1                                        3022600600070 
3.52       489.4       6.3                                        3022600600071 
3.57       489.5       6.4                                        3022600600072 
3.61       477.2       6.5                                        3022600600073 
3.66       493.4       6.7                                        3022600600074 
3.71       492.9       6.8                                        3022600600075 
3.76       503.7       7.1                                        3022600600076 
3.80       502.9       7.2                                        3022600600077 
3.85       508.9       7.5                                        3022600600078 
3.90       499.1       7.8                                        3022600600079 
3.95       517.7       8.3                                        3022600600080 
3.99       517.7       8.7                                        3022600600081 
4.04       512.1       8.9                                        3022600600082 
4.09       519.8       8.8                                        3022600600083 
4.13       536.3       8.8                                        3022600600084 
4.18       525.7       9.0                                        3022600600085 
4.23       521.5       9.3                                        3022600600086 
4.28       540.9       9.5                                        3022600600087 
4.32       530.1       9.6                                        3022600600088 
4.37       540.8      10.1                                        3022600600089 
4.42       546.6      10.5                                        3022600600090 
4.47       540.3      11.1                                        3022600600091 
4.51       573.1      11.5                                        3022600600092 
4.56       546.8      12.6                                        3022600600093 
4.57       568.8       2.5                                        3022600600094 
4.65       575.6       2.6                                        3022600600095 
4.74       585.9       2.6                                        3022600600096 
4.82       585.6       2.6                                        3022600600097 
4.91       588.9       2.7                                        3022600600098 
4.99       599.0       2.8                                        3022600600099 
5.08       599.1       2.9                                        3022600600100 
5.16       610.3       3.0                                        3022600600101 
5.25       615.5       3.1                                        3022600600102 
5.34       621.2       3.3                                        3022600600103 
5.42       628.8       3.4                                        3022600600104 
5.51       633.3       3.6                                        3022600600105 
5.59       645.5       3.8                                        3022600600106 
5.68       652.0       2.5                                        3022600600107 
5.76       660.1       2.6                                        3022600600108 
5.85       668.9       2.6                                        3022600600109 
5.93       671.6       2.7                                        3022600600110 
6.02       675.6       2.8                                        3022600600111 
6.11       678.6       3.0                                        3022600600112 
6.19       691.2       3.1                                        3022600600113 
6.28       698.1       3.3                                        3022600600114 
6.36       702.2       3.5                                        3022600600115 
6.45       713.4       3.6                                        3022600600116 
6.53       723.0       3.7                                        3022600600117 
6.62       728.7       3.9                                        3022600600118 
6.70       733.5       4.1                                        3022600600119 
6.79       737.2       4.3                                        3022600600120 
6.88       749.6       4.4                                        3022600600121 
6.96       757.4       4.6                                        3022600600122 
7.05       765.5       4.8                                        3022600600123 
7.13       762.5       5.1                                        3022600600124 
7.22       775.4       5.3                                        3022600600125 
7.30       774.2       5.6                                        3022600600126 
7.39       783.9       5.9                                        3022600600127 
7.47       791.6       6.2                                        3022600600128 
7.56       800.4       6.5                                        3022600600129 
7.64       801.2       6.8                                        3022600600130 
7.73       812.0       7.3                                        3022600600131 
7.82       824.3       7.6                                        3022600600132 
7.90       815.1       8.0                                        3022600600133 
7.99       822.5       8.3                                        3022600600134 
8.07       812.8       8.9                                        3022600600135 
8.16       811.1       9.2                                        3022600600136 
8.24       846.0       9.9                                        3022600600137 
8.33       843.9      10.4                                        3022600600138 
8.41       847.9      10.9                                        3022600600139 
8.50       847.2      11.7                                        3022600600140 
8.58       853.1      12.5                                        3022600600141 
8.67       868.2      13.2                                        3022600600142 
8.76       867.6      14.2                                        3022600600143 
8.84       897.0      15.0                                        3022600600144 
8.93       862.6      15.7                                        3022600600145 
9.01       893.3      17.2                                        3022600600146 
9.10       892.8      18.2                                        3022600600147 
9.18       876.7      19.6                                        3022600600148 
9.27       892.2      21.0                                        3022600600149 
9.35       903.4      23.1                                        3022600600150 
9.44       884.1      24.3                                        3022600600151 
9.53       926.7      27.1                                        3022600600152 
9.61       943.6      29.5                                        3022600600153 
9.63       963.9      33.7                                        3022600600154 
9.78       984.0      37.0                                        3022600600155 
9.87       953.1      38.2                                        3022600600156 
9.95       920.5      49.8                                        3022600600157 
ENDDATA            148          0                                 3022600600158 
ENDSUBENT          157          0                                 3022600699999 
SUBENT        30226007   20081203                             31323022600700001 
BIB                  4          6                                 3022600700002 
REACTION   (1-H-CXX(N,THS)1-H-CXX,,SIG,,FCT)                      3022600700003 
            in barns per hydrogen atom                            3022600700004 
SAMPLE     Acetic anhydride, (CH3CO)2O                            3022600700005 
COMMENT    Scattering cross-section slope = (10.8+-0.3) barns/    3022600700006 
           Angstrom/H-atom                                        3022600700007 
HISTORY    (20080430S) Dataset was restored.                      3022600700008 
ENDBIB               6          0                                 3022600700009 
NOCOMMON             0          0                                 3022600700010 
DATA                 3        146                                 3022600700011 
WVE-LN     DATA       ERR-S                                       3022600700012 
ANGSTROM   B          B                                           3022600700013 
0.73        32.8      2.0                                         3022600700014 
0.78        33.8      1.2                                         3022600700015 
0.82        34.5      1.0                                         3022600700016 
0.87        36.5      0.9                                         3022600700017 
0.92        37.0      0.8                                         3022600700018 
0.96        39.6      0.8                                         3022600700019 
1.01        40.8      0.7                                         3022600700020 
1.06        42.7      0.7                                         3022600700021 
1.11        43.6      0.7                                         3022600700022 
1.15        44.3      0.6                                         3022600700023 
1.20        45.5      0.6                                         3022600700024 
1.25        44.8      0.6                                         3022600700025 
1.30        47.9      0.6                                         3022600700026 
1.34        49.5      0.6                                         3022600700027 
1.39        49.0      0.6                                         3022600700028 
1.44        49.6      0.6                                         3022600700029 
1.48        51.5      0.6                                         3022600700030 
1.53        52.7      0.6                                         3022600700031 
1.58        53.3      0.6                                         3022600700032 
1.63        53.9      0.6                                         3022600700033 
1.67        54.0      0.6                                         3022600700034 
1.72        55.9      0.6                                         3022600700035 
1.77        55.1      0.6                                         3022600700036 
1.82        57.5      0.6                                         3022600700037 
1.86        59.3      0.6                                         3022600700038 
1.91        59.6      0.6                                         3022600700039 
1.96        58.7      0.6                                         3022600700040 
2.00        60.4      0.6                                         3022600700041 
2.05        61.0      0.6                                         3022600700042 
2.10        62.2      0.6                                         3022600700043 
2.15        62.0      0.6                                         3022600700044 
2.19        62.3      0.6                                         3022600700045 
2.24        63.5      0.6                                         3022600700046 
2.29        64.5      0.6                                         3022600700047 
2.34        63.6      0.6                                         3022600700048 
2.38        64.1      0.6                                         3022600700049 
2.43        65.2      0.7                                         3022600700050 
2.48        66.3      0.7                                         3022600700051 
2.53        66.1      0.7                                         3022600700052 
2.57        68.1      0.7                                         3022600700053 
2.62        68.1      0.7                                         3022600700054 
2.67        68.8      0.7                                         3022600700055 
2.72        68.7      0.7                                         3022600700056 
2.76        69.2      0.8                                         3022600700057 
2.81        70.7      0.8                                         3022600700058 
2.86        71.0      0.8                                         3022600700059 
2.90        71.2      0.8                                         3022600700060 
2.95        72.5      0.8                                         3022600700061 
3.00        73.5      0.8                                         3022600700062 
3.05        74.2      0.8                                         3022600700063 
3.09        74.0      0.8                                         3022600700064 
3.14        75.0      0.8                                         3022600700065 
3.19        75.8      0.8                                         3022600700066 
3.24        76.1      0.8                                         3022600700067 
3.28        74.5      0.9                                         3022600700068 
3.33        76.6      0.9                                         3022600700069 
3.38        79.0      0.9                                         3022600700070 
3.42        77.0      1.0                                         3022600700071 
3.47        79.5      1.0                                         3022600700072 
3.52        80.9      1.0                                         3022600700073 
3.57        80.9      1.1                                         3022600700074 
3.61        78.9      1.1                                         3022600700075 
3.66        81.6      1.1                                         3022600700076 
3.71        81.5      1.1                                         3022600700077 
3.76        83.2      1.1                                         3022600700078 
3.80        83.1      1.2                                         3022600700079 
3.85        84.1      1.2                                         3022600700080 
3.90        82.5      1.3                                         3022600700081 
3.95        85.5      1.4                                         3022600700082 
3.99        85.5      1.4                                         3022600700083 
4.04        87.6      1.5                                         3022600700084 
4.09        85.9      1.5                                         3022600700085 
4.13        88.6      1.5                                         3022600700086 
4.18        86.8      1.5                                         3022600700087 
4.23        86.1      1.6                                         3022600700088 
4.28        89.4      1.6                                         3022600700089 
4.32        87.5      1.6                                         3022600700090 
4.37        89.3      1.7                                         3022600700091 
4.42        90.3      1.7                                         3022600700092 
4.47        89.2      1.8                                         3022600700093 
4.51        94.7      1.9                                         3022600700094 
4.56        90.3      2.1                                         3022600700095 
4.57        93.9      0.4                                         3022600700096 
4.65        95.1      0.4                                         3022600700097 
4.74        96.8      0.4                                         3022600700098 
4.82        96.7      0.4                                         3022600700099 
4.91        97.2      0.4                                         3022600700100 
4.99        98.9      0.5                                         3022600700101 
5.08        98.9      0.5                                         3022600700102 
5.16       100.7      0.5                                         3022600700103 
5.25       101.6      0.5                                         3022600700104 
5.34       102.5      0.5                                         3022600700105 
5.42       103.8      0.6                                         3022600700106 
5.51       104.5      0.6                                         3022600700107 
5.59       106.5      0.6                                         3022600700108 
5.68       107.6      0.4                                         3022600700109 
5.76       108.9      0.4                                         3022600700110 
5.85       110.4      0.4                                         3022600700111 
5.93       110.8      0.4                                         3022600700112 
6.02       111.5      0.5                                         3022600700113 
6.11       112.0      0.5                                         3022600700114 
6.19       114.0      0.5                                         3022600700115 
6.28       115.2      0.5                                         3022600700116 
6.36       115.9      0.6                                         3022600700117 
6.45       117.7      0.6                                         3022600700118 
6.53       119.3      0.6                                         3022600700119 
6.62       102.2      0.6                                         3022600700120 
6.70       121.0      0.7                                         3022600700121 
6.79       121.6      0.7                                         3022600700122 
6.88       123.7      0.7                                         3022600700123 
6.96       124.9      0.8                                         3022600700124 
7.05       126.3      0.8                                         3022600700125 
7.13       125.8      0.8                                         3022600700126 
7.22       127.9      0.9                                         3022600700127 
7.30       127.7      0.9                                         3022600700128 
7.39       129.3      1.0                                         3022600700129 
7.47       130.5      1.0                                         3022600700130 
7.56       132.0      1.1                                         3022600700131 
7.64       132.1      1.1                                         3022600700132 
7.73       133.9      1.3                                         3022600700133 
7.82       135.9      1.3                                         3022600700134 
7.90       134.4      1.3                                         3022600700135 
7.99       135.6      1.4                                         3022600700136 
8.07       134.0      1.5                                         3022600700137 
8.16       133.7      1.5                                         3022600700138 
8.24       139.5      1.6                                         3022600700139 
8.33       139.1      1.7                                         3022600700140 
8.41       139.8      1.8                                         3022600700141 
8.50       139.6      1.9                                         3022600700142 
8.58       140.6      2.0                                         3022600700143 
8.67       143.1      2.2                                         3022600700144 
8.76       143.0      2.4                                         3022600700145 
8.84       147.9      2.5                                         3022600700146 
8.93       142.1      2.6                                         3022600700147 
9.01       147.2      2.9                                         3022600700148 
9.10       147.1      3.0                                         3022600700149 
9.18       144.4      3.3                                         3022600700150 
9.27       147.0      3.5                                         3022600700151 
9.35       148.8      3.8                                         3022600700152 
9.44       145.6      4.0                                         3022600700153 
9.53       152.7      4.5                                         3022600700154 
9.61       155.5      4.9                                         3022600700155 
9.63       158.9      5.6                                         3022600700156 
9.78       162.2      6.1                                         3022600700157 
9.87       157.0      6.4                                         3022600700158 
9.95       151.6      8.3                                         3022600700159 
ENDDATA            148          0                                 3022600700160 
ENDSUBENT          159          0                                 3022600799999 
SUBENT        30226008   20081203                             31323022600800001 
BIB                  3          4                                 3022600800002 
REACTION   (1-H-CXX(N,TOT),,SIG,,FCT)                             3022600800003 
            in barns per molecule.                                3022600800004 
SAMPLE     Acetonitrile, CH3CN                                    3022600800005 
HISTORY    (20080430S) Dataset was restored.                      3022600800006 
ENDBIB               4          0                                 3022600800007 
NOCOMMON             0          0                                 3022600800008 
DATA                 3         65                                 3022600800009 
WVE-LN     DATA       ERR-S                                       3022600800010 
ANGSTROM   B          B                                           3022600800011 
4.59       302.9       1.2                                        3022600800012 
4.67       307.1       1.2                                        3022600800013 
4.76       310.2       1.2                                        3022600800014 
4.84       312.7       1.2                                        3022600800015 
4.93       316.1       1.3                                        3022600800016 
5.01       323.9       1.3                                        3022600800017 
5.10       323.0       1.1                                        3022600800018 
5.18       329.1       1.1                                        3022600800019 
5.26       335.0       1.0                                        3022600800020 
5.35       340.3       0.9                                        3022600800021 
5.43       342.5       0.9                                        3022600800022 
5.52       349.4       0.9                                        3022600800023 
5.60       353.4       1.1                                        3022600800024 
5.69       357.2       1.0                                        3022600800025 
5.77       360.1       1.1                                        3022600800026 
5.86       362.8       1.1                                        3022600800027 
5.94       368.0       1.2                                        3022600800028 
6.02       375.1       1.2                                        3022600800029 
6.11       376.7       1.3                                        3022600800030 
6.19       383.5       1.4                                        3022600800031 
6.28       386.7       1.4                                        3022600800032 
6.36       391.7       1.5                                        3022600800033 
6.45       395.9       1.6                                        3022600800034 
6.53       398.7       1.6                                        3022600800035 
6.61       403.5       1.7                                        3022600800036 
6.70       410.3       1.8                                        3022600800037 
6.78       409.5       1.8                                        3022600800038 
6.87       413.7       1.9                                        3022600800039 
6.95       416.1       2.0                                        3022600800040 
7.04       420.3       2.1                                        3022600800041 
7.12       425.2       2.2                                        3022600800042 
7.21       429.1       2.3                                        3022600800043 
7.29       432.4       2.4                                        3022600800044 
7.37       434.5       2.6                                        3022600800045 
7.46       442.2       2.7                                        3022600800046 
7.54       441.2       2.8                                        3022600800047 
7.63       446.0       3.0                                        3022600800048 
7.71       451.2       3.2                                        3022600800049 
7.80       452.7       3.3                                        3022600800050 
7.88       455.8       3.6                                        3022600800051 
7.96       457.4       3.7                                        3022600800052 
8.05       464.7       4.0                                        3022600800053 
8.13       463.2       4.3                                        3022600800054 
8.22       473.4       4.6                                        3022600800055 
8.30       470.0       4.9                                        3022600800056 
8.39       470.4       4.8                                        3022600800057 
8.47       478.7       5.1                                        3022600800058 
8.56       485.6       5.4                                        3022600800059 
8.64       480.9       5.6                                        3022600800060 
8.72       495.0       6.1                                        3022600800061 
8.81       501.8       6.4                                        3022600800062 
8.89       489.7       6.6                                        3022600800063 
8.98       492.6       7.1                                        3022600800064 
9.06       488.2       6.8                                        3022600800065 
9.15       501.4       7.3                                        3022600800066 
9.23       516.3       7.9                                        3022600800067 
9.31       521.5       8.3                                        3022600800068 
9.40       524.4       8.7                                        3022600800069 
9.48       520.0       9.3                                        3022600800070 
9.57       520.9       9.9                                        3022600800071 
9.65       524.7      10.3                                        3022600800072 
9.74       533.4      11.2                                        3022600800073 
9.82       500.8      14.6                                        3022600800074 
9.91       516.1      16.1                                        3022600800075 
9.99       554.3      19.2                                        3022600800076 
ENDDATA             67          0                                 3022600800077 
ENDSUBENT           76          0                                 3022600899999 
SUBENT        30226009   20081203                             31323022600900001 
BIB                  4          6                                 3022600900002 
REACTION   (1-H-CXX(N,THS)1-H-CXX,,SIG,,FCT)                      3022600900003 
            in barns per hydrogen atom                            3022600900004 
SAMPLE     Acetonitrile, CH3CN                                    3022600900005 
COMMENT    Scattering cross-section slope = (12.6 +- 0.3) barns/  3022600900006 
           Angstrom/H-atom                                        3022600900007 
HISTORY    (20080430S) Dataset was restored.                      3022600900008 
ENDBIB               6          0                                 3022600900009 
NOCOMMON             0          0                                 3022600900010 
DATA                 3         65                                 3022600900011 
WVE-LN     DATA       ERR-S                                       3022600900012 
ANGSTROM   B          B                                           3022600900013 
4.59        98.5      0.4                                         3022600900014 
4.67        99.9      0.4                                         3022600900015 
4.76       100.9      0.4                                         3022600900016 
4.84       101.6      0.4                                         3022600900017 
4.93       102.8      0.4                                         3022600900018 
5.01       105.3      0.4                                         3022600900019 
5.10       105.0      0.4                                         3022600900020 
5.18       106.9      0.4                                         3022600900021 
5.26       108.5      0.4                                         3022600900022 
5.35       110.6      0.3                                         3022600900023 
5.43       111.3      0.3                                         3022600900024 
5.52       113.5      0.3                                         3022600900025 
5.60       114.8      0.3                                         3022600900026 
5.69       116.0      0.4                                         3022600900027 
5.77       117.0      0.4                                         3022600900028 
5.86       117.8      0.4                                         3022600900029 
5.94       119.5      0.4                                         3022600900030 
6.02       121.8      0.4                                         3022600900031 
6.11       122.3      0.4                                         3022600900032 
6.19       124.6      0.5                                         3022600900033 
6.28       125.5      0.5                                         3022600900034 
6.36       127.2      0.5                                         3022600900035 
6.45       128.5      0.5                                         3022600900036 
6.53       129.4      0.5                                         3022600900037 
6.61       131.0      0.6                                         3022600900038 
6.70       133.2      0.6                                         3022600900039 
6.78       132.9      0.6                                         3022600900040 
6.87       134.3      0.6                                         3022600900041 
6.95       135.0      0.7                                         3022600900042 
7.04       136.4      0.7                                         3022600900043 
7.12       137.9      0.7                                         3022600900044 
7.21       139.2      0.8                                         3022600900045 
7.29       140.3      0.8                                         3022600900046 
7.37       140.9      0.8                                         3022600900047 
7.46       143.4      0.9                                         3022600900048 
7.54       143.1      0.9                                         3022600900049 
7.63       144.6      1.0                                         3022600900050 
7.71       146.3      1.0                                         3022600900051 
7.80       146.8      1.1                                         3022600900052 
7.88       147.7      1.2                                         3022600900053 
7.96       148.2      1.2                                         3022600900054 
8.05       150.6      1.3                                         3022600900055 
8.13       150.1      1.4                                         3022600900056 
8.22       153.4      1.5                                         3022600900057 
8.30       152.2      1.6                                         3022600900058 
8.39       152.3      1.6                                         3022600900059 
8.47       155.1      1.7                                         3022600900060 
8.56       157.3      1.8                                         3022600900061 
8.64       155.7      1.9                                         3022600900062 
8.72       160.4      2.0                                         3022600900063 
8.81       162.6      2.1                                         3022600900064 
8.89       158.5      2.2                                         3022600900065 
8.98       159.4      2.4                                         3022600900066 
9.06       157.9      2.3                                         3022600900067 
9.15       162.2      2.4                                         3022600900068 
9.23       167.2      2.6                                         3022600900069 
9.31       168.9      2.8                                         3022600900070 
9.40       169.8      2.9                                         3022600900071 
9.48       168.3      3.1                                         3022600900072 
9.57       168.5      3.3                                         3022600900073 
9.65       169.8      3.4                                         3022600900074 
9.74       172.6      3.7                                         3022600900075 
9.82       161.7      4.9                                         3022600900076 
9.91       166.7      5.4                                         3022600900077 
9.99       179.4      6.4                                         3022600900078 
ENDDATA             67          0                                 3022600900079 
ENDSUBENT           78          0                                 3022600999999 
SUBENT        30226010   20081203                             31323022601000001 
BIB                  3          4                                 3022601000002 
REACTION   (1-H-CXX(N,TOT),,SIG,,FCT)                             3022601000003 
            in barns per molecule                                 3022601000004 
SAMPLE     Dimethyl-sulphoxide, (CH3)2SO                          3022601000005 
HISTORY    (20080430S) Dataset was restored.                      3022601000006 
ENDBIB               4          0                                 3022601000007 
NOCOMMON             0          0                                 3022601000008 
DATA                 3        148                                 3022601000009 
WVE-LN     DATA       ERR-S                                       3022601000010 
ANGSTROM   B          B                                           3022601000011 
0.83       203.4       3.8                                        3022601000012 
0.87       204.3       3.3                                        3022601000013 
0.92       211.0       3.0                                        3022601000014 
0.97       222.8       2.8                                        3022601000015 
1.02       231.1       2.6                                        3022601000016 
1.06       235.9       2.5                                        3022601000017 
1.11       243.9       2.5                                        3022601000018 
1.16       247.0       2.4                                        3022601000019 
1.21       255.8       2.4                                        3022601000020 
1.25       263.1       2.3                                        3022601000021 
1.30       264.7       2.3                                        3022601000022 
1.35       269.6       2.3                                        3022601000023 
1.40       279.4       2.3                                        3022601000024 
1.45       282.0       2.3                                        3022601000025 
1.49       287.1       2.3                                        3022601000026 
1.54       289.5       2.3                                        3022601000027 
1.59       297.9       2.3                                        3022601000028 
1.64       299.7       2.2                                        3022601000029 
1.68       305.6       2.2                                        3022601000030 
1.73       309.6       2.2                                        3022601000031 
1.78       314.0       2.3                                        3022601000032 
1.83       320.4       2.3                                        3022601000033 
1.92       333.9       2.2                                        3022601000034 
1.97       338.1       2.2                                        3022601000035 
2.02       338.1       2.2                                        3022601000036 
2.06       344.4       2.3                                        3022601000037 
2.11       354.2       2.3                                        3022601000038 
2.16       359.2       2.3                                        3022601000039 
2.21       360.0       2.3                                        3022601000040 
2.25       369.6       2.4                                        3022601000041 
2.30       374.9       2.4                                        3022601000042 
2.35       372.9       2.5                                        3022601000043 
2.40       382.4       2.5                                        3022601000044 
2.44       384.6       2.6                                        3022601000045 
2.49       390.0       2.6                                        3022601000046 
2.54       392.7       2.7                                        3022601000047 
2.59       395.7       2.8                                        3022601000048 
2.63       399.0       2.9                                        3022601000049 
2.68       406.5       3.0                                        3022601000050 
2.73       408.6       3.0                                        3022601000051 
2.78       417.7       3.1                                        3022601000052 
2.82       410.7       3.2                                        3022601000053 
2.87       423.1       3.3                                        3022601000054 
2.92       422.4       3.3                                        3022601000055 
2.97       422.7       3.2                                        3022601000056 
3.01       430.9       3.3                                        3022601000057 
3.06       428.2       3.3                                        3022601000058 
3.11       433.6       3.3                                        3022601000059 
3.16       439.0       3.4                                        3022601000060 
3.21       442.5       3.5                                        3022601000061 
3.25       448.5       3.6                                        3022601000062 
3.30       446.2       3.8                                        3022601000063 
3.35       451.1       3.9                                        3022601000064 
3.40       455.5       4.0                                        3022601000065 
3.44       460.0       4.1                                        3022601000066 
3.49       456.7       4.1                                        3022601000067 
3.54       460.9       4.2                                        3022601000068 
3.59       466.1       4.4                                        3022601000069 
3.63       473.7       4.5                                        3022601000070 
3.68       480.0       4.7                                        3022601000071 
3.73       480.4       4.8                                        3022601000072 
3.78       475.7       4.9                                        3022601000073 
3.82       491.2       5.0                                        3022601000074 
3.87       491.1       5.2                                        3022601000075 
3.92       493.4       5.5                                        3022601000076 
3.97       494.8       5.8                                        3022601000077 
4.01       513.2       6.0                                        3022601000078 
4.06       499.5       6.1                                        3022601000079 
4.11       489.4       6.1                                        3022601000080 
4.16       504.8       6.2                                        3022601000081 
4.20       511.6       6.3                                        3022601000082 
4.25       515.8       6.4                                        3022601000083 
4.30       520.1       6.6                                        3022601000084 
4.35       516.6       6.8                                        3022601000085 
4.39       511.5       7.1                                        3022601000086 
4.44       525.8       7.3                                        3022601000087 
4.49       525.8       7.4                                        3022601000088 
4.54       535.9       7.8                                        3022601000089 
4.58       528.6       8.1                                        3022601000090 
4.63       546.8       8.7                                        3022601000091 
4.68       549.4       8.9                                        3022601000092 
4.73       542.3       8.8                                        3022601000093 
4.77       540.7       8.7                                        3022601000094 
4.82       536.9       8.8                                        3022601000095 
4.87       543.2       9.1                                        3022601000096 
4.92       565.5       9.5                                        3022601000097 
4.96       562.7       9.5                                        3022601000098 
5.01       566.9       9.6                                        3022601000099 
5.06       557.9       9.7                                        3022601000100 
5.08       575.3       1.9                                        3022601000101 
5.11       573.8      10.1                                        3022601000102 
5.16       575.4       2.0                                        3022601000103 
5.25       584.2       2.1                                        3022601000104 
5.34       589.7       2.2                                        3022601000105 
5.42       594.9       2.3                                        3022601000106 
5.51       598.6       2.3                                        3022601000107 
5.59       603.6       2.4                                        3022601000108 
5.68       604.9       2.5                                        3022601000109 
5.76       610.0       2.6                                        3022601000110 
5.85       617.9       2.8                                        3022601000111 
5.93       622.3       2.9                                        3022601000112 
6.02       624.2       3.0                                        3022601000113 
6.11       632.5       3.1                                        3022601000114 
6.19       635.6       3.2                                        3022601000115 
6.28       637.8       3.4                                        3022601000116 
6.36       645.5       3.5                                        3022601000117 
6.45       651.1       3.7                                        3022601000118 
6.53       655.5       3.9                                        3022601000119 
6.62       660.0       4.1                                        3022601000120 
6.70       660.7       4.3                                        3022601000121 
6.79       670.2       4.4                                        3022601000122 
6.88       670.6       4.5                                        3022601000123 
6.96       673.6       4.8                                        3022601000124 
7.05       676.4       5.1                                        3022601000125 
7.13       688.4       5.4                                        3022601000126 
7.22       694.0       5.7                                        3022601000127 
7.30       690.4       5.8                                        3022601000128 
7.39       699.5       6.0                                        3022601000129 
7.47       692.6       6.2                                        3022601000130 
7.56       700.9       6.5                                        3022601000131 
7.64       710.0       6.8                                        3022601000132 
7.73       724.3       7.1                                        3022601000133 
7.82       726.7       7.5                                        3022601000134 
7.90       721.6       7.8                                        3022601000135 
7.99       724.9       8.2                                        3022601000136 
8.07       731.5       8.6                                        3022601000137 
8.16       734.8       9.0                                        3022601000138 
8.24       743.1       9.5                                        3022601000139 
8.33       742.8       9.9                                        3022601000140 
8.41       744.3      10.5                                        3022601000141 
8.50       743.8      11.0                                        3022601000142 
8.59       763.9      11.7                                        3022601000143 
8.67       762.0      12.4                                        3022601000144 
8.76       765.0      13.0                                        3022601000145 
8.84       742.9      13.5                                        3022601000146 
8.93       780.6      14.7                                        3022601000147 
9.01       761.7      15.1                                        3022601000148 
9.10       764.2      16.1                                        3022601000149 
9.18       805.4      17.6                                        3022601000150 
9.27       813.3      18.7                                        3022601000151 
9.36       806.5      19.6                                        3022601000152 
9.44       798.6      21.1                                        3022601000153 
9.53       773.8      21.7                                        3022601000154 
9.61       824.3      24.2                                        3022601000155 
9.70       821.0      26.0                                        3022601000156 
9.78       829.3      27.6                                        3022601000157 
9.87       284.8      29.2                                        3022601000158 
9.95       820.3      30.8                                        3022601000159 
ENDDATA            150          0                                 3022601000160 
ENDSUBENT          159          0                                 3022601099999 
SUBENT        30226011   20081203                             31323022601100001 
BIB                  4          6                                 3022601100002 
REACTION   (1-H-CXX(N,SCT)1-H-CXX,,SIG,,FCT)                      3022601100003 
            in barns per hydrogen atom                            3022601100004 
SAMPLE     Dimethyl-sulphoxide, (CH3)2SO                          3022601100005 
COMMENT    Scattering cross-section slope = (8.0 +- 0.3) barns/   3022601100006 
           Angstrom/H-atom                                        3022601100007 
HISTORY    (20080430S) Dataset was restored.                      3022601100008 
ENDBIB               6          0                                 3022601100009 
NOCOMMON             0          0                                 3022601100010 
DATA                 3        148                                 3022601100011 
WVE-LN     DATA       ERR-S                                       3022601100012 
ANGSTROM   B          B                                           3022601100013 
0.83        33.7      0.6                                         3022601100014 
0.87        33.8      0.5                                         3022601100015 
0.92        35.0      0.5                                         3022601100016 
0.97        36.9      0.5                                         3022601100017 
1.02        38.3      0.4                                         3022601100018 
1.06        39.1      0.4                                         3022601100019 
1.11        40.4      0.4                                         3022601100020 
1.16        40.9      0.4                                         3022601100021 
1.21        42.4      0.4                                         3022601100022 
1.25        43.6      0.4                                         3022601100023 
1.30        43.8      0.4                                         3022601100024 
1.35        44.6      0.4                                         3022601100025 
1.40        46.2      0.4                                         3022601100026 
1.45        46.7      0.4                                         3022601100027 
1.49        47.5      0.4                                         3022601100028 
1.54        47.9      0.4                                         3022601100029 
1.59        49.3      0.4                                         3022601100030 
1.64        49.6      0.4                                         3022601100031 
1.68        50.5      0.4                                         3022601100032 
1.73        51.2      0.4                                         3022601100033 
1.78        51.9      0.4                                         3022601100034 
1.83        53.0      0.4                                         3022601100035 
1.92        55.2      0.4                                         3022601100036 
1.97        55.9      0.4                                         3022601100037 
2.02        55.9      0.4                                         3022601100038 
2.06        56.9      0.4                                         3022601100039 
2.11        58.5      0.4                                         3022601100040 
2.16        59.4      0.4                                         3022601100041 
2.21        59.5      0.4                                         3022601100042 
2.25        61.1      0.4                                         3022601100043 
2.30        61.9      0.4                                         3022601100044 
2.35        61.6      0.4                                         3022601100045 
2.40        63.2      0.4                                         3022601100046 
2.44        63.5      0.4                                         3022601100047 
2.49        64.4      0.4                                         3022601100048 
2.54        64.9      0.4                                         3022601100049 
2.59        65.3      0.5                                         3022601100050 
2.63        65.9      0.5                                         3022601100051 
2.68        67.1      0.5                                         3022601100052 
2.73        67.5      0.5                                         3022601100053 
2.78        69.0      0.5                                         3022601100054 
2.82        67.8      0.5                                         3022601100055 
2.87        69.8      0.5                                         3022601100056 
2.92        69.7      0.5                                         3022601100057 
2.97        69.8      0.5                                         3022601100058 
3.01        71.1      0.5                                         3022601100059 
3.06        70.7      0.5                                         3022601100060 
3.11        71.5      0.5                                         3022601100061 
3.16        72.4      0.6                                         3022601100062 
3.21        73.0      0.6                                         3022601100063 
3.25        74.0      0.6                                         3022601100064 
3.30        73.6      0.6                                         3022601100065 
3.35        74.4      0.6                                         3022601100066 
3.40        75.1      0.7                                         3022601100067 
3.44        75.8      0.7                                         3022601100068 
3.49        75.3      0.7                                         3022601100069 
3.54        76.0      0.7                                         3022601100070 
3.59        76.8      0.7                                         3022601100071 
3.63        78.1      0.8                                         3022601100072 
3.68        79.1      0.8                                         3022601100073 
3.73        79.2      0.8                                         3022601100074 
3.78        78.4      0.8                                         3022601100075 
3.82        81.0      0.8                                         3022601100076 
3.87        80.9      0.9                                         3022601100077 
3.92        81.3      0.9                                         3022601100078 
3.97        81.5      1.0                                         3022601100079 
4.01        84.6      1.0                                         3022601100080 
4.06        82.3      1.0                                         3022601100081 
4.11        80.6      1.0                                         3022601100082 
4.16        83.2      1.0                                         3022601100083 
4.20        84.3      1.0                                         3022601100084 
4.25        85.0      1.1                                         3022601100085 
4.30        85.7      1.1                                         3022601100086 
4.35        85.1      1.1                                         3022601100087 
4.39        84.2      1.2                                         3022601100088 
4.44        86.6      1.2                                         3022601100089 
4.49        86.6      1.2                                         3022601100090 
4.54        88.3      1.3                                         3022601100091 
4.58        87.0      1.3                                         3022601100092 
4.63        90.1      1.5                                         3022601100093 
4.68        90.5      1.5                                         3022601100094 
4.73        89.3      1.5                                         3022601100095 
4.77        89.0      1.4                                         3022601100096 
4.82        88.4      1.5                                         3022601100097 
4.87        89.4      1.5                                         3022601100098 
4.92        93.1      1.6                                         3022601100099 
4.96        92.6      1.6                                         3022601100100 
5.01        93.3      1.6                                         3022601100101 
5.06        91.8      1.6                                         3022601100102 
5.08        94.7      0.3                                         3022601100103 
5.11        94.4      1.7                                         3022601100104 
5.16        94.7      0.3                                         3022601100105 
5.25        96.1      0.3                                         3022601100106 
5.34        97.0      0.4                                         3022601100107 
5.42        97.9      0.4                                         3022601100108 
5.51        98.5      0.4                                         3022601100109 
5.59        99.3      0.4                                         3022601100110 
5.68        99.5      0.4                                         3022601100111 
5.76       100.3      0.4                                         3022601100112 
5.85       101.6      0.5                                         3022601100113 
5.93       102.3      0.5                                         3022601100114 
6.02       102.6      0.5                                         3022601100115 
6.11       104.0      0.5                                         3022601100116 
6.19       104.5      0.5                                         3022601100117 
6.28       104.8      0.6                                         3022601100118 
6.36       106.1      0.4                                         3022601100119 
6.45       107.0      0.6                                         3022601100120 
6.53       107.7      0.6                                         3022601100121 
6.62       108.5      0.7                                         3022601100122 
6.70       108.6      0.7                                         3022601100123 
6.79       110.1      0.7                                         3022601100124 
6.88       110.2      0.7                                         3022601100125 
6.96       110.6      0.8                                         3022601100126 
7.05       111.1      0.8                                         3022601100127 
7.13       113.1      0.9                                         3022601100128 
7.22       114.0      0.9                                         3022601100129 
7.30       113.4      1.0                                         3022601100130 
7.39       114.9      1.0                                         3022601100131 
7.47       113.7      1.0                                         3022601100132 
7.56       115.1      1.1                                         3022601100133 
7.64       116.5      1.1                                         3022601100134 
7.73       118.9      1.2                                         3022601100135 
7.82       119.3      1.2                                         3022601100136 
7.90       118.4      1.3                                         3022601100137 
7.99       119.0      1.4                                         3022601100138 
8.07       120.0      1.4                                         3022601100139 
8.16       120.6      1.5                                         3022601100140 
8.24       121.9      1.6                                         3022601100141 
8.33       121.9      1.6                                         3022601100142 
8.41       122.1      1.7                                         3022601100143 
8.50       122.0      1.8                                         3022601100144 
8.59       125.3      1.9                                         3022601100145 
8.67       125.0      2.1                                         3022601100146 
8.76       125.5      2.2                                         3022601100147 
8.84       121.8      2.2                                         3022601100148 
8.93       128.0      2.4                                         3022601100149 
9.01       124.8      2.5                                         3022601100150 
9.10       125.2      2.7                                         3022601100151 
9.18       132.1      2.9                                         3022601100152 
9.27       133.4      3.1                                         3022601100153 
9.36       132.2      3.3                                         3022601100154 
9.44       130.9      3.5                                         3022601100155 
9.53       126.8      3.6                                         3022601100156 
9.61       135.1      4.0                                         3022601100157 
9.70       134.6      4.3                                         3022601100158 
9.78       135.9      4.6                                         3022601100159 
9.87       135.2      4.9                                         3022601100160 
9.95       134.4      5.1                                         3022601100161 
ENDDATA            150          0                                 3022601100162 
ENDSUBENT          161          0                                 3022601199999 
SUBENT        30226012   20081203                             31323022601200001 
BIB                  3          4                                 3022601200002 
REACTION   (1-H-CXX(N,TOT),,SIG,,FCT)                             3022601200003 
            in barns per molecule                                 3022601200004 
SAMPLE     Dimethyl-dichloro-silane, (CH3)2SiCl2                  3022601200005 
HISTORY    (20080430S) Dataset was restored.                      3022601200006 
ENDBIB               4          0                                 3022601200007 
NOCOMMON             0          0                                 3022601200008 
DATA                 3         57                                 3022601200009 
WVE-LN     DATA       ERR-S                                       3022601200010 
ANGSTROM   B          B                                           3022601200011 
 5.35       848.0       3.5                                       3022601200012 
 5.43       847.9       3.6                                       3022601200013 
 5.52       859.3       3.9                                       3022601200014 
 5.60       880.5       4.1                                       3022601200015 
 5.69       883.6       4.3                                       3022601200016 
 5.77       887.5       4.5                                       3022601200017 
 5.85       904.1       4.6                                       3022601200018 
 5.94       909.5       4.8                                       3022601200019 
 6.02       916.7       5.0                                       3022601200020 
 6.11       929.2       5.3                                       3022601200021 
 6.19       934.8       5.6                                       3022601200022 
 6.28       953.6       5.9                                       3022601200023 
 6.36       957.0       6.2                                       3022601200024 
 6.45       972.2       6.3                                       3022601200025 
 6.53       980.6       6.6                                       3022601200026 
 6.61       986.2       6.9                                       3022601200027 
 6.70      1000.2       7.3                                       3022601200028 
 6.78      1009.1       7.6                                       3022601200029 
 6.87      1021.1       7.9                                       3022601200030 
 6.95      1036.0       8.4                                       3022601200031 
 7.04      1042.7       8.8                                       3022601200032 
 7.12      1046.2       9.1                                       3022601200033 
 7.21      1045.6       9.5                                       3022601200034 
 7.29      1071.8      10.1                                       3022601200035 
 7.37      1078.3      10.7                                       3022601200036 
 7.46      1091.0      11.3                                       3022601200037 
 7.54      1117.5      11.9                                       3022601200038 
 7.63      1112.7      12.7                                       3022601200039 
 7.71      1121.8      13.3                                       3022601200040 
 7.80      1127.6      14.1                                       3022601200041 
 7.88      1131.8      14.8                                       3022601200042 
 7.96      1149.8      16.1                                       3022601200043 
 8.05      1155.4      16.8                                       3022601200044 
 8.13      1139.8      17.6                                       3022601200045 
 8.22      1187.6      18.9                                       3022601200046 
 8.30      1191.3      19.6                                       3022601200047 
 8.39      1163.8      21.1                                       3022601200048 
 8.47      1226.1      23.2                                       3022601200049 
 8.55      1205.2      24.5                                       3022601200050 
 8.64      1234.8      26.3                                       3022601200051 
 8.72      1251.7      28.3                                       3022601200052 
 8.81      1230.2      29.6                                       3022601200053 
 8.89      1217.5      31.0                                       3022601200054 
 8.98      1248.1      34.2                                       3022601200055 
 9.06      1269.1      37.4                                       3022601200056 
 9.15      1289.9      41.5                                       3022601200057 
 9.23      1327.2      45.2                                       3022601200058 
 9.31      1252.0      44.4                                       3022601200059 
 9.40      1211.9      46.0                                       3022601200060 
 9.48      1328.0      55.7                                       3022601200061 
 9.57      1342.8      59.5                                       3022601200062 
 9.65      1326.6      63.8                                       3022601200063 
 9.74      1241.6     105.9                                       3022601200064 
 9.82      1186.0     109.4                                       3022601200065 
 9.91      1369.3     155.4                                       3022601200066 
 9.99      1316.6     154.0                                       3022601200067 
10.07      1372.0     190.4                                       3022601200068 
ENDDATA             59          0                                 3022601200069 
ENDSUBENT           68          0                                 3022601299999 
SUBENT        30226013   20081203                             31323022601300001 
BIB                  4          6                                 3022601300002 
REACTION   (1-H-CXX(N,THS)1-H-CXX,,SIG,,FCT)                      3022601300003 
            in barns per hydrogen atom                            3022601300004 
SAMPLE     Dimethyl-dichloro-silane, (CH3)2SiCl2                  3022601300005 
COMMENT    Scattering cross-section slope = (12.3 +- 0.5) barns/  3022601300006 
           Angstrom/H-atom                                        3022601300007 
HISTORY    (20080430S) Dataset was restored.                      3022601300008 
ENDBIB               6          0                                 3022601300009 
NOCOMMON             0          0                                 3022601300010 
DATA                 3         57                                 3022601300011 
WVE-LN     DATA       ERR-S                                       3022601300012 
ANGSTROM   B          B                                           3022601300013 
 5.35      107.2       1.2                                        3022601300014 
 5.43      106.6       1.3                                        3022601300015 
 5.52      108.0       1.3                                        3022601300016 
 5.60      111.0       1.3                                        3022601300017 
 5.69      110.9       1.4                                        3022601300018 
 5.77      111.1       1.4                                        3022601300019 
 5.85      113.3       1.4                                        3022601300020 
 5.94      113.6       1.4                                        3022601300021 
 6.02      114.3       1.5                                        3022601300022 
 6.11      115.8       1.5                                        3022601300023 
 6.19      116.2       1.6                                        3022601300024 
 6.28      118.8       1.6                                        3022601300025 
 6.36      118.9       1.7                                        3022601300026 
 6.45      120.9       1.7                                        3022601300027 
 6.53      118.4       1.7                                        3022601300028 
 6.61      122.1       1.8                                        3022601300029 
 6.70      123.9       1.8                                        3022601300030 
 6.78      124.8       1.9                                        3022601300031 
 6.87      126.3       1.9                                        3022601300032 
 6.95      128.2       2.0                                        3022601300033 
 7.04      128.8       2.1                                        3022601300034 
 7.12      128.9       2.1                                        3022601300035 
 7.21      128.2       2.2                                        3022601300036 
 7.29      132.1       2.2                                        3022601300037 
 7.37      132.6       2.3                                        3022601300038 
 7.46      134.2       2.4                                        3022601300039 
 7.54      138.1       2.5                                        3022601300040 
 7.63      136.7       2.6                                        3022601300041 
 7.71      137.7       2.8                                        3022601300042 
 7.80      138.1       2.8                                        3022601300043 
 7.88      138.3       2.9                                        3022601300044 
 7.96      140.8       3.1                                        3022601300045 
 8.05      141.1       3.2                                        3022601300046 
 8.13      138.0       3.4                                        3022601300047 
 8.22      146.1       3.6                                        3022601300048 
 8.30      145.5       3.7                                        3022601300049 
 8.39      140.4       3.9                                        3022601300050 
 8.47      150.2       4.3                                        3022601300051 
 8.55      146.2       4.4                                        3022601300052 
 8.64      150.6       4.7                                        3022601300053 
 8.72      152.9       5.0                                        3022601300054 
 8.81      148.8       5.3                                        3022601300055 
 8.89      146.1       5.5                                        3022601300056 
 8.98      150.7       6.0                                        3022601300057 
 9.06      153.6       6.5                                        3022601300058 
 9.15      156.6       7.2                                        3022601300059 
 9.23      162.2       7.8                                        3022601300060 
 9.31      149.2       7.6                                        3022601300061 
 9.40      141.9       7.9                                        3022601300062 
 9.48      160.8       9.4                                        3022601300063 
 9.57      162.7      10.0                                        3022601300064 
 9.65      159.4      10.8                                        3022601300065 
 9.74      144.7      17.7                                        3022601300066 
 9.82      134.9      18.2                                        3022601300067 
 9.91      164.9      25.9                                        3022601300068 
 9.99      155.6      35.7                                        3022601300069 
10.07      164.3      31.7                                        3022601300070 
ENDDATA             59          0                                 3022601300071 
ENDSUBENT           70          0                                 3022601399999 
SUBENT        30226014   20081203                             31323022601400001 
BIB                  3          4                                 3022601400002 
REACTION   (1-H-CXX(N,TOT),,SIG,,FCT)                             3022601400003 
            in barns per molecule                                 3022601400004 
SAMPLE     Nitromethane, CH3NO2                                   3022601400005 
HISTORY    (20080430S) Dataset was restored.                      3022601400006 
ENDBIB               4          0                                 3022601400007 
NOCOMMON             0          0                                 3022601400008 
DATA                 3        141                                 3022601400009 
WVE-LN     DATA       ERR-S                                       3022601400010 
ANGSTROM   B          B                                           3022601400011 
0.87       123.2       2.6                                        3022601400012 
0.92       125.9       2.4                                        3022601400013 
0.97       130.0       2.2                                        3022601400014 
1.02       130.1       2.1                                        3022601400015 
1.06       137.0       2.0                                        3022601400016 
1.11       139.8       2.0                                        3022601400017 
1.16       145.3       1.9                                        3022601400018 
1.21       150.4       1.9                                        3022601400019 
1.25       150.7       1.8                                        3022601400020 
1.30       154.1       1.8                                        3022601400021 
1.35       154.5       1.8                                        3022601400022 
1.40       160.0       1.8                                        3022601400023 
1.45       166.3       1.8                                        3022601400024 
1.49       166.2       1.8                                        3022601400025 
1.54       165.6       1.8                                        3022601400026 
1.59       169.7       1.8                                        3022601400027 
1.64       173.3       1.7                                        3022601400028 
1.68       173.9       1.7                                        3022601400029 
1.73       178.3       1.7                                        3022601400030 
1.78       176.0       1.8                                        3022601400031 
1.83       179.9       1.8                                        3022601400032 
1.87       185.4       1.8                                        3022601400033 
1.92       183.2       1.7                                        3022601400034 
1.97       187.2       1.7                                        3022601400035 
2.02       189.8       1.7                                        3022601400036 
2.06       191.4       1.8                                        3022601400037 
2.11       192.4       1.8                                        3022601400038 
2.16       199.0       1.8                                        3022601400039 
2.21       198.0       1.8                                        3022601400040 
2.25       198.3       1.8                                        3022601400041 
2.30       202.0       1.9                                        3022601400042 
2.35       203.0       1.9                                        3022601400043 
2.40       203.1       1.9                                        3022601400044 
2.44       202.7       2.0                                        3022601400045 
2.49       210.5       2.0                                        3022601400046 
2.54       208.3       2.1                                        3022601400047 
2.59       213.4       2.1                                        3022601400048 
2.63       211.9       2.2                                        3022601400049 
2.68       215.8       2.2                                        3022601400050 
2.73       218.0       2.3                                        3022601400051 
2.78       218.2       2.3                                        3022601400052 
2.82       224.3       2.4                                        3022601400053 
2.87       222.4       2.5                                        3022601400054 
2.92       224.1       2.5                                        3022601400055 
2.97       217.7       2.4                                        3022601400056 
3.01       226.4       2.4                                        3022601400057 
3.06       229.5       2.5                                        3022601400058 
3.11       230.5       2.5                                        3022601400059 
3.16       231.4       2.5                                        3022601400060 
3.21       237.2       2.6                                        3022601400061 
3.25       237.5       2.7                                        3022601400062 
3.30       234.2       2.8                                        3022601400063 
3.35       237.9       2.9                                        3022601400064 
3.40       242.6       3.0                                        3022601400065 
3.44       242.6       3.0                                        3022601400066 
3.49       246.0       3.1                                        3022601400067 
3.54       243.3       3.2                                        3022601400068 
3.59       253.5       3.2                                        3022601400069 
3.63       249.3       3.3                                        3022601400070 
3.68       253.2       3.5                                        3022601400071 
3.73       258.8       3.6                                        3022601400072 
3.78       263.7       3.6                                        3022601400073 
3.82       260.1       3.7                                        3022601400074 
3.87       258.6       3.9                                        3022601400075 
3.92       260.2       4.0                                        3022601400076 
3.97       265.8       4.3                                        3022601400077 
4.01       274.4       4.4                                        3022601400078 
4.05       265.0       1.4                                        3022601400079 
4.06       263.6       4.5                                        3022601400080 
4.11       261.2       4.5                                        3022601400081 
4.14       268.6       1.4                                        3022601400082 
4.16       268.9       4.5                                        3022601400083 
4.20       268.5       4.6                                        3022601400084 
4.22       272.8       1.4                                        3022601400085 
4.31       275.7       1.4                                        3022601400086 
4.40       278.8       1.4                                        3022601400087 
4.48       283.4       1.3                                        3022601400088 
4.57       287.9       1.4                                        3022601400089 
4.65       293.9       1.4                                        3022601400090 
4.74       300.2       1.4                                        3022601400091 
4.82       303.2       1.4                                        3022601400092 
4.91       304.2       1.4                                        3022601400093 
4.99       314.2       1.5                                        3022601400094 
5.08       314.3       1.6                                        3022601400095 
5.17       320.0       1.6                                        3022601400096 
5.25       323.5       1.7                                        3022601400097 
5.34       331.0       1.8                                        3022601400098 
5.42       334.0       1.8                                        3022601400099 
5.51       338.6       1.9                                        3022601400100 
5.59       338.6       2.0                                        3022601400101 
5.68       344.3       2.1                                        3022601400102 
5.76       346.0       2.2                                        3022601400103 
5.85       351.1       2.3                                        3022601400104 
5.93       361.4       2.4                                        3022601400105 
6.02       363.5       2.5                                        3022601400106 
6.11       359.0       2.6                                        3022601400107 
6.19       368.0       2.8                                        3022601400108 
6.28       371.6       2.8                                        3022601400109 
6.36       369.3       3.0                                        3022601400110 
6.45       372.5       3.1                                        3022601400111 
6.53       380.7       3.3                                        3022601400112 
6.62       380.3       3.5                                        3022601400113 
6.70       380.1       3.7                                        3022601400114 
6.79       388.4       3.9                                        3022601400115 
6.88       394.3       2.9                                        3022601400116 
6.96       393.6       3.0                                        3022601400117 
7.05       397.0       3.2                                        3022601400118 
7.13       400.2       3.3                                        3022601400119 
7.22       406.9       3.6                                        3022601400120 
7.30       404.6       3.6                                        3022601400121 
7.31       426.7       4.9                                        3022601400122 
7.39       410.8       3.9                                        3022601400123 
7.47       410.6       4.0                                        3022601400124 
7.56       425.4       4.3                                        3022601400125 
7.64       428.9       4.5                                        3022601400126 
7.82       420.5       5.0                                        3022601400127 
7.90       430.1       5.3                                        3022601400128 
7.99       439.3       6.0                                        3022601400129 
8.07       439.2       6.5                                        3022601400130 
8.16       438.9       7.0                                        3022601400131 
8.24       440.8       7.4                                        3022601400132 
8.33       440.2       4.9                                        3022601400133 
8.41       449.2       5.1                                        3022601400134 
8.50       444.0       5.4                                        3022601400135 
8.59       444.0       5.7                                        3022601400136 
8.67       444.6       5.9                                        3022601400137 
8.76       447.5       6.1                                        3022601400138 
8.84       458.1       6.6                                        3022601400139 
8.93       458.7       6.8                                        3022601400140 
9.01       462.7       7.2                                        3022601400141 
9.10       468.5       7.5                                        3022601400142 
9.18       473.2       8.0                                        3022601400143 
9.27       454.7       8.4                                        3022601400144 
9.36       480.4       9.3                                        3022601400145 
9.44       472.7       9.4                                        3022601400146 
9.53       482.2       9.8                                        3022601400147 
9.61       483.9      10.1                                        3022601400148 
9.70       483.3      10.9                                        3022601400149 
9.78       475.9      11.2                                        3022601400150 
9.87       484.9      12.2                                        3022601400151 
9.95       498.2      12.8                                        3022601400152 
ENDDATA            143          0                                 3022601400153 
ENDSUBENT          152          0                                 3022601499999 
SUBENT        30226015   20081203                             31323022601500001 
BIB                  4          6                                 3022601500002 
REACTION   (1-H-CXX(N,THS)1-H-CXX,,SIG,,FCT)                      3022601500003 
            in barns per hydrogen atom                            3022601500004 
SAMPLE     Nitromethane, CH3NO2                                   3022601500005 
COMMENT    Scattering cross-section slope = (12.9 +- 0.6) barns/  3022601500006 
           Angstrom/H-atom                                        3022601500007 
HISTORY    (20080430S) Dataset was restored.                      3022601500008 
ENDBIB               6          0                                 3022601500009 
NOCOMMON             0          0                                 3022601500010 
DATA                 3        141                                 3022601500011 
WVE-LN     DATA       ERR-S                                       3022601500012 
ANGSTROM   B          ARB-UNITS                                   3022601500013 
0.87        40.6      0.9                                         3022601500014 
0.92        41.5      0.8                                         3022601500015 
0.97        42.8      0.7                                         3022601500016 
1.02        42.8      0.7                                         3022601500017 
1.06        45.1      0.7                                         3022601500018 
1.11        46.0      0.7                                         3022601500019 
1.16        47.8      0.6                                         3022601500020 
1.21        49.5      0.6                                         3022601500021 
1.25        49.6      0.6                                         3022601500022 
1.30        50.7      0.6                                         3022601500023 
1.35        50.8      0.6                                         3022601500024 
1.40        52.6      0.6                                         3022601500025 
1.45        54.7      0.6                                         3022601500026 
1.49        54.6      0.6                                         3022601500027 
1.54        54.4      0.6                                         3022601500028 
1.59        55.7      0.6                                         3022601500029 
1.64        56.9      0.6                                         3022601500030 
1.68        57.1      0.6                                         3022601500031 
1.73        58.5      0.6                                         3022601500032 
1.78        57.7      0.6                                         3022601500033 
1.83        59.0      0.6                                         3022601500034 
1.87        60.8      0.6                                         3022601500035 
1.92        60.1      0.6                                         3022601500036 
1.97        61.4      0.6                                         3022601500037 
2.02        62.2      0.6                                         3022601500038 
2.06        62.7      0.6                                         3022601500039 
2.11        63.0      0.6                                         3022601500040 
2.16        65.2      0.6                                         3022601500041 
2.21        64.8      0.6                                         3022601500042 
2.25        64.9      0.6                                         3022601500043 
2.30        66.1      0.6                                         3022601500044 
2.35        66.4      0.6                                         3022601500045 
2.40        66.4      0.6                                         3022601500046 
2.44        66.3      0.7                                         3022601500047 
2.49        68.8      0.7                                         3022601500048 
2.54        68.1      0.7                                         3022601500049 
2.59        69.8      0.7                                         3022601500050 
2.63        69.2      0.7                                         3022601500051 
2.68        70.5      0.7                                         3022601500052 
2.73        71.2      0.8                                         3022601500053 
2.78        71.3      0.8                                         3022601500054 
2.82        73.3      0.8                                         3022601500055 
2.87        72.6      0.8                                         3022601500056 
2.92        73.2      0.8                                         3022601500057 
2.97        71.0      0.8                                         3022601500058 
3.01        73.9      0.8                                         3022601500059 
3.06        74.9      0.8                                         3022601500060 
3.11        75.2      0.8                                         3022601500061 
3.16        75.5      0.8                                         3022601500062 
3.21        77.4      0.9                                         3022601500063 
3.25        77.4      0.9                                         3022601500064 
3.30        76.3      0.9                                         3022601500065 
3.35        77.5      1.0                                         3022601500066 
3.40        79.1      1.0                                         3022601500067 
3.44        79.0      1.0                                         3022601500068 
3.49        80.1      1.0                                         3022601500069 
3.54        79.2      1.1                                         3022601500070 
3.59        82.6      1.1                                         3022601500071 
3.63        81.2      1.1                                         3022601500072 
3.68        82.4      1.2                                         3022601500073 
3.73        84.3      1.2                                         3022601500074 
3.78        85.9      1.2                                         3022601500075 
3.82        84.7      1.2                                         3022601500076 
3.87        84.1      1.3                                         3022601500077 
3.92        84.6      1.3                                         3022601500078 
3.97        86.5      1.4                                         3022601500079 
4.01        89.3      1.5                                         3022601500080 
4.05        86.2      0.5                                         3022601500081 
4.06        85.7      1.5                                         3022601500082 
4.11        84.9      1.5                                         3022601500083 
4.14        87.3      0.5                                         3022601500084 
4.16        87.4      1.5                                         3022601500085 
4.20        87.3      1.5                                         3022601500086 
4.22        88.7      0.5                                         3022601500087 
4.31        89.6      0.5                                         3022601500088 
4.40        90.6      0.5                                         3022601500089 
4.48        92.1      0.4                                         3022601500090 
4.57        93.5      0.5                                         3022601500091 
4.65        95.5      0.5                                         3022601500092 
4.74        97.5      0.5                                         3022601500093 
4.82        98.5      0.5                                         3022601500094 
4.91        98.8      0.5                                         3022601500095 
4.99       102.1      0.5                                         3022601500096 
5.08       102.1      0.5                                         3022601500097 
5.17       103.9      0.5                                         3022601500098 
5.25       105.0      0.6                                         3022601500099 
5.34       107.5      0.6                                         3022601500100 
5.42       108.5      0.6                                         3022601500101 
5.51       109.9      0.6                                         3022601500102 
5.59       109.9      0.7                                         3022601500103 
5.68       111.7      0.7                                         3022601500104 
5.76       112.3      0.7                                         3022601500105 
5.85       113.9      0.8                                         3022601500106 
5.93       117.3      0.8                                         3022601500107 
6.02       117.9      0.8                                         3022601500108 
6.11       116.4      0.9                                         3022601500109 
6.19       119.4      0.9                                         3022601500110 
6.28       120.5      0.9                                         3022601500111 
6.36       119.7      1.0                                         3022601500112 
6.45       120.7      1.0                                         3022601500113 
6.53       123.4      1.1                                         3022601500114 
6.62       123.2      1.2                                         3022601500115 
6.70       123.1      1.2                                         3022601500116 
6.79       125.9      1.3                                         3022601500117 
6.88       127.8      1.0                                         3022601500118 
6.96       127.5      1.0                                         3022601500119 
7.05       128.6      1.1                                         3022601500120 
7.13       129.6      1.1                                         3022601500121 
7.22       131.8      1.2                                         3022601500122 
7.30       131.0      1.2                                         3022601500123 
7.31       138.1      1.6                                         3022601500124 
7.39       133.0      1.3                                         3022601500125 
7.47       132.9      1.3                                         3022601500126 
7.56       137.8      1.4                                         3022601500127 
7.64       138.9      1.5                                         3022601500128 
7.82       136.0      1.7                                         3022601500129 
7.90       139.2      1.8                                         3022601500130 
7.99       142.2      2.0                                         3022601500131 
8.07       142.1      2.1                                         3022601500132 
8.16       141.9      2.3                                         3022601500133 
8.24       142.6      2.5                                         3022601500134 
8.33       142.3      1.6                                         3022601500135 
8.41       145.3      1.7                                         3022601500136 
8.50       143.5      1.8                                         3022601500137 
8.59       143.4      1.9                                         3022601500138 
8.67       143.6      2.0                                         3022601500139 
8.76       144.5      2.0                                         3022601500140 
8.84       148.0      2.2                                         3022601500141 
8.93       148.2      2.3                                         3022601500142 
9.01       149.5      2.4                                         3022601500143 
9.10       151.3      2.5                                         3022601500144 
9.18       152.9      2.7                                         3022601500145 
9.27       146.6      2.8                                         3022601500146 
9.36       155.2      3.1                                         3022601500147 
9.44       152.5      3.1                                         3022601500148 
9.53       155.7      3.3                                         3022601500149 
9.61       156.2      3.4                                         3022601500150 
9.70       156.0      3.6                                         3022601500151 
9.78       153.4      3.7                                         3022601500152 
9.87       156.4      4.1                                         3022601500153 
9.95       160.8      4.3                                         3022601500154 
ENDDATA            143          0                                 3022601500155 
ENDSUBENT          154          0                                 3022601599999 
SUBENT        30226016   20081203                             31323022601600001 
BIB                  3          4                                 3022601600002 
REACTION   (1-H-CXX(N,TOT),,SIG,,FCT)                             3022601600003 
            in barns per molecule                                 3022601600004 
SAMPLE     Dimethyl-polysiloxane (silicone oil)                   3022601600005 
HISTORY    (20080430S) Dataset was restored.                      3022601600006 
ENDBIB               4          0                                 3022601600007 
NOCOMMON             0          0                                 3022601600008 
DATA                 3         72                                 3022601600009 
WVE-LN     DATA       ERR-S                                       3022601600010 
ANGSTROM   B          B                                           3022601600011 
3.91       507.1       2.2                                        3022601600012 
4.00       517.2       2.2                                        3022601600013 
4.08       523.1       2.2                                        3022601600014 
4.17       524.0       2.3                                        3022601600015 
4.25       528.4       2.3                                        3022601600016 
4.34       534.9       2.4                                        3022601600017 
4.42       541.2       2.5                                        3022601600018 
4.51       546.2       2.7                                        3022601600019 
4.59       560.0       2.8                                        3022601600020 
4.67       561.3       2.8                                        3022601600021 
4.75       565.2       2.8                                        3022601600022 
4.84       566.6       2.9                                        3022601600023 
4.93       576.1       3.0                                        3022601600024 
5.01       584.1       3.2                                        3022601600025 
5.10       583.6       3.3                                        3022601600026 
5.18       596.8       3.5                                        3022601600027 
5.26       599.3       1.6                                        3022601600028 
5.35       606.0       1.7                                        3022601600029 
5.43       608.5       1.5                                        3022601600030 
5.52       618.4       1.6                                        3022601600031 
5.60       623.9       1.7                                        3022601600032 
5.69       632.8       1.5                                        3022601600033 
5.77       640.4       1.5                                        3022601600034 
5.86       646.3       1.6                                        3022601600035 
5.94       653.3       2.0                                        3022601600036 
6.02       576.8       2.1                                        3022601600037 
6.11       663.4       1.8                                        3022601600038 
6.19       674.0       1.9                                        3022601600039 
6.28       676.4       2.0                                        3022601600040 
6.36       684.1       2.1                                        3022601600041 
6.44       689.5       2.2                                        3022601600042 
6.53       693.4       2.3                                        3022601600043 
6.61       700.9       2.5                                        3022601600044 
6.70       706.4       2.6                                        3022601600045 
6.78       711.2       3.1                                        3022601600046 
6.87       722.7       2.8                                        3022601600047 
6.95       729.4       3.0                                        3022601600048 
7.04       728.8       3.1                                        3022601600049 
7.12       742.8       3.3                                        3022601600050 
7.21       746.0       3.5                                        3022601600051 
7.29       750.3       3.7                                        3022601600052 
7.37       760.8       3.9                                        3022601600053 
7.46       762.5       4.0                                        3022601600054 
7.54       768.6       4.4                                        3022601600055 
7.63       744.0       4.6                                        3022601600056 
7.71       781.2       5.1                                        3022601600057 
7.80       786.9       5.4                                        3022601600058 
7.88       796.6       5.8                                        3022601600059 
7.96       797.3       6.2                                        3022601600060 
8.05       801.1       6.6                                        3022601600061 
8.13       810.1       7.2                                        3022601600062 
8.21       825.2       7.8                                        3022601600063 
8.30       827.5       8.6                                        3022601600064 
8.39       845.3       9.4                                        3022601600065 
8.47       842.1      10.2                                        3022601600066 
8.55       827.0      11.0                                        3022601600067 
8.64       859.3      13.6                                        3022601600068 
8.72       862.9      14.1                                        3022601600069 
8.81       844.6      14.8                                        3022601600070 
8.89       868.4      17.7                                        3022601600071 
8.98       892.4      16.3                                        3022601600072 
9.06       892.0      16.9                                        3022601600073 
9.15       949.1      29.1                                        3022601600074 
9.23       916.5      26.4                                        3022601600075 
9.31       931.7      27.2                                        3022601600076 
9.40       873.5      27.2                                        3022601600077 
9.48       921.2      36.6                                        3022601600078 
9.57       930.9      28.4                                        3022601600079 
9.65       928.8      30.6                                        3022601600080 
9.74       884.6      30.8                                        3022601600081 
9.82       992.8      38.1                                        3022601600082 
9.90       925.5      38.1                                        3022601600083 
ENDDATA             74          0                                 3022601600084 
ENDSUBENT           83          0                                 3022601699999 
SUBENT        30226017   20081203                             31323022601700001 
BIB                  4          6                                 3022601700002 
REACTION   (1-H-CXX(N,THS)1-H-CXX,,SIG,,FCT)                      3022601700003 
            in barns per hydrogen atom                            3022601700004 
SAMPLE     Dimethyl-polysiloxane (silicone oil)                   3022601700005 
COMMENT    Scattering cross-section slope = (12.3 +- 0.3) barns/  3022601700006 
           Angstrom/H-atom                                        3022601700007 
HISTORY    (20080430S) Dataset was restored.                      3022601700008 
ENDBIB               6          0                                 3022601700009 
NOCOMMON             0          0                                 3022601700010 
DATA                 3         72                                 3022601700011 
WVE-LN     DATA       ERR-S                                       3022601700012 
ANGSTROM   B          B                                           3022601700013 
3.91        83.7      0.4                                         3022601700014 
4.00        85.4      0.4                                         3022601700015 
4.08        86.4      0.4                                         3022601700016 
4.17        86.5      0.4                                         3022601700017 
4.25        87.2      0.4                                         3022601700018 
4.34        88.3      0.4                                         3022601700019 
4.42        89.3      0.4                                         3022601700020 
4.51        90.1      0.4                                         3022601700021 
4.59        92.4      0.5                                         3022601700022 
4.67        92.6      0.5                                         3022601700023 
4.75        93.2      0.5                                         3022601700024 
4.84        93.5      0.5                                         3022601700025 
4.93        95.0      0.5                                         3022601700026 
5.01        96.3      0.5                                         3022601700027 
5.10        96.2      0.5                                         3022601700028 
5.18        98.4      0.6                                         3022601700029 
5.26        98.8      0.3                                         3022601700030 
5.35        99.9      0.3                                         3022601700031 
5.43       100.3      0.3                                         3022601700032 
5.52       101.9      0.3                                         3022601700033 
5.60       102.9      0.3                                         3022601700034 
5.69       104.3      0.3                                         3022601700035 
5.77       105.6      0.3                                         3022601700036 
5.86       106.5      0.3                                         3022601700037 
5.94       107.7      0.3                                         3022601700038 
6.02       108.3      0.3                                         3022601700039 
6.11       109.4      0.3                                         3022601700040 
6.19       111.1      0.3                                         3022601700041 
6.28       111.5      0.3                                         3022601700042 
6.36       112.7      0.4                                         3022601700043 
6.44       113.6      0.4                                         3022601700044 
6.53       114.3      0.4                                         3022601700045 
6.61       115.5      0.4                                         3022601700046 
6.70       116.4      0.4                                         3022601700047 
6.78       117.2      0.5                                         3022601700048 
6.87       119.1      0.5                                         3022601700049 
6.95       120.2      0.5                                         3022601700050 
7.04       120.1      0.5                                         3022601700051 
7.12       122.4      0.6                                         3022601700052 
7.21       122.9      0.6                                         3022601700053 
7.29       123.6      0.6                                         3022601700054 
7.37       125.3      0.6                                         3022601700055 
7.46       125.6      0.7                                         3022601700056 
7.54       126.6      0.7                                         3022601700057 
7.63       127.5      0.8                                         3022601700058 
7.71       128.7      0.8                                         3022601700059 
7.80       129.6      0.9                                         3022601700060 
7.88       131.2      1.0                                         3022601700061 
7.96       131.3      1.0                                         3022601700062 
8.05       131.9      1.1                                         3022601700063 
8.13       133.4      1.2                                         3022601700064 
8.21       135.9      1.3                                         3022601700065 
8.30       136.3      1.4                                         3022601700066 
8.39       139.2      1.6                                         3022601700067 
8.47       138.7      1.7                                         3022601700068 
8.55       136.1      1.8                                         3022601700069 
8.64       141.5      2.3                                         3022601700070 
8.72       142.1      2.3                                         3022601700071 
8.81       139.0      2.5                                         3022601700072 
8.89       142.9      2.9                                         3022601700073 
8.98       146.9      2.7                                         3022601700074 
9.06       146.9      2.8                                         3022601700075 
9.15       152.6      4.8                                         3022601700076 
9.23       150.9      4.4                                         3022601700077 
9.31       136.7      4.5                                         3022601700078 
9.40       143.7      4.5                                         3022601700079 
9.48       151.6      6.1                                         3022601700080 
9.57       153.2      4.7                                         3022601700081 
9.65       156.7      5.1                                         3022601700082 
9.74       145.5      5.1                                         3022601700083 
9.82       163.5      6.3                                         3022601700084 
9.90       152.2      6.3                                         3022601700085 
ENDDATA             74          0                                 3022601700086 
ENDSUBENT           85          0                                 3022601799999 
ENDENTRY            17          0                                 3022699999999 
