ENTRY            30469   20110913                             31523046900000001 
SUBENT        30469001   20110913                             31523046900100001 
BIB                 12         26                                 3046900100002 
TITLE      Measurements of the total neutron cross-section of     3046900100003 
           silicon and manganese in the energy range 1.8 milli-eV 3046900100004 
           to 1.8 eV.                                             3046900100005 
AUTHOR     (M.Adib,A.Abdel-Kawy,S.Faragalla,S.Sadek,M.Salama,     3046900100006 
           I.Hamouda)                                             3046900100007 
INSTITUTE  (3EGYCAI)                                              3046900100008 
REFERENCE  (J,AKE,27,(2),117,1976)                                3046900100009 
           (C,77KIEV,2,232,197704) Pot.scat.sig. given.           3046900100010 
REL-REF    (I,,I.Hamouda+,J,NIM,40,153,1966)                      3046900100011 
                               Detail of mechanical chopper.      3046900100012 
MONITOR    Absolute, transmission.                                3046900100013 
FACILITY   (CHOPS,3EGYCAI) Rotor of pertinax 160 mm in diam.,     3046900100014 
           with 3 slits each of 3 * 25 mm2.                       3046900100015 
INC-SOURCE (REAC) ET-RR-1 reactor, horizontal channel.            3046900100016 
METHOD     (TOF)Flight path = 5.66 m, the spectrometer resolution 3046900100017 
           at rotor speeds of.1415 rpm and 2880 rpm is 23 and 11  3046900100018 
           micro-s/m, respectively.                               3046900100019 
           To increase the effect to background ratio in the      3046900100020 
           energy range from 5 to 1.8 milli-eV, a block of Be,    3046900100021 
           20 cm length, was placed in front of the n-beam.       3046900100022 
DETECTOR   (BF3)                                                  3046900100023 
PART-DET   (N)                                                    3046900100024 
HISTORY    (19790129C) KO.                                        3046900100025 
           (19921222U) HW. -Obsolete country-code converted.-     3046900100026 
           (20090310A) SD: Updated to new date formats,lower case.3046900100027 
           (20110812A)  VS. REFERENCE corrected.                  3046900100028 
ENDBIB              26          0                                 3046900100029 
NOCOMMON             0          0                                 3046900100030 
ENDSUBENT           29          0                                 3046900199999 
SUBENT        30469002   20090312                             31353046900200001 
BIB                  6         10                                 3046900200002 
REACTION   (14-SI-0(N,TOT),,SIG)                                  3046900200003 
SAMPLE     Spec.pure silicon powder, packed in a perspex container3046900200004 
           with thin glass windows.                               3046900200005 
           1 Sample of thickness 0.87 g/cm2.                      3046900200006 
MISC-COL   (MISC) Wave length in Angstrom.                        3046900200007 
COMMENT    The measured cross-section from 5 eV to 22 milli-eV was3046900200008 
           found to fluctuate near a constant value of 2.35+-0.08b3046900200009 
STATUS     (TABLE) Data from priv.comm., M.Adib, 79/01/13.        3046900200010 
           corresponding to Fig. 2 of ATKE 27,117,1976            3046900200011 
ERR-ANALYS (DATA-ERR) Nothing said about uncertainties            3046900200012 
ENDBIB              10          0                                 3046900200013 
COMMON               1          3                                 3046900200014 
DATA-ERR                                                          3046900200015 
PER-CENT                                                          3046900200016 
 5.0000E+00                                                       3046900200017 
ENDCOMMON            3          0                                 3046900200018 
DATA                 3        209                                 3046900200019 
EN         DATA       MISC                                        3046900200020 
EV         B          ANGSTROM                                    3046900200021 
    0.00254    3.54000    5.68450                                 3046900200022 
    0.00263    3.75000    5.58470                                 3046900200023 
    0.00267    3.60000    5.54150                                 3046900200024 
    0.00270    3.78000    5.50960                                 3046900200025 
    0.00276    3.30000    5.44950                                 3046900200026 
    0.00282    3.36000    5.38790                                 3046900200027 
    0.00288    3.68000    5.32770                                 3046900200028 
    0.00292    3.31000    5.29810                                 3046900200029 
    0.00296    3.63000    5.25910                                 3046900200030 
    0.00299    3.19000    5.23030                                 3046900200031 
    0.00304    2.90000    5.19230                                 3046900200032 
    0.00306    2.81000    5.16420                                 3046900200033 
    0.00311    3.33000    5.12720                                 3046900200034 
    0.00316    2.59000    5.09070                                 3046900200035 
    0.00320    2.95000    5.05470                                 3046900200036 
    0.00324    3.33000    5.02810                                 3046900200037 
    0.00328    3.29000    4.99300                                 3046900200038 
    0.00333    3.19000    4.95840                                 3046900200039 
    0.00337    3.28000    4.92420                                 3046900200040 
    0.00342    3.19000    4.89050                                 3046900200041 
    0.00348    3.17000    4.84910                                 3046900200042 
    0.00353    3.00000    4.81640                                 3046900200043 
    0.00357    3.16000    4.78420                                 3046900200044 
    0.00362    3.10000    4.75240                                 3046900200045 
    0.00368    3.22000    4.71330                                 3046900200046 
    0.00373    2.91000    4.68240                                 3046900200047 
    0.00379    2.87000    4.64440                                 3046900200048 
    0.00384    3.21000    4.61450                                 3046900200049 
    0.00390    2.80000    4.57760                                 3046900200050 
    0.00396    3.20000    4.54840                                 3046900200051 
    0.00402    2.59000    4.51260                                 3046900200052 
    0.00408    2.83000    4.47730                                 3046900200053 
    0.00414    2.08000    4.44250                                 3046900200054 
    0.00420    2.47000    4.40830                                 3046900200055 
    0.00426    2.69000    4.37460                                 3046900200056 
    0.00432    2.78000    4.34140                                 3046900200057 
    0.00440    2.75000    4.30870                                 3046900200058 
    0.00446    2.60000    4.27010                                 3046900200059 
    0.00452    2.49000    4.23850                                 3046900200060 
    0.00460    2.39000    4.20110                                 3046900200061 
    0.00467    2.39000    4.17050                                 3046900200062 
    0.00475    2.59000    4.13430                                 3046900200063 
    0.00480    2.27000    4.10230                                 3046900200064 
    0.00490    2.43000    4.06390                                 3046900200065 
    0.00500    2.34000    4.02950                                 3046900200066 
    0.00510    2.34000    3.99580                                 3046900200067 
    0.00520    2.28000    3.92940                                 3046900200068 
    0.00520    2.16000    3.96260                                 3046900200069 
    0.00530    2.21000    3.89730                                 3046900200070 
    0.00540    2.73000    3.86090                                 3046900200071 
    0.00550    2.76000    3.82480                                 3046900200072 
    0.00560    3.31000    3.79110                                 3046900200073 
    0.00570    3.47000    3.75950                                 3046900200074 
    0.00580    3.31000    3.72520                                 3046900200075 
    0.00600    3.33000    3.69160                                 3046900200076 
    0.00613    3.22000    3.65850                                 3046900200077 
    0.00620    3.15000    3.62150                                 3046900200078 
    0.00630    3.06000    3.58970                                 3046900200079 
    0.00640    3.13000    3.55400                                 3046900200080 
    0.00660    2.96000    3.51900                                 3046900200081 
    0.00670    2.98000    3.48470                                 3046900200082 
    0.00680    2.74000    3.45110                                 3046900200083 
    0.00700    2.69000    3.41810                                 3046900200084 
    0.00710    2.68000    3.38170                                 3046900200085 
    0.00720    2.66000    3.33010                                 3046900200086 
    0.00740    2.71000    3.31510                                 3046900200087 
    0.00760    3.06000    3.28090                                 3046900200088 
    0.00770    3.28000    3.24760                                 3046900200089 
    0.00790    3.33000    3.21090                                 3046900200090 
    0.00810    3.23000    3.17880                                 3046900200091 
    0.00820    3.05500    3.14390                                 3046900200092 
    0.00840    3.05000    3.09290                                 3046900200093 
    0.00860    2.94000    3.07630                                 3046900200094 
    0.00880    2.90000    3.04030                                 3046900200095 
    0.00910    2.74000    2.99260                                 3046900200096 
    0.00920    2.79000    2.97400                                 3046900200097 
    0.00940    2.70000    2.93730                                 3046900200098 
    0.00970    2.67000    2.90450                                 3046900200099 
    0.00990    2.58000    2.86960                                 3046900200100 
    0.01010    2.59000    2.83540                                 3046900200101 
    0.01040    2.47000    2.80210                                 3046900200102 
    0.01060    2.36000    2.76690                                 3046900200103 
    0.01090    2.42000    2.73250                                 3046900200104 
    0.01120    2.53000    2.69300                                 3046900200105 
    0.01150    2.45000    2.66380                                 3046900200106 
    0.01180    2.44000    2.62950                                 3046900200107 
    0.01210    2.35000    2.57980                                 3046900200108 
    0.01240    2.33000    2.55350                                 3046900200109 
    0.01280    2.32000    2.52730                                 3046900200110 
    0.01310    2.45000    2.49430                                 3046900200111 
    0.01350    2.48000    2.46340                                 3046900200112 
    0.01390    2.37000    2.42450                                 3046900200113 
    0.01430    2.31000    2.39810                                 3046900200114 
    0.01470    2.34000    2.35660                                 3046900200115 
    0.01510    2.24000    2.32220                                 3046900200116 
    0.01560    2.22000    2.28880                                 3046900200117 
    0.01610    2.18000    2.25450                                 3046900200118 
    0.01650    2.33000    2.22120                                 3046900200119 
    0.01710    2.47000    2.18560                                 3046900200120 
    0.01760    2.45000    2.15270                                 3046900200121 
    0.01820    2.48000    2.11760                                 3046900200122 
    0.01880    2.44000    2.08370                                 3046900200123 
    0.01940    2.44000    2.04940                                 3046900200124 
    0.02010    2.59000    2.01470                                 3046900200125 
    0.02080    2.47000    1.98130                                 3046900200126 
    0.02150    2.39000    1.94750                                 3046900200127 
    0.02230    2.54000    1.91240                                 3046900200128 
    0.02310    2.41000    1.87850                                 3046900200129 
    0.02400    2.46000    1.84460                                 3046900200130 
    0.02440    2.42000    1.81070                                 3046900200131 
    0.02450    2.63000    1.79370                                 3046900200132 
    0.02590    2.45000    1.77590                                 3046900200133 
    0.02640    2.41000    1.75950                                 3046900200134 
    0.02690    2.52000    1.74230                                 3046900200135 
    0.02750    2.33000    1.72450                                 3046900200136 
    0.02800    2.40000    1.70800                                 3046900200137 
    0.02860    2.57000    1.69080                                 3046900200138 
    0.02920    2.48000    1.67400                                 3046900200139 
    0.02980    2.59000    1.65660                                 3046900200140 
    0.03040    2.47000    1.63950                                 3046900200141 
    0.03100    2.40000    1.62280                                 3046900200142 
    0.03170    2.43000    1.60540                                 3046900200143 
    0.03240    2.38000    1.58850                                 3046900200144 
    0.03310    2.30000    1.57110                                 3046900200145 
    0.03400    2.37000    1.54900                                 3046900200146 
    0.03460    2.38000    1.53730                                 3046900200147 
    0.03540    2.45000    1.52020                                 3046900200148 
    0.03620    2.47000    1.50260                                 3046900200149 
    0.03700    2.45000    1.48620                                 3046900200150 
    0.03790    2.32000    1.46870                                 3046900200151 
    0.03880    2.54000    1.45150                                 3046900200152 
    0.03970    2.49000    1.43500                                 3046900200153 
    0.04040    2.40000    1.42200                                 3046900200154 
    0.04170    2.39000    1.40040                                 3046900200155 
    0.04270    2.41000    1.38350                                 3046900200156 
    0.04380    2.29000    1.36630                                 3046900200157 
    0.04490    2.41000    1.34890                                 3046900200158 
    0.04610    2.35000    1.33190                                 3046900200159 
    0.04730    2.35000    1.31480                                 3046900200160 
    0.04850    2.45000    1.29810                                 3046900200161 
    0.04990    2.24000    1.28070                                 3046900200162 
    0.05120    2.35000    1.26370                                 3046900200163 
    0.05260    2.45000    1.24660                                 3046900200164 
    0.05410    2.35000    1.22950                                 3046900200165 
    0.05560    2.45000    1.21230                                 3046900200166 
    0.05720    2.35000    1.19560                                 3046900200167 
    0.05890    2.45000    1.17830                                 3046900200168 
    0.06070    2.35000    1.16100                                 3046900200169 
    0.06250    2.35000    1.14400                                 3046900200170 
    0.06440    2.35000    1.12730                                 3046900200171 
    0.06640    2.34000    1.11020                                 3046900200172 
    0.06850    2.34000    1.09280                                 3046900200173 
    0.07070    2.35000    1.07600                                 3046900200174 
    0.07300    2.34000    1.05880                                 3046900200175 
    0.07540    2.41000    1.04190                                 3046900200176 
    0.07790    2.45000    1.02470                                 3046900200177 
    0.08060    2.42000    1.00740                                 3046900200178 
    0.08340    2.33000    0.99060                                 3046900200179 
    0.08630    2.34000    0.97350                                 3046900200180 
    0.08950    2.34000    0.95620                                 3046900200181 
    0.09270    2.33000    0.93930                                 3046900200182 
    0.09620    2.25000    0.92230                                 3046900200183 
    0.09990    2.35000    0.90510                                 3046900200184 
    0.10380    2.35000    0.88790                                 3046900200185 
    0.10790    2.35000    0.87090                                 3046900200186 
    0.11220    2.35000    0.85380                                 3046900200187 
    0.11680    2.41000    0.83680                                 3046900200188 
    0.12180    2.45000    0.81980                                 3046900200189 
    0.12700    2.25000    0.80250                                 3046900200190 
    0.13260    2.35000    0.78550                                 3046900200191 
    0.13860    2.25000    0.76850                                 3046900200192 
    0.14500    2.35000    0.75130                                 3046900200193 
    0.15170    2.35000    0.73430                                 3046900200194 
    0.15910    2.30000    0.71720                                 3046900200195 
    0.16690    2.35000    0.70020                                 3046900200196 
    0.17540    2.45000    0.68300                                 3046900200197 
    0.18450    2.25000    0.66600                                 3046900200198 
    0.19430    2.35000    0.64890                                 3046900200199 
    0.20500    2.55000    0.63180                                 3046900200200 
    0.21650    2.35000    0.61470                                 3046900200201 
    0.22910    2.25000    0.59770                                 3046900200202 
    0.24280    2.25000    0.58060                                 3046900200203 
    0.25770    2.55000    0.56350                                 3046900200204 
    0.27410    2.45000    0.54640                                 3046900200205 
    0.29210    2.39000    0.52930                                 3046900200206 
    0.31190    2.45000    0.51230                                 3046900200207 
    0.33310    2.35000    0.49520                                 3046900200208 
    0.35800    2.25000    0.47810                                 3046900200209 
    0.38500    2.25000    0.46110                                 3046900200210 
    0.41520    2.53000    0.44420                                 3046900200211 
    0.44910    2.21000    0.32690                                 3046900200212 
    0.48730    2.17000    0.30980                                 3046900200213 
    0.53070    2.35000    0.39270                                 3046900200214 
    0.58000    2.35000    0.37560                                 3046900200215 
    0.63660    2.25000    0.35860                                 3046900200216 
    0.70190    2.38000    0.34150                                 3046900200217 
    0.77770    2.45000    0.32440                                 3046900200218 
    0.86630    2.61000    0.30740                                 3046900200219 
    0.97140    2.25000    0.29020                                 3046900200220 
    1.09600    2.48000    0.27320                                 3046900200221 
    1.24800    2.55000    0.25610                                 3046900200222 
    1.43200    2.59000    0.23900                                 3046900200223 
    1.66100    2.32000    0.22970                                 3046900200224 
    1.94900    2.31000    0.20490                                 3046900200225 
    2.32000    2.28000    0.18780                                 3046900200226 
    2.80800    2.27000    0.17070                                 3046900200227 
    3.46600    2.54000    0.15370                                 3046900200228 
    4.38700    2.36000    0.13660                                 3046900200229 
    5.73000    2.24000    0.11950                                 3046900200230 
ENDDATA            211          0                                 3046900200231 
ENDSUBENT          230          0                                 3046900299999 
SUBENT        30469003   20090312                             31353046900300001 
BIB                  3          7                                 3046900300002 
REACTION   (14-SI-0(N,TOT),,SIG,,,DERIV)                          3046900300003 
            Thermal cross section obtained from formula derived   3046900300004 
            from experimental values given in subentry 2          3046900300005 
STATUS     (DEP,30469002)                                         3046900300006 
            Dependent data obtained from total cross section      3046900300007 
           measurement.                                           3046900300008 
ERR-ANALYS (DATA-ERR) Nothing said about uncertainties            3046900300009 
ENDBIB               7          0                                 3046900300010 
NOCOMMON             0          0                                 3046900300011 
DATA                 3          1                                 3046900300012 
EN         DATA       DATA-ERR                                    3046900300013 
EV         B          B                                           3046900300014 
 2.5000E-02 2.3500E+00 8.0000E-02                                 3046900300015 
ENDDATA              3          0                                 3046900300016 
ENDSUBENT           15          0                                 3046900399999 
SUBENT        30469004   20090312                             31353046900400001 
BIB                  3          6                                 3046900400002 
REACTION   (14-SI-0(N,EL)14-SI-0,POT,SIG,,AV)                     3046900400003 
STATUS     (DEP,30469002)                                         3046900400004 
            Dependent data obtained from total cross section      3046900400005 
           measurement.  Data taken from Table 1 of 1977 Kiev Conf3046900400006 
           vol.2,p.232.                                           3046900400007 
ERR-ANALYS (DATA-ERR) Nothing said about uncertainties            3046900400008 
ENDBIB               6          0                                 3046900400009 
COMMON               2          3                                 3046900400010 
EN-MIN     EN-MAX                                                 3046900400011 
EV         EV                                                     3046900400012 
 2.5400E-03 5.7300E+00                                            3046900400013 
ENDCOMMON            3          0                                 3046900400014 
DATA                 2          1                                 3046900400015 
DATA       DATA-ERR                                               3046900400016 
B          B                                                      3046900400017 
 2.2700E+00 1.1000E-01                                            3046900400018 
ENDDATA              3          0                                 3046900400019 
ENDSUBENT           18          0                                 3046900499999 
SUBENT        30469005   20090312                             31353046900500001 
BIB                  6         11                                 3046900500002 
REACTION   (25-MN-55(N,TOT),,SIG)                                 3046900500003 
SAMPLE     Spec.pure manganese powder, packed in perspex container3046900500004 
            2 samples of thickness 1.47 and 2.86 g/cm2.           3046900500005 
MISC-COL   (MISC) Wave length in Angstrom.                        3046900500006 
COMMENT    The cross-section is represented by the formula,       3046900500007 
            sig tot =((2.12+-0.2) + (2.17+-0.03)/sqrt(E))  barn.  3046900500008 
            E in electron volt.  This equation gives              3046900500009 
            sig tot(0.025eV) =(15.80+-0.40) B                     3046900500010 
STATUS     (TABLE) Data from priv.comm., M.Adib, 79/01/13.        3046900500011 
           corresponding to fig  of ATKE,                         3046900500012 
ERR-ANALYS (DATA-ERR) Nothing said about uncertainties            3046900500013 
ENDBIB              11          0                                 3046900500014 
COMMON               1          3                                 3046900500015 
DATA-ERR                                                          3046900500016 
PER-CENT                                                          3046900500017 
 5.0000E+00                                                       3046900500018 
ENDCOMMON            3          0                                 3046900500019 
DATA                 3        209                                 3046900500020 
EN         DATA       MISC                                        3046900500021 
EV         B          ANGSTROM                                    3046900500022 
    0.00245   51.28000    5.78780                                 3046900500023 
    0.00251   45.65000    5.70850                                 3046900500024 
    0.00253   45.20000    5.67450                                 3046900500025 
    0.00260   40.40000    5.61760                                 3046900500026 
    0.00263   43.80000    5.58470                                 3046900500027 
    0.00267   50.46000    5.54150                                 3046900500028 
    0.00270   43.40000    5.50960                                 3046900500029 
    0.00276   39.15000    5.44950                                 3046900500030 
    0.00282   47.49000    5.38780                                 3046900500031 
    0.00289   44.02000    5.31780                                 3046900500032 
    0.00296   43.09000    5.25910                                 3046900500033 
    0.00299   42.58000    5.23030                                 3046900500034 
    0.00304   37.05000    5.19230                                 3046900500035 
    0.00307   44.70000    5.16420                                 3046900500036 
    0.00311   36.50000    5.12720                                 3046900500037 
    0.00316   43.40000    5.09070                                 3046900500038 
    0.00320   35.93000    5.05470                                 3046900500039 
    0.00324   40.33000    5.02810                                 3046900500040 
    0.00328   42.17000    4.99300                                 3046900500041 
    0.00333   38.08000    4.95840                                 3046900500042 
    0.00337   44.90000    4.92420                                 3046900500043 
    0.00342   44.68000    4.89050                                 3046900500044 
    0.00348   39.41000    4.84910                                 3046900500045 
    0.00353   41.56000    4.81640                                 3046900500046 
    0.00357   36.03000    4.78420                                 3046900500047 
    0.00362   36.90000    4.75240                                 3046900500048 
    0.00368   36.75000    4.71330                                 3046900500049 
    0.00373   34.94000    4.68240                                 3046900500050 
    0.00379   36.59000    4.64440                                 3046900500051 
    0.00384   38.70000    4.61450                                 3046900500052 
    0.00391   35.70000    4.57760                                 3046900500053 
    0.00396   38.69000    4.54840                                 3046900500054 
    0.00402   32.96000    4.51270                                 3046900500055 
    0.00408   35.20000    4.47730                                 3046900500056 
    0.00410   35.14000    4.44250                                 3046900500057 
    0.00420   32.75000    4.40830                                 3046900500058 
    0.00425   35.20000    4.37460                                 3046900500059 
    0.00430   34.70000    4.34140                                 3046900500060 
    0.00440   33.57000    4.30870                                 3046900500061 
    0.00445   34.29000    4.27010                                 3046900500062 
    0.00450   35.72000    4.23850                                 3046900500063 
    0.00460   34.80000    4.20110                                 3046900500064 
    0.00470   34.80000    4.17050                                 3046900500065 
    0.00475   36.20000    4.13430                                 3046900500066 
    0.00480   34.80000    4.10230                                 3046900500067 
    0.00490   33.47000    4.06390                                 3046900500068 
    0.00500   32.91000    4.02960                                 3046900500069 
    0.00510   32.75000    3.99580                                 3046900500070 
    0.00520   30.67000    3.92990                                 3046900500071 
    0.00520   31.94000    3.96260                                 3046900500072 
    0.00530   30.67000    3.89780                                 3046900500073 
    0.00540   31.20000    3.86090                                 3046900500074 
    0.00550   30.50000    3.82480                                 3046900500075 
    0.00560   30.20000    3.79440                                 3046900500076 
    0.00570   28.56000    3.75950                                 3046900500077 
    0.00580   28.56000    3.72520                                 3046900500078 
    0.00600   28.76000    3.69160                                 3046900500079 
    0.00610   28.86000    3.65850                                 3046900500080 
    0.00620   28.70000    3.62150                                 3046900500081 
    0.00630   28.25000    3.58970                                 3046900500082 
    0.00640   27.94000    3.55400                                 3046900500083 
    0.00660   28.05000    3.51900                                 3046900500084 
    0.00670   27.50000    3.48470                                 3046900500085 
    0.00680   27.74000    3.45110                                 3046900500086 
    0.00700   26.60000    3.41810                                 3046900500087 
    0.00710   26.10000    3.38170                                 3046900500088 
    0.00720   27.02000    3.35010                                 3046900500089 
    0.00740   25.79000    3.31510                                 3046900500090 
    0.00760   25.50000    3.28090                                 3046900500091 
    0.00770   26.41000    3.24740                                 3046900500092 
    0.00790   25.69000    3.21090                                 3046900500093 
    0.00810   25.38000    3.17880                                 3046900500094 
    0.00820   25.70000    3.14390                                 3046900500095 
    0.00840   24.06000    3.10970                                 3046900500096 
    0.00860   24.97000    3.07630                                 3046900500097 
    0.00880   24.25000    3.04030                                 3046900500098 
    0.00910   24.26000    2.99260                                 3046900500099 
    0.00920   23.88000    2.97400                                 3046900500100 
    0.00940   24.16000    2.93730                                 3046900500101 
    0.00970   23.03000    2.90450                                 3046900500102 
    0.00990   24.05000    2.86960                                 3046900500103 
    0.01010   23.54000    2.83540                                 3046900500104 
    0.01040   22.50000    2.80210                                 3046900500105 
    0.01060   22.20000    2.76690                                 3046900500106 
    0.01090   21.60000    2.73250                                 3046900500107 
    0.01120   21.39000    2.69900                                 3046900500108 
    0.01150   22.20000    2.66380                                 3046900500109 
    0.01180   21.19000    2.62950                                 3046900500110 
    0.01210   21.29000    2.59610                                 3046900500111 
    0.01240   21.60000    2.55350                                 3046900500112 
    0.01280   20.16000    2.52730                                 3046900500113 
    0.01310   19.65000    2.49430                                 3046900500114 
    0.01350   19.75000    2.46340                                 3046900500115 
    0.01390   20.06000    2.42450                                 3046900500116 
    0.01430   19.45000    2.39210                                 3046900500117 
    0.01470   19.35000    2.35660                                 3046900500118 
    0.01510   18.53000    2.32220                                 3046900500119 
    0.01560   18.83000    2.28880                                 3046900500120 
    0.01610   18.83000    2.25450                                 3046900500121 
    0.01650   18.94000    2.22120                                 3046900500122 
    0.01710   18.00000    2.18560                                 3046900500123 
    0.01760   17.60000    2.15270                                 3046900500124 
    0.01820   17.80000    2.11760                                 3046900500125 
    0.01880   17.49000    2.08370                                 3046900500126 
    0.01940   17.76000    2.04940                                 3046900500127 
    0.02010   17.60000    2.01470                                 3046900500128 
    0.02080   16.79000    1.98130                                 3046900500129 
    0.02150   16.22000    1.94750                                 3046900500130 
    0.02230   15.96000    1.91240                                 3046900500131 
    0.02310   16.12000    1.87800                                 3046900500132 
    0.02400   16.05000    1.84460                                 3046900500133 
    0.02490   15.56000    1.81070                                 3046900500134 
    0.02590   15.25000    1.77590                                 3046900500135 
    0.02690   14.90000    1.74230                                 3046900500136 
    0.02750   15.10000    1.72450                                 3046900500137 
    0.02800   14.84000    1.70800                                 3046900500138 
    0.02860   15.15000    1.69080                                 3046900500139 
    0.02920   14.99000    1.67400                                 3046900500140 
    0.02980   14.89000    1.65660                                 3046900500141 
    0.03040   14.43000    1.63950                                 3046900500142 
    0.03100   14.89000    1.62280                                 3046900500143 
    0.03170   14.64000    1.60540                                 3046900500144 
    0.03240   14.22000    1.58850                                 3046900500145 
    0.03310   14.17000    1.57110                                 3046900500146 
    0.03400   14.10000    1.54900                                 3046900500147 
    0.03460   14.00000    1.53730                                 3046900500148 
    0.03540   14.27000    1.52020                                 3046900500149 
    0.03620   13.55000    1.50260                                 3046900500150 
    0.03700   12.98000    1.48620                                 3046900500151 
    0.03790   13.45000    1.46870                                 3046900500152 
    0.03880   12.88000    1.45150                                 3046900500153 
    0.03970   13.30000    1.43500                                 3046900500154 
    0.04040   12.83000    1.42200                                 3046900500155 
    0.04170   12.15000    1.40440                                 3046900500156 
    0.04270   12.57000    1.38350                                 3046900500157 
    0.04380   12.62000    1.36630                                 3046900500158 
    0.04490   11.95000    1.34890                                 3046900500159 
    0.04610   12.21000    1.33190                                 3046900500160 
    0.04730   11.64000    1.31480                                 3046900500161 
    0.04850   11.95000    1.29810                                 3046900500162 
    0.04990   12.10000    1.28070                                 3046900500163 
    0.05120   11.60000    1.26370                                 3046900500164 
    0.05260   11.58000    1.24660                                 3046900500165 
    0.05410   11.17000    1.22950                                 3046900500166 
    0.05560   11.17000    1.21230                                 3046900500167 
    0.05720   11.33000    1.19560                                 3046900500168 
    0.05890   11.02000    1.17830                                 3046900500169 
    0.06070   10.76000    1.16100                                 3046900500170 
    0.06250   10.76000    1.14400                                 3046900500171 
    0.06440   10.96000    1.12730                                 3046900500172 
    0.06640   10.65000    1.11020                                 3046900500173 
    0.06850   10.24000    1.09280                                 3046900500174 
    0.07070    9.40000    1.07600                                 3046900500175 
    0.07360    9.70000    1.05880                                 3046900500176 
    0.07540   10.08000    1.04190                                 3046900500177 
    0.07790   10.03000    1.02470                                 3046900500178 
    0.08060    9.70000    1.00740                                 3046900500179 
    0.08340    9.40000    0.99060                                 3046900500180 
    0.08630    8.99000    0.97320                                 3046900500181 
    0.08950    9.26000    0.95620                                 3046900500182 
    0.09270    9.10000    0.93930                                 3046900500183 
    0.09620    9.29000    0.92240                                 3046900500184 
    0.09990    9.10000    0.90510                                 3046900500185 
    0.10380    9.10000    0.88790                                 3046900500186 
    0.10790    8.69000    0.87090                                 3046900500187 
    0.11220    8.48000    0.85380                                 3046900500188 
    0.11680    8.40000    0.83680                                 3046900500189 
    0.12180    8.40000    0.81980                                 3046900500190 
    0.12700    8.17000    0.80250                                 3046900500191 
    0.13260    8.17000    0.78550                                 3046900500192 
    0.13860    7.76000    0.76850                                 3046900500193 
    0.14500    7.65000    0.75130                                 3046900500194 
    0.15170    8.07000    0.73430                                 3046900500195 
    0.15910    7.55000    0.71720                                 3046900500196 
    0.16690    7.75000    0.70220                                 3046900500197 
    0.17540    6.93000    0.68300                                 3046900500198 
    0.18450    7.14000    0.66600                                 3046900500199 
    0.19430    6.93000    0.64890                                 3046900500200 
    0.20500    7.45000    0.63180                                 3046900500201 
    0.21650    6.30000    0.61470                                 3046900500202 
    0.22910    6.30000    0.59770                                 3046900500203 
    0.24280    6.15000    0.58060                                 3046900500204 
    0.25770    6.93000    0.56320                                 3046900500205 
    0.27410    5.90000    0.54640                                 3046900500206 
    0.29210    6.10000    0.52930                                 3046900500207 
    0.31190    5.17000    0.51230                                 3046900500208 
    0.33370    5.27000    0.49520                                 3046900500209 
    0.35800    6.00000    0.47810                                 3046900500210 
    0.38500    5.17000    0.46110                                 3046900500211 
    0.41520    5.45000    0.44420                                 3046900500212 
    0.44910    4.65000    0.42690                                 3046900500213 
    0.48730    4.96000    0.40980                                 3046900500214 
    0.53070    5.00000    0.39270                                 3046900500215 
    0.58000    4.45000    0.37560                                 3046900500216 
    0.63660    4.76000    0.35860                                 3046900500217 
    0.70190    4.14000    0.34150                                 3046900500218 
    0.77770    4.65000    0.32440                                 3046900500219 
    0.86630    4.14000    0.30740                                 3046900500220 
    0.97140    5.00000    0.29050                                 3046900500221 
    1.09600    4.20000    0.27320                                 3046900500222 
    1.24800    4.40000    0.25610                                 3046900500223 
    1.43200    5.30000    0.23900                                 3046900500224 
    1.66110    4.14000    0.22200                                 3046900500225 
    1.94900    4.03000    0.20490                                 3046900500226 
    2.32000    3.90000    0.18780                                 3046900500227 
    2.80800    3.70000    0.17070                                 3046900500228 
    3.46600    3.30000    0.15370                                 3046900500229 
    4.38700    4.00000    0.13660                                 3046900500230 
    5.73000    2.10000    0.11950                                 3046900500231 
ENDDATA            211          0                                 3046900500232 
ENDSUBENT          231          0                                 3046900599999 
SUBENT        30469006   20090312                             31353046900600001 
BIB                  3          7                                 3046900600002 
REACTION   (25-MN-55(N,TOT),,SIG,,,DERIV)                         3046900600003 
            Thermal cross section obtained from formula derived   3046900600004 
            from experimental values given in subentry 5          3046900600005 
STATUS     (DEP,30469005)                                         3046900600006 
            Dependent data obtained from total cross section      3046900600007 
           measurement.                                           3046900600008 
ERR-ANALYS (DATA-ERR) Nothing said about uncertainties            3046900600009 
ENDBIB               7          0                                 3046900600010 
NOCOMMON             0          0                                 3046900600011 
DATA                 3          1                                 3046900600012 
EN         DATA       DATA-ERR                                    3046900600013 
EV         B          B                                           3046900600014 
 2.5000E-02 1.5800E+01 4.0000E-01                                 3046900600015 
ENDDATA              3          0                                 3046900600016 
ENDSUBENT           15          0                                 3046900699999 
SUBENT        30469007   20090312                             31353046900700001 
BIB                  3          6                                 3046900700002 
REACTION   (25-MN-55(N,EL)25-MN-55,POT,SIG,,AV)                   3046900700003 
STATUS     (DEP,30469005)                                         3046900700004 
            Dependent data obtained from total cross section      3046900700005 
           measurement.  Data taken from Table 1 of 1977 Kiev Conf3046900700006 
           vol.2,p.232.                                           3046900700007 
ERR-ANALYS (DATA-ERR) Nothing said about uncertainties            3046900700008 
ENDBIB               6          0                                 3046900700009 
COMMON               2          3                                 3046900700010 
EN-MIN     EN-MAX                                                 3046900700011 
EV         EV                                                     3046900700012 
 2.4500E-03 5.7300E+00                                            3046900700013 
ENDCOMMON            3          0                                 3046900700014 
DATA                 2          1                                 3046900700015 
DATA       DATA-ERR                                               3046900700016 
B          B                                                      3046900700017 
 2.6000E+00 2.0000E-01                                            3046900700018 
ENDDATA              3          0                                 3046900700019 
ENDSUBENT           18          0                                 3046900799999 
SUBENT        30469008   20090312                             31353046900800001 
BIB                  3          6                                 3046900800002 
REACTION  1(25-MN-55(N,0),,EN)                                    3046900800003 
          2(25-MN-55(N,EL),,WID/RED)                              3046900800004 
ANALYSIS   (MLA) Multi-level Breit-Wigner formula                 3046900800005 
STATUS     (TABLE) Data from 1977 Kiev Conf.Vol.2,p.232.          3046900800006 
            Red.N-width at -78eV is given as 0.013eV in           3046900800007 
            ATKE,27 (1976)118.                                    3046900800008 
ENDBIB               6          0                                 3046900800009 
NOCOMMON             0          0                                 3046900800010 
DATA                 4          2                                 3046900800011 
DATA      1DATA      2SPIN J     MOMENTUM L                       3046900800012 
EV         EV         NO-DIM     NO-DIM                           3046900800013 
-2.8300E+03 4.5600E+00 2.0000E+00 0.0000E+00                      3046900800014 
-7.8000E+01 1.4000E-01 3.0000E+00 0.0000E+00                      3046900800015 
ENDDATA              4          0                                 3046900800016 
ENDSUBENT           15          0                                 3046900899999 
ENDENTRY             8          0                                 3046999999999 
