ENTRY            30756   20090908                             31413075600000001 
SUBENT        30756001   20090908                             31413075600100001 
BIB                 15         24                                 3075600100002 
TITLE      Neutron cross section of gallium between 0.4669        3075600100003 
           and 5151 eV.                                           3075600100004 
AUTHOR     (R.E.Mayer,V.H.Gillette,J.R.Granada)                   3075600100005 
INSTITUTE  (3ARGCAB)                                              3075600100006 
EXP-YEAR   (1986)                                                 3075600100007 
REFERENCE  (W,MAYER,19870923)                                     3075600100008 
SAMPLE     Natural Ga                                             3075600100009 
MONITOR    Absolute measurements                                  3075600100010 
FACILITY   (LINAC,3ARGCAB) Pulsed 25 MeV electron linear acceler. 3075600100011 
INC-SOURCE A lead target was located inside a polypropilene       3075600100012 
           moderator with graphite reflector                      3075600100013 
METHOD     (TRN) Transmission measurements.                       3075600100014 
           (TOF) Flight path = 17.85 m.                           3075600100015 
           Sample-in sample-out method was used.                  3075600100016 
DETECTOR   (HE3SP) Seven He-3 counter, each 2.5 cm diam. and      3075600100017 
                   15 cm active length,10 atm.filling gas pressure3075600100018 
CORRECTION Background, dead-time(negligible),mean-emission-time   3075600100019 
           of neutron source, in-scattering and multiple          3075600100020 
           scattering estimated negligible.                       3075600100021 
ERR-ANALYS (DATA-ERR) Quoted errors due to statistics and         3075600100022 
           uncertainty of sample thickness.                       3075600100023 
STATUS     (TABLE) Data taken from priv.comm.Mayer 23 Sept.1987   3075600100024 
HISTORY    (19871007C) DG.-                                       3075600100025 
           (20090725A) SD:Updated to new date formats,lower case. 3075600100026 
ENDBIB              24          0                                 3075600100027 
NOCOMMON             0          0                                 3075600100028 
ENDSUBENT           27          0                                 3075600199999 
SUBENT        30756002   20090908                             31413075600200001 
BIB                  1          1                                 3075600200002 
REACTION   (31-GA-0(N,TOT),,SIG)                                  3075600200003 
ENDBIB               1          0                                 3075600200004 
COMMON               2          3                                 3075600200005 
TEMP       TEMP-ERR                                               3075600200006 
K          K                                                      3075600200007 
278.       1.                                                     3075600200008 
ENDCOMMON            3          0                                 3075600200009 
DATA                 3        209                                 3075600200010 
EN         DATA       DATA-ERR                                    3075600200011 
EV         B          B                                           3075600200012 
  5.151E+03   8.756    0.340                                      3075600200013 
  4.623E+03   9.178    0.479                                      3075600200014 
  4.173E+03   9.155    0.363                                      3075600200015 
  3.785E+03   8.925    0.526                                      3075600200016 
  3.448E+03   8.057    0.195                                      3075600200017 
  3.155E+03   8.807    0.407                                      3075600200018 
  2.898E+03   8.292    0.336                                      3075600200019 
  2.670E+03   8.052    0.411                                      3075600200020 
  2.469E+03   8.576    0.488                                      3075600200021 
  2.289E+03   8.384    0.300                                      3075600200022 
  2.129E+03   7.705    0.301                                      3075600200023 
  1.985E+03   8.386    0.296                                      3075600200024 
  1.854E+03  10.010    0.457                                      3075600200025 
  1.737E+03  10.320    0.289                                      3075600200026 
  1.630E+03  10.260    0.273                                      3075600200027 
  1.533E+03  10.240    0.382                                      3075600200028 
  1.444E+03   9.514    0.450                                      3075600200029 
  1.362E+03   7.652    0.471                                      3075600200030 
  1.288E+03   7.618    0.403                                      3075600200031 
  1.219E+03   6.522    0.424                                      3075600200032 
  1.156E+03   7.047    0.491                                      3075600200033 
  1.097E+03   6.556    0.377                                      3075600200034 
  1.043E+03   7.106    0.437                                      3075600200035 
  9.929E+02   8.315    0.599                                      3075600200036 
  9.462E+02   7.905    0.245                                      3075600200037 
  9.027E+02   8.276    0.486                                      3075600200038 
  8.621E+02   7.577    0.333                                      3075600200039 
  8.242E+02   7.914    0.212                                      3075600200040 
  7.888E+02   9.175    0.441                                      3075600200041 
  7.556E+02  11.780    0.490                                      3075600200042 
  7.244E+02  12.920    0.496                                      3075600200043 
  6.951E+02  12.970    0.373                                      3075600200044 
  6.676E+02  11.650    0.458                                      3075600200045 
  6.417E+02   9.969    0.515                                      3075600200046 
  6.172E+02   9.125    0.388                                      3075600200047 
  5.942E+02   8.973    0.357                                      3075600200048 
  5.724E+02   9.607    0.342                                      3075600200049 
  5.517E+02   9.452    0.354                                      3075600200050 
  5.322E+02   9.504    0.437                                      3075600200051 
  5.137E+02  10.600    0.397                                      3075600200052 
  4.961E+02  12.010    0.524                                      3075600200053 
  4.795E+02  13.090    0.446                                      3075600200054 
  4.636E+02  12.540    0.456                                      3075600200055 
  4.485E+02  13.320    0.649                                      3075600200056 
  4.342E+02  13.600    0.457                                      3075600200057 
  4.205E+02  16.960    0.555                                      3075600200058 
  4.075E+02  20.430    0.611                                      3075600200059 
  3.950E+02  28.190    0.515                                      3075600200060 
  3.832E+02  32.460    1.179                                      3075600200061 
  3.718E+02  31.330    0.803                                      3075600200062 
  3.609E+02  29.540    0.594                                      3075600200063 
  3.506E+02  28.370    0.596                                      3075600200064 
  3.406E+02  25.870    0.472                                      3075600200065 
  3.311E+02  31.810    0.613                                      3075600200066 
  3.220E+02  38.720    0.603                                      3075600200067 
  3.132E+02  44.210    1.081                                      3075600200068 
  3.048E+02  55.200    1.815                                      3075600200069 
  2.967E+02  67.820    2.235                                      3075600200070 
  2.890E+02  75.410    1.544                                      3075600200071 
  2.815E+02  68.790    2.172                                      3075600200072 
  2.743E+02  50.420    1.036                                      3075600200073 
  2.674E+02  35.930    0.907                                      3075600200074 
  2.608E+02  25.930    0.838                                      3075600200075 
  2.544E+02  18.540    0.718                                      3075600200076 
  2.482E+02  15.500    0.709                                      3075600200077 
  2.423E+02  12.030    0.575                                      3075600200078 
  2.365E+02   9.860    0.379                                      3075600200079 
  2.310E+02   8.942    0.440                                      3075600200080 
  2.231E+02   6.734    0.310                                      3075600200081 
  2.131E+02   6.747    0.242                                      3075600200082 
  2.038E+02   6.009    0.211                                      3075600200083 
  1.951E+02   5.535    0.315                                      3075600200084 
  1.869E+02   5.462    0.317                                      3075600200085 
  1.792E+02   5.868    0.306                                      3075600200086 
  1.720E+02   5.688    0.257                                      3075600200087 
  1.652E+02   6.108    0.342                                      3075600200088 
  1.589E+02   6.085    0.421                                      3075600200089 
  1.528E+02   5.845    0.388                                      3075600200090 
  1.472E+02   6.793    0.365                                      3075600200091 
  1.418E+02   6.135    0.217                                      3075600200092 
  1.367E+02   5.832    0.329                                      3075600200093 
  1.319E+02   6.100    0.384                                      3075600200094 
  1.273E+02   6.309    0.442                                      3075600200095 
  1.240E+02   7.749    0.364                                      3075600200096 
  1.219E+02   7.835    0.488                                      3075600200097 
  1.199E+02   9.228    0.361                                      3075600200098 
  1.179E+02  10.410    0.683                                      3075600200099 
  1.159E+02  12.230    0.542                                      3075600200100 
  1.140E+02  18.370    0.599                                      3075600200101 
  1.121E+02  21.580    0.841                                      3075600200102 
  1.103E+02  21.040    1.021                                      3075600200103 
  1.085E+02  16.790    0.628                                      3075600200104 
  1.068E+02  11.090    0.569                                      3075600200105 
  1.051E+02   8.576    0.399                                      3075600200106 
  1.035E+02   8.840    0.355                                      3075600200107 
  1.019E+02   9.812    0.524                                      3075600200108 
  1.003E+02  11.810    0.650                                      3075600200109 
  9.876E+01  18.180    0.766                                      3075600200110 
  9.726E+01  24.230    0.305                                      3075600200111 
  9.579E+01  25.830    0.556                                      3075600200112 
  9.435E+01  22.420    0.778                                      3075600200113 
  9.295E+01  14.980    0.358                                      3075600200114 
  9.158E+01  11.460    0.408                                      3075600200115 
  9.024E+01   9.211    0.432                                      3075600200116 
  8.892E+01   8.503    0.511                                      3075600200117 
  8.764E+01   7.138    0.551                                      3075600200118 
  8.638E+01   6.949    0.751                                      3075600200119 
  8.515E+01   5.843    0.507                                      3075600200120 
  8.395E+01   6.386    0.558                                      3075600200121 
  7.369E+01   6.127    0.156                                      3075600200122 
  6.479E+01   6.253    0.166                                      3075600200123 
  5.741E+01   6.711    0.140                                      3075600200124 
  5.123E+01   6.651    0.162                                      3075600200125 
  4.599E+01   6.732    0.156                                      3075600200126 
  4.152E+01   6.809    0.148                                      3075600200127 
  3.767E+01   6.475    0.162                                      3075600200128 
  3.433E+01   6.371    0.145                                      3075600200129 
  3.141E+01   6.651    0.168                                      3075600200130 
  2.886E+01   7.037    0.153                                      3075600200131 
  2.660E+01   6.826    0.162                                      3075600200132 
  2.460E+01   6.934    0.154                                      3075600200133 
  2.281E+01   6.639    0.156                                      3075600200134 
  2.121E+01   6.661    0.138                                      3075600200135 
  1.978E+01   6.808    0.118                                      3075600200136 
  1.848E+01   6.800    0.155                                      3075600200137 
  1.731E+01   7.069    0.161                                      3075600200138 
  1.625E+01   6.707    0.158                                      3075600200139 
  1.528E+01   7.053    0.166                                      3075600200140 
  1.440E+01   6.701    0.200                                      3075600200141 
  1.359E+01   6.638    0.167                                      3075600200142 
  1.284E+01   6.971    0.160                                      3075600200143 
  1.216E+01   6.896    0.149                                      3075600200144 
  1.153E+01   6.868    0.186                                      3075600200145 
  1.095E+01   7.033    0.193                                      3075600200146 
  9.905E+00   7.224    0.116                                      3075600200147 
  9.006E+00   6.950    0.112                                      3075600200148 
  8.224E+00   6.994    0.117                                      3075600200149 
  7.540E+00   7.027    0.117                                      3075600200150 
  6.937E+00   6.863    0.129                                      3075600200151 
  6.404E+00   7.111    0.118                                      3075600200152 
  5.931E+00   7.063    0.116                                      3075600200153 
  5.507E+00   7.206    0.082                                      3075600200154 
  5.128E+00   7.063    0.110                                      3075600200155 
  4.787E+00   7.092    0.117                                      3075600200156 
  4.478E+00   7.068    0.113                                      3075600200157 
  4.198E+00   7.232    0.119                                      3075600200158 
  3.944E+00   7.151    0.139                                      3075600200159 
  3.712E+00   7.188    0.125                                      3075600200160 
  3.501E+00   7.304    0.119                                      3075600200161 
  3.306E+00   7.215    0.113                                      3075600200162 
  3.128E+00   7.112    0.119                                      3075600200163 
  2.963E+00   7.202    0.122                                      3075600200164 
  2.811E+00   7.193    0.136                                      3075600200165 
  2.671E+00   7.262    0.104                                      3075600200166 
  2.541E+00   7.206    0.121                                      3075600200167 
  2.420E+00   6.935    0.119                                      3075600200168 
  2.307E+00   7.407    0.119                                      3075600200169 
  2.203E+00   7.543    0.125                                      3075600200170 
  2.105E+00   7.453    0.122                                      3075600200171 
  2.013E+00   7.480    0.140                                      3075600200172 
  1.928E+00   7.317    0.127                                      3075600200173 
  1.847E+00   7.059    0.120                                      3075600200174 
  1.772E+00   7.276    0.128                                      3075600200175 
  1.701E+00   7.439    0.135                                      3075600200176 
  1.634E+00   7.423    0.141                                      3075600200177 
  1.572E+00   7.441    0.133                                      3075600200178 
  1.512E+00   7.383    0.113                                      3075600200179 
  1.456E+00   7.167    0.108                                      3075600200180 
  1.403E+00   7.420    0.118                                      3075600200181 
  1.353E+00   7.470    0.139                                      3075600200182 
  1.306E+00   7.345    0.139                                      3075600200183 
  1.261E+00   7.425    0.141                                      3075600200184 
  1.218E+00   7.288    0.145                                      3075600200185 
  1.177E+00   7.274    0.154                                      3075600200186 
  1.139E+00   7.456    0.133                                      3075600200187 
  1.102E+00   7.361    0.137                                      3075600200188 
  1.067E+00   7.321    0.149                                      3075600200189 
  1.034E+00   7.280    0.144                                      3075600200190 
  1.002E+00   7.510    0.152                                      3075600200191 
  9.715E-01   7.353    0.129                                      3075600200192 
  9.425E-01   7.540    0.134                                      3075600200193 
  9.148E-01   7.661    0.149                                      3075600200194 
  8.883E-01   7.506    0.151                                      3075600200195 
  8.629E-01   7.729    0.134                                      3075600200196 
  8.387E-01   7.579    0.135                                      3075600200197 
  8.154E-01   7.354    0.155                                      3075600200198 
  7.931E-01   7.431    0.146                                      3075600200199 
  7.716E-01   7.697    0.145                                      3075600200200 
  7.511E-01   7.556    0.143                                      3075600200201 
  7.313E-01   7.667    0.151                                      3075600200202 
  7.123E-01   7.267    0.150                                      3075600200203 
  6.941E-01   7.478    0.148                                      3075600200204 
  6.765E-01   7.521    0.143                                      3075600200205 
  6.596E-01   7.681    0.158                                      3075600200206 
  6.433E-01   7.516    0.176                                      3075600200207 
  6.276E-01   7.407    0.181                                      3075600200208 
  6.125E-01   7.128    0.154                                      3075600200209 
  5.979E-01   7.611    0.161                                      3075600200210 
  5.839E-01   7.411    0.178                                      3075600200211 
  5.703E-01   7.710    0.183                                      3075600200212 
  5.572E-01   7.232    0.177                                      3075600200213 
  5.446E-01   7.741    0.206                                      3075600200214 
  5.323E-01   7.248    0.208                                      3075600200215 
  5.205E-01   7.661    0.162                                      3075600200216 
  5.091E-01   7.614    0.176                                      3075600200217 
  4.980E-01   7.609    0.205                                      3075600200218 
  4.873E-01   7.624    0.199                                      3075600200219 
  4.770E-01   7.464    0.211                                      3075600200220 
  4.669E-01   7.571    0.203                                      3075600200221 
ENDDATA            211          0                                 3075600200222 
ENDSUBENT          221          0                                 3075600299999 
ENDENTRY             2          0                                 3075699999999 
