ENTRY            30831   20131107                             31623083100000001 
SUBENT        30831001   20131107                             31623083100100001 
BIB                 14         61                                 3083100100002 
TITLE      Measurement of Fast Neutron Total Cross Sections on    3083100100003 
           natTa and natBi in the MeV Energy Range                3083100100004 
AUTHOR     (G.D.Kim, H.J.Woo, T.K.Yang, S.Y.Lee, Y.O.Lee)         3083100100005 
INSTITUTE  (3KORKGM) Korea Institute of Geoscience and Mineral    3083100100006 
            Resourses (KIGAM), Daejeon 305-350, Korea             3083100100007 
           (3KORKRM)                                              3083100100008 
           (3KORKOR) Dong-Seo University, Busan                   3083100100009 
           (3KORKAE)                                              3083100100010 
REFERENCE  (J,KPS,59,2233,2011)                                   3083100100011 
FACILITY   (VDGT,3KORKGM) 1.7 MV tandem-type accelerator at the   3083100100012 
            KIGAM                                                 3083100100013 
METHOD     (TOF,TRN) 4.3 m flight path                            3083100100014 
INC-SOURCE (P-T) A Ti-3H film, which was provided by SODERN in    3083100100015 
            France, was also used as a 2-MeV neutron-generating   3083100100016 
            target.                                               3083100100017 
           The areal density of 3H was estimated to be a 4.85 x   3083100100018 
            10**19 atoms/cm**2 by using the 3H(d,n) reaction,     3083100100019 
            and the thickness of Ti was determined to be 5.8 um   3083100100020 
            by calculating the resolved Ti widths related to the  3083100100021 
            energy losses of protons from the 3H(p,n) reaction.   3083100100022 
           The substrate of the Ti-3H film was Cu with a          3083100100023 
            thickness of 1 mm and a diameter of 45 mm.            3083100100024 
           (P-LI7) A Li thin film with a thickness of 87 um,      3083100100025 
            which was provided by the Chemetall Foote Corp. in    3083100100026 
            USA, was used as a 1-MeV neutron- generating target.  3083100100027 
           The areal density of 7Li with a thickness of 87 um was 3083100100028 
            calculated to be a 3.602 x 10**20 atoms/cm2.          3083100100029 
           A Li metal film with a diameter of 2 cm was adhered to 3083100100030 
            a Ag substrate with a thickness of 1 mm and a         3083100100031 
            diameter of 45 mm because the neutron total cross     3083100100032 
            section of Ag for energies from 0.5 MeV to 2 MeV is   3083100100033 
            constant.                                             3083100100034 
           The Ag substrate was also used to maintain the vacuum. 3083100100035 
SAMPLE     Natural Bismuth                                        3083100100036 
            - weight: 82.286 g                                    3083100100037 
            - diameter: 3.000 cm                                  3083100100038 
            - density: 9.807 g/cm**3                              3083100100039 
            - purity: 99.99%                                      3083100100040 
            - atomic weight: 208.98 amu                           3083100100041 
            - areal density: 0.0339 x 10**24/cm**2                3083100100042 
            - isotopes: Bi-209, Bi-211                            3083100100043 
            - length: 1.20 cm                                     3083100100044 
           Natural Tantalum                                       3083100100045 
            - weight: 139.11 g                                    3083100100046 
            - diameter: 3.000 cm                                  3083100100047 
            - density: 16.40 g/cm**3                              3083100100048 
            - purity: 99.90%                                      3083100100049 
            - atomic weight: 180.95 amu                           3083100100050 
            - areal density: 0.0654 x 10**24/cm**2                3083100100051 
            - isotopes: Ta-180, Ta-181                            3083100100052 
            - length: 1.20 cm                                     3083100100053 
PART-DET   (N)                                                    3083100100054 
DETECTOR   (SCIN) Plastic scintillator                            3083100100055 
           - A diameter of 7.08 cm and a length of 1 cm           3083100100056 
CORRECTION Corrected for background and in-scattering neutrons    3083100100057 
ERR-ANALYS (ERR-S) Mean statistical uncertainty is given          3083100100058 
            by authors                                            3083100100059 
STATUS     (APRVD) Approved by G.D.Kim (2012-12-03)               3083100100060 
HISTORY    (20121119R) Received from G.D.Kim by e-mail            3083100100061 
           (20121119C) S.C.Yang                                   3083100100062 
           (20131107U) On. INSTITUTE: DongSe -> Dong-Seo          3083100100063 
ENDBIB              61          0                                 3083100100064 
NOCOMMON             0          0                                 3083100100065 
ENDSUBENT           64          0                                 3083100199999 
SUBENT        30831002   20131107                             31623083100200001 
BIB                  3          3                                 3083100200002 
REACTION   (73-TA-0(N,TOT),,SIG)                                  3083100200003 
STATUS     (TABLE) Corresponding to Fig.4 of J,KPS,59,2233,2011   3083100200004 
HISTORY    (20131107A) On. EN: EV -> MEV                          3083100200005 
ENDBIB               3          0                                 3083100200006 
NOCOMMON             0          0                                 3083100200007 
DATA                 3        467                                 3083100200008 
EN         DATA       ERR-S                                       3083100200009 
MEV        B          B                                           3083100200010 
 0.7322     6.4554     0.1756                                     3083100200011 
 0.7330     6.4572     0.1739                                     3083100200012 
 0.7338     6.4877     0.1762                                     3083100200013 
 0.7345     6.3218     0.1749                                     3083100200014 
 0.7353     6.8258     0.1752                                     3083100200015 
 0.7361     6.3037     0.1743                                     3083100200016 
 0.7369     6.3482     0.1736                                     3083100200017 
 0.7376     6.7454     0.1742                                     3083100200018 
 0.7384     6.3894     0.1739                                     3083100200019 
 0.7392     6.7621     0.1737                                     3083100200020 
 0.7400     6.6656     0.1731                                     3083100200021 
 0.7408     6.4934     0.1729                                     3083100200022 
 0.7416     6.7605     0.1730                                     3083100200023 
 0.7423     6.8434     0.1748                                     3083100200024 
 0.7431     6.6954     0.1735                                     3083100200025 
 0.7439     6.6832     0.1712                                     3083100200026 
 0.7447     6.9274     0.1741                                     3083100200027 
 0.7455     6.9180     0.1726                                     3083100200028 
 0.7463     7.0449     0.1728                                     3083100200029 
 0.7471     7.0889     0.1714                                     3083100200030 
 0.7479     6.5249     0.1693                                     3083100200031 
 0.7487     7.0695     0.1726                                     3083100200032 
 0.7495     7.0969     0.1707                                     3083100200033 
 0.7503     7.0980     0.1711                                     3083100200034 
 0.7511     6.8748     0.1692                                     3083100200035 
 0.7519     6.8884     0.1693                                     3083100200036 
 0.7527     6.7223     0.1692                                     3083100200037 
 0.7535     6.8725     0.1684                                     3083100200038 
 0.7543     6.9585     0.1687                                     3083100200039 
 0.7551     6.5896     0.1667                                     3083100200040 
 0.7559     6.8288     0.1680                                     3083100200041 
 0.7567     6.7299     0.1674                                     3083100200042 
 0.7575     6.4541     0.1666                                     3083100200043 
 0.7583     6.6750     0.1664                                     3083100200044 
 0.7591     6.6124     0.1649                                     3083100200045 
 0.7599     6.6524     0.1676                                     3083100200046 
 0.7608     6.7774     0.1656                                     3083100200047 
 0.7616     6.9071     0.1658                                     3083100200048 
 0.7624     6.8188     0.1670                                     3083100200049 
 0.7632     6.7098     0.1649                                     3083100200050 
 0.7640     6.7899     0.1652                                     3083100200051 
 0.7649     6.5732     0.1642                                     3083100200052 
 0.7657     6.8995     0.1652                                     3083100200053 
 0.7665     6.6230     0.1649                                     3083100200054 
 0.7673     6.8113     0.1657                                     3083100200055 
 0.7682     6.9701     0.1633                                     3083100200056 
 0.7690     6.6998     0.1631                                     3083100200057 
 0.7698     6.7260     0.1618                                     3083100200058 
 0.7706     6.7924     0.1613                                     3083100200059 
 0.7715     6.4466     0.1597                                     3083100200060 
 0.7723     6.8782     0.1612                                     3083100200061 
 0.7731     6.6675     0.1604                                     3083100200062 
 0.7740     6.7568     0.1595                                     3083100200063 
 0.7748     6.7693     0.1603                                     3083100200064 
 0.7757     6.9308     0.1599                                     3083100200065 
 0.7765     7.1762     0.1601                                     3083100200066 
 0.7773     7.0272     0.1597                                     3083100200067 
 0.7782     6.7911     0.1584                                     3083100200068 
 0.7790     6.6795     0.1579                                     3083100200069 
 0.7799     6.6962     0.1578                                     3083100200070 
 0.7807     6.9140     0.1584                                     3083100200071 
 0.7816     7.0542     0.1593                                     3083100200072 
 0.7824     6.4628     0.1580                                     3083100200073 
 0.7833     6.6962     0.1578                                     3083100200074 
 0.7841     6.4498     0.1586                                     3083100200075 
 0.7850     6.7212     0.1583                                     3083100200076 
 0.7858     6.7156     0.1577                                     3083100200077 
 0.7867     6.7925     0.1577                                     3083100200078 
 0.7876     6.4096     0.1562                                     3083100200079 
 0.7884     6.5381     0.1570                                     3083100200080 
 0.7893     6.7597     0.1574                                     3083100200081 
 0.7901     6.9330     0.1585                                     3083100200082 
 0.7910     6.9780     0.1573                                     3083100200083 
 0.7919     6.6412     0.1568                                     3083100200084 
 0.7927     6.4738     0.1556                                     3083100200085 
 0.7936     7.1456     0.1573                                     3083100200086 
 0.7945     6.8088     0.1556                                     3083100200087 
 0.7953     6.6583     0.1552                                     3083100200088 
 0.7962     6.7684     0.1546                                     3083100200089 
 0.7971     6.8965     0.1545                                     3083100200090 
 0.7980     6.9443     0.1558                                     3083100200091 
 0.7988     7.0055     0.1541                                     3083100200092 
 0.7997     6.6329     0.1543                                     3083100200093 
 0.8006     7.0811     0.1538                                     3083100200094 
 0.8015     7.0607     0.1552                                     3083100200095 
 0.8024     7.1355     0.1532                                     3083100200096 
 0.8033     7.1369     0.1546                                     3083100200097 
 0.8041     6.6889     0.1530                                     3083100200098 
 0.8050     6.6694     0.1511                                     3083100200099 
 0.8059     6.9556     0.1532                                     3083100200100 
 0.8068     6.8005     0.1527                                     3083100200101 
 0.8077     6.8320     0.1524                                     3083100200102 
 0.8086     6.6658     0.1527                                     3083100200103 
 0.8095     6.9055     0.1509                                     3083100200104 
 0.8104     6.9083     0.1524                                     3083100200105 
 0.8113     6.6447     0.1526                                     3083100200106 
 0.8122     6.7249     0.1513                                     3083100200107 
 0.8131     6.6958     0.1516                                     3083100200108 
 0.8140     6.8061     0.1518                                     3083100200109 
 0.8149     6.4578     0.1504                                     3083100200110 
 0.8158     6.5834     0.1506                                     3083100200111 
 0.8167     6.6040     0.1494                                     3083100200112 
 0.8176     6.8668     0.1501                                     3083100200113 
 0.8185     7.0407     0.1507                                     3083100200114 
 0.8194     6.5834     0.1500                                     3083100200115 
 0.8203     6.9597     0.1495                                     3083100200116 
 0.8212     7.0402     0.1506                                     3083100200117 
 0.8222     6.8295     0.1486                                     3083100200118 
 0.8231     6.9492     0.1487                                     3083100200119 
 0.8240     6.8949     0.1480                                     3083100200120 
 0.8249     6.9928     0.1474                                     3083100200121 
 0.8258     6.6916     0.1460                                     3083100200122 
 0.8268     7.0120     0.1478                                     3083100200123 
 0.8277     6.9198     0.1477                                     3083100200124 
 0.8286     6.9197     0.1474                                     3083100200125 
 0.8295     7.1400     0.1461                                     3083100200126 
 0.8305     7.1952     0.1469                                     3083100200127 
 0.8314     6.9719     0.1459                                     3083100200128 
 0.8323     6.7663     0.1465                                     3083100200129 
 0.8333     7.1783     0.1467                                     3083100200130 
 0.8342     6.8343     0.1461                                     3083100200131 
 0.8351     6.8358     0.1453                                     3083100200132 
 0.8361     6.9307     0.1463                                     3083100200133 
 0.8370     6.7836     0.1461                                     3083100200134 
 0.8380     6.8698     0.1454                                     3083100200135 
 0.8389     7.0173     0.1457                                     3083100200136 
 0.8399     6.7202     0.1460                                     3083100200137 
 0.8408     6.5886     0.1449                                     3083100200138 
 0.8418     6.7031     0.1455                                     3083100200139 
 0.8427     6.8858     0.1458                                     3083100200140 
 0.8437     6.8227     0.1465                                     3083100200141 
 0.8446     6.9204     0.1460                                     3083100200142 
 0.8456     6.8830     0.1464                                     3083100200143 
 0.8465     6.6014     0.1454                                     3083100200144 
 0.8475     6.5648     0.1446                                     3083100200145 
 0.8484     6.5906     0.1443                                     3083100200146 
 0.8494     6.5917     0.1440                                     3083100200147 
 0.8504     6.5935     0.1440                                     3083100200148 
 0.8513     6.9563     0.1444                                     3083100200149 
 0.8523     7.0552     0.1430                                     3083100200150 
 0.8533     6.7832     0.1431                                     3083100200151 
 0.8542     6.7689     0.1433                                     3083100200152 
 0.8552     7.1039     0.1435                                     3083100200153 
 0.8562     6.8613     0.1425                                     3083100200154 
 0.8572     6.8844     0.1411                                     3083100200155 
 0.8581     6.9466     0.1406                                     3083100200156 
 0.8591     7.0337     0.1404                                     3083100200157 
 0.8601     6.8865     0.1401                                     3083100200158 
 0.8611     6.9403     0.1404                                     3083100200159 
 0.8621     7.0101     0.1403                                     3083100200160 
 0.8630     6.7417     0.1388                                     3083100200161 
 0.8640     6.8645     0.1388                                     3083100200162 
 0.8650     6.9119     0.1393                                     3083100200163 
 0.8660     6.7762     0.1379                                     3083100200164 
 0.8670     6.9889     0.1390                                     3083100200165 
 0.8680     6.7641     0.1384                                     3083100200166 
 0.8690     6.6704     0.1387                                     3083100200167 
 0.8700     6.7888     0.1374                                     3083100200168 
 0.8710     6.9793     0.1384                                     3083100200169 
 0.8720     6.7588     0.1380                                     3083100200170 
 0.8730     6.9834     0.1378                                     3083100200171 
 0.8740     6.6807     0.1376                                     3083100200172 
 0.8750     6.6498     0.1377                                     3083100200173 
 0.8760     7.0601     0.1383                                     3083100200174 
 0.8770     6.7907     0.1386                                     3083100200175 
 0.8780     6.4780     0.1371                                     3083100200176 
 0.8790     6.5634     0.1380                                     3083100200177 
 0.8800     6.7803     0.1384                                     3083100200178 
 0.8811     6.6584     0.1388                                     3083100200179 
 0.8821     6.8616     0.1392                                     3083100200180 
 0.8831     6.6201     0.1382                                     3083100200181 
 0.8841     6.6710     0.1393                                     3083100200182 
 0.8851     6.7946     0.1392                                     3083100200183 
 0.8862     7.0873     0.1397                                     3083100200184 
 0.8872     7.0913     0.1381                                     3083100200185 
 0.8882     6.9455     0.1377                                     3083100200186 
 0.8893     6.9692     0.1367                                     3083100200187 
 0.8903     7.1355     0.1375                                     3083100200188 
 0.8913     6.5859     0.1354                                     3083100200189 
 0.8924     6.6935     0.1357                                     3083100200190 
 0.8934     6.8620     0.1355                                     3083100200191 
 0.8944     7.0122     0.1356                                     3083100200192 
 0.8955     6.9528     0.1346                                     3083100200193 
 0.8965     6.8452     0.1331                                     3083100200194 
 0.8976     7.1630     0.1348                                     3083100200195 
 0.8986     6.8565     0.1340                                     3083100200196 
 0.8997     7.0707     0.1345                                     3083100200197 
 0.9007     7.0317     0.1342                                     3083100200198 
 0.9018     7.0615     0.1342                                     3083100200199 
 0.9028     6.9260     0.1334                                     3083100200200 
 0.9039     6.6726     0.1322                                     3083100200201 
 0.9049     6.7973     0.1321                                     3083100200202 
 0.9060     6.8436     0.1324                                     3083100200203 
 0.9070     6.7743     0.1317                                     3083100200204 
 0.9081     6.6065     0.1317                                     3083100200205 
 0.9092     6.8784     0.1315                                     3083100200206 
 0.9102     6.9156     0.1313                                     3083100200207 
 0.9113     6.8832     0.1315                                     3083100200208 
 0.9124     6.8596     0.1316                                     3083100200209 
 0.9134     6.5355     0.1297                                     3083100200210 
 0.9145     6.7655     0.1308                                     3083100200211 
 0.9156     6.8051     0.1324                                     3083100200212 
 0.9167     7.0817     0.1324                                     3083100200213 
 0.9178     6.9268     0.1300                                     3083100200214 
 0.9188     6.7289     0.1300                                     3083100200215 
 0.9199     7.0580     0.1316                                     3083100200216 
 0.9210     7.2042     0.1321                                     3083100200217 
 0.9221     6.9616     0.1314                                     3083100200218 
 0.9232     7.0221     0.1320                                     3083100200219 
 0.9243     6.8795     0.1310                                     3083100200220 
 0.9254     7.0398     0.1308                                     3083100200221 
 0.9265     6.8600     0.1308                                     3083100200222 
 0.9276     6.7195     0.1304                                     3083100200223 
 0.9287     6.6720     0.1319                                     3083100200224 
 0.9298     6.8033     0.1304                                     3083100200225 
 0.9309     6.7887     0.1305                                     3083100200226 
 0.9320     6.8361     0.1299                                     3083100200227 
 0.9331     6.9998     0.1308                                     3083100200228 
 0.9342     6.8582     0.1292                                     3083100200229 
 0.9353     6.8604     0.1299                                     3083100200230 
 0.9364     7.0994     0.1299                                     3083100200231 
 0.9375     7.1536     0.1290                                     3083100200232 
 0.9386     6.9708     0.1293                                     3083100200233 
 0.9398     6.9912     0.1292                                     3083100200234 
 0.9409     6.9233     0.1281                                     3083100200235 
 0.9420     7.0665     0.1281                                     3083100200236 
 0.9431     7.0695     0.1280                                     3083100200237 
 0.9443     6.9101     0.1267                                     3083100200238 
 0.9454     6.9039     0.1272                                     3083100200239 
 0.9465     6.8248     0.1268                                     3083100200240 
 0.9476     6.8265     0.1264                                     3083100200241 
 0.9488     6.8016     0.1264                                     3083100200242 
 0.9499     6.7436     0.1260                                     3083100200243 
 0.9511     6.7763     0.1260                                     3083100200244 
 0.9522     6.8184     0.1264                                     3083100200245 
 0.9533     7.1109     0.1255                                     3083100200246 
 0.9545     6.9808     0.1256                                     3083100200247 
 0.9556     6.8730     0.1254                                     3083100200248 
 0.9568     6.8950     0.1245                                     3083100200249 
 0.9579     6.9245     0.1245                                     3083100200250 
 0.9591     6.7600     0.1239                                     3083100200251 
 0.9602     6.6930     0.1238                                     3083100200252 
 0.9614     6.7087     0.1237                                     3083100200253 
 0.9626     6.6770     0.1235                                     3083100200254 
 0.9637     6.8326     0.1240                                     3083100200255 
 0.9649     6.7090     0.1238                                     3083100200256 
 0.9661     6.5077     0.1240                                     3083100200257 
 0.9672     6.8935     0.1251                                     3083100200258 
 0.9684     6.8493     0.1244                                     3083100200259 
 0.9696     6.8985     0.1257                                     3083100200260 
 0.9707     6.9124     0.1245                                     3083100200261 
 0.9719     7.2633     0.1247                                     3083100200262 
 0.9731     7.0431     0.1249                                     3083100200263 
 0.9743     7.1074     0.1246                                     3083100200264 
 0.9755     6.6200     0.1244                                     3083100200265 
 0.9767     6.8964     0.1241                                     3083100200266 
 0.9778     6.6491     0.1235                                     3083100200267 
 0.9790     6.8291     0.1242                                     3083100200268 
 0.9802     6.8191     0.1239                                     3083100200269 
 0.9814     6.8434     0.1239                                     3083100200270 
 0.9826     6.8998     0.1240                                     3083100200271 
 0.9838     7.1306     0.1240                                     3083100200272 
 0.9850     7.1049     0.1239                                     3083100200273 
 0.9862     6.8448     0.1244                                     3083100200274 
 0.9874     7.4059     0.1239                                     3083100200275 
 0.9886     7.5120     0.1233                                     3083100200276 
 0.9898     6.9903     0.1233                                     3083100200277 
 0.9910     6.7683     0.1227                                     3083100200278 
 0.9923     6.8430     0.1225                                     3083100200279 
 0.9935     6.8706     0.1227                                     3083100200280 
 0.9947     6.4194     0.1230                                     3083100200281 
 0.9959     6.2970     0.1229                                     3083100200282 
 0.9971     6.9889     0.1223                                     3083100200283 
 0.9984     6.8274     0.1216                                     3083100200284 
 0.9996     6.7446     0.1229                                     3083100200285 
 1.0008     6.9674     0.1231                                     3083100200286 
 1.0021     7.2342     0.1220                                     3083100200287 
 1.0033     7.2588     0.1225                                     3083100200288 
 1.0045     7.2948     0.1218                                     3083100200289 
 1.0058     7.2338     0.1213                                     3083100200290 
 1.0070     7.4202     0.1216                                     3083100200291 
 1.0083     7.0485     0.1211                                     3083100200292 
 1.0095     6.9304     0.1201                                     3083100200293 
 1.0107     6.5960     0.1209                                     3083100200294 
 1.0120     6.2878     0.1195                                     3083100200295 
 1.0132     6.3898     0.1207                                     3083100200296 
 1.0145     6.3329     0.1204                                     3083100200297 
 1.0158     6.4730     0.1205                                     3083100200298 
 1.0170     6.6021     0.1200                                     3083100200299 
 1.0183     6.9295     0.1205                                     3083100200300 
 1.0195     6.9975     0.1209                                     3083100200301 
 1.0208     7.1504     0.1213                                     3083100200302 
 1.0221     7.1535     0.1201                                     3083100200303 
 1.0234     7.2517     0.1206                                     3083100200304 
 1.0246     7.3593     0.1201                                     3083100200305 
 1.0259     7.2913     0.1199                                     3083100200306 
 1.0272     7.1398     0.1191                                     3083100200307 
 1.0285     7.0100     0.1188                                     3083100200308 
 1.0297     6.8713     0.1189                                     3083100200309 
 1.0310     6.6466     0.1180                                     3083100200310 
 1.0323     6.7361     0.1185                                     3083100200311 
 1.0336     6.5780     0.1185                                     3083100200312 
 1.0349     6.4971     0.1184                                     3083100200313 
 1.0362     6.6417     0.1186                                     3083100200314 
 1.0375     6.6754     0.1184                                     3083100200315 
 1.0388     6.8010     0.1190                                     3083100200316 
 1.0401     6.7886     0.1195                                     3083100200317 
 1.0414     6.9624     0.1196                                     3083100200318 
 1.0427     6.8654     0.1194                                     3083100200319 
 1.0440     7.0540     0.1194                                     3083100200320 
 1.0453     6.8461     0.1187                                     3083100200321 
 1.0467     7.0382     0.1192                                     3083100200322 
 1.0480     7.3338     0.1195                                     3083100200323 
 1.0493     7.0753     0.1185                                     3083100200324 
 1.0506     6.9216     0.1191                                     3083100200325 
 1.0519     7.0684     0.1180                                     3083100200326 
 1.0533     6.9468     0.1183                                     3083100200327 
 1.0546     6.9599     0.1184                                     3083100200328 
 1.0559     6.7364     0.1186                                     3083100200329 
 1.0573     6.7161     0.1175                                     3083100200330 
 1.0586     6.8638     0.1170                                     3083100200331 
 1.0599     6.9104     0.1171                                     3083100200332 
 1.0613     7.0167     0.1180                                     3083100200333 
 1.0626     6.9882     0.1175                                     3083100200334 
 1.0640     6.9246     0.1176                                     3083100200335 
 1.0653     7.0380     0.1175                                     3083100200336 
 1.0667     7.1904     0.1175                                     3083100200337 
 1.0680     6.9782     0.1174                                     3083100200338 
 1.0694     6.9958     0.1166                                     3083100200339 
 1.0708     7.0307     0.1171                                     3083100200340 
 1.0721     6.8579     0.1163                                     3083100200341 
 1.0735     7.1342     0.1166                                     3083100200342 
 1.0749     6.7430     0.1157                                     3083100200343 
 1.0762     7.1922     0.1168                                     3083100200344 
 1.0776     6.9674     0.1157                                     3083100200345 
 1.0790     6.7753     0.1153                                     3083100200346 
 1.0804     6.9332     0.1164                                     3083100200347 
 1.0817     6.9258     0.1159                                     3083100200348 
 1.0831     7.0711     0.1167                                     3083100200349 
 1.0845     7.0670     0.1156                                     3083100200350 
 1.0859     7.0080     0.1164                                     3083100200351 
 1.0873     7.1002     0.1152                                     3083100200352 
 1.0887     7.1214     0.1165                                     3083100200353 
 1.0901     7.0247     0.1157                                     3083100200354 
 1.0915     7.0964     0.1156                                     3083100200355 
 1.0929     6.8349     0.1156                                     3083100200356 
 1.0943     6.9528     0.1155                                     3083100200357 
 1.0957     6.9516     0.1158                                     3083100200358 
 1.0971     6.9348     0.1156                                     3083100200359 
 1.0985     7.0681     0.1152                                     3083100200360 
 1.1000     6.9714     0.1156                                     3083100200361 
 1.1014     6.9238     0.1150                                     3083100200362 
 1.1028     7.2077     0.1155                                     3083100200363 
 1.1042     7.2069     0.1159                                     3083100200364 
 1.1056     7.0419     0.1153                                     3083100200365 
 1.1071     7.1781     0.1159                                     3083100200366 
 1.1085     7.0931     0.1155                                     3083100200367 
 1.1099     6.8745     0.1151                                     3083100200368 
 1.1114     7.0338     0.1150                                     3083100200369 
 1.1128     6.8821     0.1150                                     3083100200370 
 1.1143     6.9348     0.1153                                     3083100200371 
 1.1157     6.8330     0.1143                                     3083100200372 
 1.1172     7.0130     0.1144                                     3083100200373 
 1.1186     7.0010     0.1149                                     3083100200374 
 1.1201     6.9619     0.1144                                     3083100200375 
 1.1215     7.3914     0.1148                                     3083100200376 
 1.1230     6.9322     0.1149                                     3083100200377 
 1.1245     7.1546     0.1141                                     3083100200378 
 1.1259     7.0262     0.1132                                     3083100200379 
 1.1274     7.1107     0.1134                                     3083100200380 
 1.1289     7.0446     0.1135                                     3083100200381 
 1.1304     6.9321     0.1130                                     3083100200382 
 1.1318     6.9700     0.1128                                     3083100200383 
 1.1333     7.1788     0.1130                                     3083100200384 
 1.1348     7.1446     0.1133                                     3083100200385 
 1.1363     7.0722     0.1126                                     3083100200386 
 1.1378     7.0844     0.1134                                     3083100200387 
 1.1393     7.0441     0.1128                                     3083100200388 
 1.1408     7.0808     0.1119                                     3083100200389 
 1.1423     6.9913     0.1125                                     3083100200390 
 1.1438     7.0411     0.1114                                     3083100200391 
 1.1453     6.9348     0.1117                                     3083100200392 
 1.1468     7.0205     0.1118                                     3083100200393 
 1.1483     7.1666     0.1123                                     3083100200394 
 1.1498     7.1020     0.1114                                     3083100200395 
 1.1513     6.9393     0.1112                                     3083100200396 
 1.1528     7.1637     0.1115                                     3083100200397 
 1.1544     6.9486     0.1111                                     3083100200398 
 1.1559     7.0900     0.1113                                     3083100200399 
 1.1574     7.0095     0.1116                                     3083100200400 
 1.1589     7.0655     0.1113                                     3083100200401 
 1.1605     6.8318     0.1107                                     3083100200402 
 1.1620     7.0473     0.1107                                     3083100200403 
 1.1636     7.1600     0.1110                                     3083100200404 
 1.1651     7.0086     0.1108                                     3083100200405 
 1.1667     7.1470     0.1109                                     3083100200406 
 1.1682     6.9904     0.1109                                     3083100200407 
 1.1698     7.0591     0.1104                                     3083100200408 
 1.1713     7.0198     0.1106                                     3083100200409 
 1.1729     6.9989     0.1107                                     3083100200410 
 1.1744     7.1464     0.1115                                     3083100200411 
 1.1760     7.2147     0.1108                                     3083100200412 
 1.1776     7.0584     0.1107                                     3083100200413 
 1.1791     7.1572     0.1111                                     3083100200414 
 1.1807     7.3287     0.1109                                     3083100200415 
 1.1823     6.9510     0.1104                                     3083100200416 
 1.1839     6.9360     0.1115                                     3083100200417 
 1.1855     6.7904     0.1113                                     3083100200418 
 1.1871     7.1674     0.1111                                     3083100200419 
 1.1887     7.1795     0.1113                                     3083100200420 
 1.1903     7.1449     0.1117                                     3083100200421 
 1.1919     7.2488     0.1117                                     3083100200422 
 1.1934     7.0818     0.1113                                     3083100200423 
 1.1951     7.0007     0.1118                                     3083100200424 
 1.1967     6.9831     0.1125                                     3083100200425 
 1.1983     6.9928     0.1132                                     3083100200426 
 1.1999     6.8739     0.1126                                     3083100200427 
 1.2015     7.1118     0.1138                                     3083100200428 
 1.8526     7.4451     0.3962                                     3083100200429 
 1.8558     7.4231     0.3938                                     3083100200430 
 1.8590     7.5114     0.3732                                     3083100200431 
 1.8622     7.3217     0.3644                                     3083100200432 
 1.8654     7.0636     0.3469                                     3083100200433 
 1.8686     7.3899     0.3388                                     3083100200434 
 1.8718     7.6422     0.3325                                     3083100200435 
 1.8750     7.2016     0.3198                                     3083100200436 
 1.8782     7.3075     0.3131                                     3083100200437 
 1.8815     7.5986     0.3060                                     3083100200438 
 1.8847     8.1139     0.3083                                     3083100200439 
 1.8880     7.7197     0.3001                                     3083100200440 
 1.8913     7.1763     0.2897                                     3083100200441 
 1.8945     7.1202     0.2842                                     3083100200442 
 1.8978     7.0104     0.2754                                     3083100200443 
 1.9011     7.4825     0.2809                                     3083100200444 
 1.9044     7.1952     0.2748                                     3083100200445 
 1.9077     7.3648     0.2769                                     3083100200446 
 1.9110     7.1817     0.2726                                     3083100200447 
 1.9143     7.4112     0.2710                                     3083100200448 
 1.9177     6.9936     0.2715                                     3083100200449 
 1.9210     7.3888     0.2687                                     3083100200450 
 1.9244     7.0048     0.2688                                     3083100200451 
 1.9277     6.9402     0.2680                                     3083100200452 
 1.9311     7.3502     0.2715                                     3083100200453 
 1.9345     7.3161     0.2701                                     3083100200454 
 1.9378     6.9270     0.2654                                     3083100200455 
 1.9412     7.3390     0.2701                                     3083100200456 
 1.9446     6.9163     0.2677                                     3083100200457 
 1.9481     7.3059     0.2684                                     3083100200458 
 1.9515     7.0527     0.2673                                     3083100200459 
 1.9549     7.3588     0.2712                                     3083100200460 
 1.9583     7.5781     0.2692                                     3083100200461 
 1.9618     7.2620     0.2705                                     3083100200462 
 1.9653     7.1158     0.2702                                     3083100200463 
 1.9687     7.2766     0.2704                                     3083100200464 
 1.9722     7.1556     0.2688                                     3083100200465 
 1.9757     7.3419     0.2673                                     3083100200466 
 1.9792     7.4129     0.2690                                     3083100200467 
 1.9827     7.0718     0.2641                                     3083100200468 
 1.9862     7.1483     0.2678                                     3083100200469 
 1.9897     6.9753     0.2685                                     3083100200470 
 1.9932     6.9973     0.2710                                     3083100200471 
 1.9968     7.2193     0.2707                                     3083100200472 
 2.0003     7.2871     0.2704                                     3083100200473 
 2.0039     6.9346     0.2686                                     3083100200474 
 2.0075     6.9850     0.2705                                     3083100200475 
 2.0110     6.9729     0.2739                                     3083100200476 
 2.0146     6.9949     0.2820                                     3083100200477 
ENDDATA            469          0                                 3083100200478 
ENDSUBENT          477          0                                 3083100299999 
SUBENT        30831003   20131107                             31623083100300001 
BIB                  3          3                                 3083100300002 
REACTION   (83-BI-209(N,TOT),,SIG)                                3083100300003 
STATUS     (TABLE) Corresponding to Fig.5 of J,KPS,59,2233,2011   3083100300004 
HISTORY    (20131107A) On. EN: EV -> MEV                          3083100300005 
ENDBIB               3          0                                 3083100300006 
NOCOMMON             0          0                                 3083100300007 
DATA                 3        500                                 3083100300008 
EN         DATA       ERR-S                                       3083100300009 
MEV        B          B                                           3083100300010 
 0.6825     5.4883     0.2334                                     3083100300011 
 0.6832     5.9877     0.2394                                     3083100300012 
 0.6839     6.1430     0.2380                                     3083100300013 
 0.6846     5.4805     0.2275                                     3083100300014 
 0.6853     5.4244     0.2259                                     3083100300015 
 0.6860     5.4487     0.2248                                     3083100300016 
 0.6867     5.9640     0.2280                                     3083100300017 
 0.6874     5.2913     0.2165                                     3083100300018 
 0.6881     5.3197     0.2234                                     3083100300019 
 0.6888     5.5932     0.2183                                     3083100300020 
 0.6895     5.7297     0.2163                                     3083100300021 
 0.6902     5.3226     0.2156                                     3083100300022 
 0.6909     5.6081     0.2116                                     3083100300023 
 0.6916     5.6477     0.2092                                     3083100300024 
 0.6923     5.1391     0.2041                                     3083100300025 
 0.6930     5.6966     0.2075                                     3083100300026 
 0.6938     5.0089     0.1973                                     3083100300027 
 0.6945     5.1223     0.2006                                     3083100300028 
 0.6952     5.0491     0.1982                                     3083100300029 
 0.6959     5.2503     0.1946                                     3083100300030 
 0.6966     5.7873     0.1982                                     3083100300031 
 0.6973     5.7761     0.1946                                     3083100300032 
 0.6980     5.6140     0.1878                                     3083100300033 
 0.6988     5.6881     0.1840                                     3083100300034 
 0.6995     5.3185     0.1757                                     3083100300035 
 0.7002     5.3844     0.1742                                     3083100300036 
 0.7009     5.2168     0.1745                                     3083100300037 
 0.7016     5.2576     0.1770                                     3083100300038 
 0.7024     5.1775     0.1771                                     3083100300039 
 0.7031     5.6531     0.1782                                     3083100300040 
 0.7038     5.6061     0.1745                                     3083100300041 
 0.7045     5.6367     0.1742                                     3083100300042 
 0.7053     5.5294     0.1710                                     3083100300043 
 0.7060     5.3213     0.1693                                     3083100300044 
 0.7067     5.3229     0.1690                                     3083100300045 
 0.7074     5.3403     0.1668                                     3083100300046 
 0.7082     5.2409     0.1632                                     3083100300047 
 0.7089     5.6703     0.1663                                     3083100300048 
 0.7096     5.3072     0.1628                                     3083100300049 
 0.7104     5.2574     0.1638                                     3083100300050 
 0.7111     5.5640     0.1611                                     3083100300051 
 0.7119     5.5550     0.1621                                     3083100300052 
 0.7126     5.6154     0.1613                                     3083100300053 
 0.7133     5.6723     0.1637                                     3083100300054 
 0.7141     5.6167     0.1623                                     3083100300055 
 0.7148     5.7675     0.1593                                     3083100300056 
 0.7156     5.2260     0.1578                                     3083100300057 
 0.7163     5.2938     0.1575                                     3083100300058 
 0.7171     5.4071     0.1568                                     3083100300059 
 0.7178     5.5220     0.1566                                     3083100300060 
 0.7185     5.3506     0.1551                                     3083100300061 
 0.7193     5.2918     0.1529                                     3083100300062 
 0.7201     5.2306     0.1523                                     3083100300063 
 0.7208     5.1687     0.1527                                     3083100300064 
 0.7216     5.2333     0.1511                                     3083100300065 
 0.7223     5.1998     0.1495                                     3083100300066 
 0.7231     5.2796     0.1473                                     3083100300067 
 0.7238     5.3222     0.1479                                     3083100300068 
 0.7246     5.0339     0.1466                                     3083100300069 
 0.7253     5.1926     0.1457                                     3083100300070 
 0.7261     5.0298     0.1444                                     3083100300071 
 0.7269     5.0490     0.1430                                     3083100300072 
 0.7276     5.1782     0.1421                                     3083100300073 
 0.7284     5.0576     0.1420                                     3083100300074 
 0.7291     5.1686     0.1406                                     3083100300075 
 0.7299     5.5305     0.1433                                     3083100300076 
 0.7307     5.1877     0.1392                                     3083100300077 
 0.7315     5.6560     0.1406                                     3083100300078 
 0.7322     5.2643     0.1395                                     3083100300079 
 0.7330     5.4086     0.1381                                     3083100300080 
 0.7338     5.1695     0.1393                                     3083100300081 
 0.7345     5.5287     0.1395                                     3083100300082 
 0.7353     5.0846     0.1377                                     3083100300083 
 0.7361     5.2348     0.1371                                     3083100300084 
 0.7369     5.1644     0.1391                                     3083100300085 
 0.7376     5.4503     0.1380                                     3083100300086 
 0.7384     5.6516     0.1395                                     3083100300087 
 0.7392     5.4639     0.1380                                     3083100300088 
 0.7400     5.4709     0.1387                                     3083100300089 
 0.7408     5.1157     0.1371                                     3083100300090 
 0.7416     5.5179     0.1380                                     3083100300091 
 0.7423     5.0480     0.1356                                     3083100300092 
 0.7431     5.2231     0.1374                                     3083100300093 
 0.7439     5.2922     0.1372                                     3083100300094 
 0.7447     5.2717     0.1355                                     3083100300095 
 0.7455     5.0372     0.1351                                     3083100300096 
 0.7463     5.0112     0.1351                                     3083100300097 
 0.7471     5.3723     0.1348                                     3083100300098 
 0.7479     5.1509     0.1330                                     3083100300099 
 0.7487     5.2685     0.1358                                     3083100300100 
 0.7495     5.4573     0.1355                                     3083100300101 
 0.7503     5.2060     0.1346                                     3083100300102 
 0.7511     5.3092     0.1338                                     3083100300103 
 0.7519     5.5203     0.1332                                     3083100300104 
 0.7527     5.4315     0.1338                                     3083100300105 
 0.7535     5.4764     0.1346                                     3083100300106 
 0.7543     5.2549     0.1317                                     3083100300107 
 0.7551     5.0844     0.1318                                     3083100300108 
 0.7559     5.4566     0.1338                                     3083100300109 
 0.7567     5.3339     0.1326                                     3083100300110 
 0.7575     5.3096     0.1316                                     3083100300111 
 0.7583     5.3459     0.1324                                     3083100300112 
 0.7591     5.3266     0.1323                                     3083100300113 
 0.7599     5.2968     0.1314                                     3083100300114 
 0.7608     5.3586     0.1307                                     3083100300115 
 0.7616     5.2283     0.1297                                     3083100300116 
 0.7624     5.1116     0.1288                                     3083100300117 
 0.7632     5.2001     0.1301                                     3083100300118 
 0.7640     5.1614     0.1298                                     3083100300119 
 0.7649     5.0357     0.1285                                     3083100300120 
 0.7657     5.1128     0.1293                                     3083100300121 
 0.7665     5.0645     0.1279                                     3083100300122 
 0.7673     4.8815     0.1275                                     3083100300123 
 0.7682     4.9482     0.1275                                     3083100300124 
 0.7690     5.0628     0.1275                                     3083100300125 
 0.7698     5.0759     0.1267                                     3083100300126 
 0.7706     4.9805     0.1265                                     3083100300127 
 0.7715     5.1338     0.1269                                     3083100300128 
 0.7723     4.9921     0.1254                                     3083100300129 
 0.7731     5.0044     0.1257                                     3083100300130 
 0.7740     5.2477     0.1257                                     3083100300131 
 0.7748     4.9998     0.1256                                     3083100300132 
 0.7757     4.8731     0.1241                                     3083100300133 
 0.7765     4.9783     0.1250                                     3083100300134 
 0.7773     5.4381     0.1244                                     3083100300135 
 0.7782     5.2644     0.1242                                     3083100300136 
 0.7790     5.2387     0.1246                                     3083100300137 
 0.7799     5.2947     0.1243                                     3083100300138 
 0.7807     5.1732     0.1232                                     3083100300139 
 0.7816     5.0891     0.1223                                     3083100300140 
 0.7824     5.0429     0.1229                                     3083100300141 
 0.7833     5.1473     0.1224                                     3083100300142 
 0.7841     5.0273     0.1225                                     3083100300143 
 0.7850     5.1299     0.1229                                     3083100300144 
 0.7858     5.1387     0.1227                                     3083100300145 
 0.7867     4.9826     0.1230                                     3083100300146 
 0.7876     5.0768     0.1220                                     3083100300147 
 0.7884     5.0806     0.1222                                     3083100300148 
 0.7893     4.9944     0.1220                                     3083100300149 
 0.7901     4.7688     0.1206                                     3083100300150 
 0.7910     5.1935     0.1225                                     3083100300151 
 0.7919     4.8787     0.1212                                     3083100300152 
 0.7927     4.7906     0.1211                                     3083100300153 
 0.7936     4.9719     0.1210                                     3083100300154 
 0.7945     5.0784     0.1208                                     3083100300155 
 0.7953     4.8419     0.1196                                     3083100300156 
 0.7962     4.7511     0.1200                                     3083100300157 
 0.7971     4.9462     0.1203                                     3083100300158 
 0.7980     4.8097     0.1190                                     3083100300159 
 0.7988     4.9830     0.1201                                     3083100300160 
 0.7997     5.0551     0.1187                                     3083100300161 
 0.8006     4.8133     0.1190                                     3083100300162 
 0.8015     4.8233     0.1175                                     3083100300163 
 0.8024     5.1105     0.1204                                     3083100300164 
 0.8033     5.1261     0.1188                                     3083100300165 
 0.8041     5.0155     0.1187                                     3083100300166 
 0.8050     4.8330     0.1181                                     3083100300167 
 0.8059     5.0058     0.1181                                     3083100300168 
 0.8068     4.9500     0.1179                                     3083100300169 
 0.8077     5.1132     0.1183                                     3083100300170 
 0.8086     4.9995     0.1172                                     3083100300171 
 0.8095     5.0077     0.1174                                     3083100300172 
 0.8104     5.1374     0.1183                                     3083100300173 
 0.8113     5.1189     0.1181                                     3083100300174 
 0.8122     5.0117     0.1166                                     3083100300175 
 0.8131     5.2629     0.1174                                     3083100300176 
 0.8140     4.8838     0.1159                                     3083100300177 
 0.8149     4.9675     0.1167                                     3083100300178 
 0.8158     4.9258     0.1164                                     3083100300179 
 0.8167     4.8643     0.1161                                     3083100300180 
 0.8176     4.9590     0.1157                                     3083100300181 
 0.8185     4.8046     0.1145                                     3083100300182 
 0.8194     4.8881     0.1161                                     3083100300183 
 0.8203     4.8455     0.1147                                     3083100300184 
 0.8212     4.4938     0.1141                                     3083100300185 
 0.8222     4.7649     0.1150                                     3083100300186 
 0.8231     5.2208     0.1165                                     3083100300187 
 0.8240     4.9915     0.1152                                     3083100300188 
 0.8249     5.0182     0.1151                                     3083100300189 
 0.8258     5.1591     0.1143                                     3083100300190 
 0.8268     5.1090     0.1147                                     3083100300191 
 0.8277     5.2903     0.1154                                     3083100300192 
 0.8286     5.0870     0.1142                                     3083100300193 
 0.8295     5.1487     0.1144                                     3083100300194 
 0.8305     4.6182     0.1127                                     3083100300195 
 0.8314     4.8206     0.1124                                     3083100300196 
 0.8323     4.9973     0.1128                                     3083100300197 
 0.8333     4.8110     0.1119                                     3083100300198 
 0.8342     4.7738     0.1122                                     3083100300199 
 0.8351     4.7930     0.1113                                     3083100300200 
 0.8361     4.7880     0.1117                                     3083100300201 
 0.8370     4.8479     0.1122                                     3083100300202 
 0.8380     4.6802     0.1120                                     3083100300203 
 0.8389     4.8296     0.1120                                     3083100300204 
 0.8399     4.7932     0.1109                                     3083100300205 
 0.8408     4.8376     0.1116                                     3083100300206 
 0.8418     4.7589     0.1114                                     3083100300207 
 0.8427     4.9850     0.1116                                     3083100300208 
 0.8437     4.5932     0.1110                                     3083100300209 
 0.8446     4.6983     0.1117                                     3083100300210 
 0.8456     4.8395     0.1117                                     3083100300211 
 0.8465     4.9455     0.1119                                     3083100300212 
 0.8475     4.9384     0.1121                                     3083100300213 
 0.8484     5.0493     0.1124                                     3083100300214 
 0.8494     5.1298     0.1129                                     3083100300215 
 0.8504     4.9823     0.1115                                     3083100300216 
 0.8513     5.0689     0.1124                                     3083100300217 
 0.8523     5.2627     0.1119                                     3083100300218 
 0.8533     5.2419     0.1118                                     3083100300219 
 0.8542     5.1332     0.1114                                     3083100300220 
 0.8552     5.0333     0.1107                                     3083100300221 
 0.8562     5.1395     0.1112                                     3083100300222 
 0.8572     5.0320     0.1102                                     3083100300223 
 0.8581     5.0413     0.1094                                     3083100300224 
 0.8591     5.2175     0.1102                                     3083100300225 
 0.8601     5.0794     0.1099                                     3083100300226 
 0.8611     5.1432     0.1086                                     3083100300227 
 0.8621     5.0501     0.1087                                     3083100300228 
 0.8630     5.1704     0.1078                                     3083100300229 
 0.8640     5.0747     0.1069                                     3083100300230 
 0.8650     4.8818     0.1076                                     3083100300231 
 0.8660     4.8625     0.1066                                     3083100300232 
 0.8670     4.8826     0.1059                                     3083100300233 
 0.8680     5.0673     0.1064                                     3083100300234 
 0.8690     5.0258     0.1061                                     3083100300235 
 0.8700     4.9362     0.1055                                     3083100300236 
 0.8710     4.9261     0.1055                                     3083100300237 
 0.8720     4.7270     0.1059                                     3083100300238 
 0.8730     5.0196     0.1063                                     3083100300239 
 0.8740     4.9010     0.1057                                     3083100300240 
 0.8750     5.0090     0.1061                                     3083100300241 
 0.8760     4.9367     0.1053                                     3083100300242 
 0.8770     5.1165     0.1074                                     3083100300243 
 0.8780     5.1512     0.1059                                     3083100300244 
 0.8790     5.1117     0.1061                                     3083100300245 
 0.8800     4.9488     0.1059                                     3083100300246 
 0.8811     4.8375     0.1072                                     3083100300247 
 0.8821     4.9117     0.1064                                     3083100300248 
 0.8831     5.0073     0.1074                                     3083100300249 
 0.8841     4.8760     0.1075                                     3083100300250 
 0.8851     5.0344     0.1072                                     3083100300251 
 0.8862     4.9973     0.1079                                     3083100300252 
 0.8872     5.2317     0.1070                                     3083100300253 
 0.8882     5.0186     0.1061                                     3083100300254 
 0.8893     4.8951     0.1056                                     3083100300255 
 0.8903     4.8337     0.1044                                     3083100300256 
 0.8913     5.0162     0.1050                                     3083100300257 
 0.8924     5.0044     0.1048                                     3083100300258 
 0.8934     5.1002     0.1056                                     3083100300259 
 0.8944     4.8397     0.1043                                     3083100300260 
 0.8955     4.7828     0.1045                                     3083100300261 
 0.8965     5.1362     0.1050                                     3083100300262 
 0.8976     4.9646     0.1034                                     3083100300263 
 0.8986     4.9395     0.1030                                     3083100300264 
 0.8997     4.9516     0.1028                                     3083100300265 
 0.9007     5.0508     0.1028                                     3083100300266 
 0.9018     4.9348     0.1023                                     3083100300267 
 0.9028     4.8927     0.1012                                     3083100300268 
 0.9039     4.8703     0.1014                                     3083100300269 
 0.9049     5.0292     0.1012                                     3083100300270 
 0.9060     4.9577     0.1016                                     3083100300271 
 0.9070     5.0604     0.1014                                     3083100300272 
 0.9081     4.9569     0.1012                                     3083100300273 
 0.9092     5.0153     0.1018                                     3083100300274 
 0.9102     4.9197     0.1016                                     3083100300275 
 0.9113     5.1926     0.1022                                     3083100300276 
 0.9124     5.0229     0.1015                                     3083100300277 
 0.9134     4.9544     0.1005                                     3083100300278 
 0.9145     5.2659     0.1017                                     3083100300279 
 0.9156     5.2506     0.1018                                     3083100300280 
 0.9167     5.0482     0.1019                                     3083100300281 
 0.9178     5.1653     0.1019                                     3083100300282 
 0.9188     4.9202     0.1010                                     3083100300283 
 0.9199     5.1296     0.1018                                     3083100300284 
 0.9210     5.0035     0.1017                                     3083100300285 
 0.9221     4.9111     0.1015                                     3083100300286 
 0.9232     4.8841     0.1013                                     3083100300287 
 0.9243     4.8712     0.1005                                     3083100300288 
 0.9254     4.9590     0.1011                                     3083100300289 
 0.9265     5.0147     0.1003                                     3083100300290 
 0.9276     4.8706     0.1002                                     3083100300291 
 0.9287     5.0371     0.1009                                     3083100300292 
 0.9298     4.7343     0.0991                                     3083100300293 
 0.9309     4.8629     0.1002                                     3083100300294 
 0.9320     4.9990     0.0994                                     3083100300295 
 0.9331     4.7837     0.0998                                     3083100300296 
 0.9342     4.6663     0.0994                                     3083100300297 
 0.9353     4.9651     0.0997                                     3083100300298 
 0.9364     4.9536     0.0990                                     3083100300299 
 0.9375     4.8035     0.0992                                     3083100300300 
 0.9386     4.9241     0.0996                                     3083100300301 
 0.9398     5.0305     0.0992                                     3083100300302 
 0.9409     4.9201     0.0987                                     3083100300303 
 0.9420     5.0954     0.0992                                     3083100300304 
 0.9431     5.1857     0.0982                                     3083100300305 
 0.9443     4.8977     0.0979                                     3083100300306 
 0.9454     4.9085     0.0977                                     3083100300307 
 0.9465     5.0300     0.0972                                     3083100300308 
 0.9476     4.8569     0.0960                                     3083100300309 
 0.9488     4.6419     0.0959                                     3083100300310 
 0.9499     4.7555     0.0960                                     3083100300311 
 0.9511     4.8056     0.0955                                     3083100300312 
 0.9522     4.8453     0.0962                                     3083100300313 
 0.9533     4.8158     0.0956                                     3083100300314 
 0.9545     4.8070     0.0955                                     3083100300315 
 0.9556     4.9763     0.0953                                     3083100300316 
 0.9568     4.9888     0.0960                                     3083100300317 
 0.9579     4.9906     0.0963                                     3083100300318 
 0.9591     4.8832     0.0953                                     3083100300319 
 0.9602     5.0593     0.0954                                     3083100300320 
 0.9614     5.0655     0.0959                                     3083100300321 
 0.9626     5.0264     0.0950                                     3083100300322 
 0.9637     4.8314     0.0950                                     3083100300323 
 0.9649     4.9175     0.0951                                     3083100300324 
 0.9661     4.8643     0.0950                                     3083100300325 
 0.9672     4.8520     0.0950                                     3083100300326 
 0.9684     4.9038     0.0956                                     3083100300327 
 0.9696     4.8746     0.0959                                     3083100300328 
 0.9707     4.9364     0.0955                                     3083100300329 
 0.9719     4.8862     0.0959                                     3083100300330 
 0.9731     5.1492     0.0962                                     3083100300331 
 0.9743     5.1371     0.0961                                     3083100300332 
 0.9755     5.0218     0.0956                                     3083100300333 
 0.9767     5.0217     0.0957                                     3083100300334 
 0.9778     5.0473     0.0948                                     3083100300335 
 0.9790     5.1555     0.0948                                     3083100300336 
 0.9802     5.1105     0.0958                                     3083100300337 
 0.9814     5.2260     0.0955                                     3083100300338 
 0.9826     5.1582     0.0960                                     3083100300339 
 0.9838     5.1147     0.0961                                     3083100300340 
 0.9850     5.1210     0.0959                                     3083100300341 
 0.9862     5.3437     0.0963                                     3083100300342 
 0.9874     4.9957     0.0950                                     3083100300343 
 0.9886     5.0923     0.0949                                     3083100300344 
 0.9898     5.3429     0.0950                                     3083100300345 
 0.9910     4.9570     0.0936                                     3083100300346 
 0.9923     4.9680     0.0943                                     3083100300347 
 0.9935     5.0867     0.0940                                     3083100300348 
 0.9947     5.0908     0.0933                                     3083100300349 
 0.9959     4.8473     0.0930                                     3083100300350 
 0.9971     4.9547     0.0945                                     3083100300351 
 0.9984     5.3973     0.0949                                     3083100300352 
 0.9996     4.8590     0.0931                                     3083100300353 
 1.0008     4.5727     0.0936                                     3083100300354 
 1.0021     4.9977     0.0951                                     3083100300355 
 1.0033     5.3334     0.0953                                     3083100300356 
 1.0045     5.0303     0.0932                                     3083100300357 
 1.0058     4.7676     0.0924                                     3083100300358 
 1.0070     5.0445     0.0939                                     3083100300359 
 1.0083     5.1742     0.0924                                     3083100300360 
 1.0095     4.9974     0.0916                                     3083100300361 
 1.0107     4.9044     0.0914                                     3083100300362 
 1.0120     4.9896     0.0912                                     3083100300363 
 1.0132     5.1189     0.0914                                     3083100300364 
 1.0145     4.9793     0.0915                                     3083100300365 
 1.0158     4.8110     0.0915                                     3083100300366 
 1.0170     4.9060     0.0922                                     3083100300367 
 1.0183     4.9026     0.0922                                     3083100300368 
 1.0195     5.0314     0.0934                                     3083100300369 
 1.0208     5.0782     0.0939                                     3083100300370 
 1.0221     5.1920     0.0939                                     3083100300371 
 1.0234     5.3123     0.0937                                     3083100300372 
 1.0246     5.3725     0.0937                                     3083100300373 
 1.0259     5.0262     0.0924                                     3083100300374 
 1.0272     5.2302     0.0928                                     3083100300375 
 1.0285     5.0845     0.0919                                     3083100300376 
 1.0297     5.2702     0.0916                                     3083100300377 
 1.0310     5.0812     0.0907                                     3083100300378 
 1.0323     5.1506     0.0900                                     3083100300379 
 1.0336     4.8636     0.0898                                     3083100300380 
 1.0349     4.9112     0.0910                                     3083100300381 
 1.0362     4.7741     0.0899                                     3083100300382 
 1.0375     4.7834     0.0907                                     3083100300383 
 1.0388     4.8525     0.0909                                     3083100300384 
 1.0401     4.8380     0.0911                                     3083100300385 
 1.0414     4.8309     0.0901                                     3083100300386 
 1.0427     4.7422     0.0906                                     3083100300387 
 1.0440     4.9060     0.0913                                     3083100300388 
 1.0453     4.9481     0.0907                                     3083100300389 
 1.0467     4.9184     0.0909                                     3083100300390 
 1.0480     5.0228     0.0911                                     3083100300391 
 1.0493     4.9935     0.0908                                     3083100300392 
 1.0506     4.9378     0.0899                                     3083100300393 
 1.0519     4.8788     0.0904                                     3083100300394 
 1.0533     5.0629     0.0912                                     3083100300395 
 1.0546     5.0468     0.0905                                     3083100300396 
 1.0559     4.9757     0.0909                                     3083100300397 
 1.0573     4.8135     0.0900                                     3083100300398 
 1.0586     5.2014     0.0909                                     3083100300399 
 1.0599     5.0730     0.0903                                     3083100300400 
 1.0613     5.1264     0.0906                                     3083100300401 
 1.0626     5.0695     0.0904                                     3083100300402 
 1.0640     5.0639     0.0904                                     3083100300403 
 1.0653     5.1273     0.0900                                     3083100300404 
 1.0667     5.1499     0.0898                                     3083100300405 
 1.0680     5.1091     0.0898                                     3083100300406 
 1.0694     4.8908     0.0887                                     3083100300407 
 1.0708     5.0507     0.0889                                     3083100300408 
 1.0721     4.9046     0.0887                                     3083100300409 
 1.0735     4.9335     0.0888                                     3083100300410 
 1.0749     4.8808     0.0886                                     3083100300411 
 1.0762     4.9074     0.0887                                     3083100300412 
 1.0776     5.0113     0.0885                                     3083100300413 
 1.0790     5.0954     0.0891                                     3083100300414 
 1.0804     4.8070     0.0886                                     3083100300415 
 1.0817     5.0566     0.0887                                     3083100300416 
 1.0831     4.9954     0.0888                                     3083100300417 
 1.0845     4.8285     0.0885                                     3083100300418 
 1.0859     4.9275     0.0882                                     3083100300419 
 1.0873     4.7794     0.0878                                     3083100300420 
 1.0887     4.8509     0.0882                                     3083100300421 
 1.0901     4.7648     0.0878                                     3083100300422 
 1.0915     4.6909     0.0874                                     3083100300423 
 1.0929     4.8003     0.0880                                     3083100300424 
 1.0943     4.8249     0.0878                                     3083100300425 
 1.0957     4.7826     0.0882                                     3083100300426 
 1.0971     4.8898     0.0875                                     3083100300427 
 1.0985     5.0187     0.0878                                     3083100300428 
 1.1000     4.9251     0.0876                                     3083100300429 
 1.1014     4.9410     0.0878                                     3083100300430 
 1.1028     5.1488     0.0884                                     3083100300431 
 1.1042     5.0224     0.0878                                     3083100300432 
 1.1056     4.8364     0.0877                                     3083100300433 
 1.1071     4.9938     0.0883                                     3083100300434 
 1.1085     5.0331     0.0881                                     3083100300435 
 1.1099     5.0111     0.0880                                     3083100300436 
 1.1114     5.0036     0.0883                                     3083100300437 
 1.1128     5.0762     0.0885                                     3083100300438 
 1.1143     5.1474     0.0879                                     3083100300439 
 1.1157     4.9935     0.0875                                     3083100300440 
 1.1172     4.9121     0.0872                                     3083100300441 
 1.1186     4.9901     0.0874                                     3083100300442 
 1.1201     4.9426     0.0874                                     3083100300443 
 1.1215     4.9389     0.0873                                     3083100300444 
 1.1230     5.0164     0.0872                                     3083100300445 
 1.1245     4.8613     0.0868                                     3083100300446 
 1.1259     5.0674     0.0871                                     3083100300447 
 1.1274     4.9588     0.0866                                     3083100300448 
 1.1289     5.1648     0.0868                                     3083100300449 
 1.1304     4.9873     0.0861                                     3083100300450 
 1.1318     5.0421     0.0862                                     3083100300451 
 1.1333     5.0402     0.0860                                     3083100300452 
 1.1348     5.0061     0.0863                                     3083100300453 
 1.1363     5.0689     0.0867                                     3083100300454 
 1.1378     4.9266     0.0860                                     3083100300455 
 1.1393     4.8751     0.0857                                     3083100300456 
 1.1408     4.9678     0.0854                                     3083100300457 
 1.1423     4.9659     0.0856                                     3083100300458 
 1.1438     4.9633     0.0856                                     3083100300459 
 1.1453     4.8896     0.0851                                     3083100300460 
 1.1468     4.9921     0.0852                                     3083100300461 
 1.1483     5.0411     0.0848                                     3083100300462 
 1.1498     5.0086     0.0853                                     3083100300463 
 1.1513     5.0152     0.0847                                     3083100300464 
 1.1528     4.8468     0.0847                                     3083100300465 
 1.1544     4.9030     0.0843                                     3083100300466 
 1.1559     4.8688     0.0848                                     3083100300467 
 1.1574     5.0101     0.0847                                     3083100300468 
 1.1589     5.0483     0.0847                                     3083100300469 
 1.1605     5.0002     0.0849                                     3083100300470 
 1.1620     5.0226     0.0845                                     3083100300471 
 1.1636     5.1787     0.0851                                     3083100300472 
 1.1651     4.9934     0.0850                                     3083100300473 
 1.1667     5.0995     0.0853                                     3083100300474 
 1.1682     5.0266     0.0851                                     3083100300475 
 1.1698     5.1301     0.0849                                     3083100300476 
 1.1713     5.1874     0.0849                                     3083100300477 
 1.1729     4.9851     0.0846                                     3083100300478 
 1.1744     5.1309     0.0849                                     3083100300479 
 1.1760     5.1250     0.0850                                     3083100300480 
 1.1776     5.1095     0.0846                                     3083100300481 
 1.1791     5.1359     0.0853                                     3083100300482 
 1.1807     5.1026     0.0846                                     3083100300483 
 1.1823     5.0452     0.0854                                     3083100300484 
 1.1839     5.1439     0.0852                                     3083100300485 
 1.1855     4.9767     0.0847                                     3083100300486 
 1.1871     5.1936     0.0853                                     3083100300487 
 1.1887     5.1147     0.0850                                     3083100300488 
 1.1903     5.1588     0.0856                                     3083100300489 
 1.1919     4.9842     0.0850                                     3083100300490 
 1.1934     5.0198     0.0848                                     3083100300491 
 1.1951     5.0774     0.0855                                     3083100300492 
 1.1967     5.0990     0.0860                                     3083100300493 
 1.1983     5.0853     0.0858                                     3083100300494 
 1.1999     5.1253     0.0862                                     3083100300495 
 1.2015     4.9801     0.0865                                     3083100300496 
 1.2031     5.1625     0.0875                                     3083100300497 
 1.2048     5.0708     0.0877                                     3083100300498 
 1.2064     5.0990     0.0887                                     3083100300499 
 1.2080     5.0765     0.0886                                     3083100300500 
 1.2096     5.1326     0.0893                                     3083100300501 
 1.2113     4.9957     0.0903                                     3083100300502 
 1.2129     5.2256     0.0917                                     3083100300503 
 1.2146     5.2135     0.0925                                     3083100300504 
 1.2162     5.2780     0.0946                                     3083100300505 
 1.2179     5.5106     0.0961                                     3083100300506 
 1.2195     5.3361     0.0979                                     3083100300507 
 1.2212     5.4093     0.1026                                     3083100300508 
 1.2228     5.3048     0.1060                                     3083100300509 
 1.2245     5.1945     0.1112                                     3083100300510 
ENDDATA            502          0                                 3083100300511 
ENDSUBENT          510          0                                 3083100399999 
ENDENTRY             3          0                                 3083199999999 
