ENTRY            31550   20131107                             31623155000000001 
SUBENT        31550001   20131107                             31623155000100001 
BIB                 14         53                                 3155000100002 
TITLE       Measurement of total cross sections at Pohang         3155000100003 
             Neutron Facility                                     3155000100004 
AUTHOR     (G.Kim, A.K.M.M.H.Meaze, H.Ahmed, D.Son, Y.S.Lee,      3155000100005 
            H.Kang, M.H.Cho, I.S.Ko, W.Namkung, T.Ik.Ro,          3155000100006 
            W.C.Chung, Y.A.Kim, K.J.Yoo, J.H.Chang)               3155000100007 
INSTITUTE  (3KORKNU,3KORPUE,3KORDAU,3KORKAE)                      3155000100008 
REFERENCE  (C,2004SANTA,740,2004)      Data for Hf, Ag, Ta        3155000100009 
           (C,2006MANGAL,,(IT17),2006) Data for Hf, Ag, Ta, Mo    3155000100010 
           (J,NSTS,4,388,2004)         Data for Ag, Sm            3155000100011 
REL-REF    (N,31603001,T.F.Wang+,J,NIM/B,266,561,2008)     Mo data3155000100012 
           (N,31679001,G.N.Kim+,J,NSTS,4,388,2004)         Sm data3155000100013 
           (N,31689001,A.K.M.M.H.Meaze+,J,KPS,46,401,2005) Hf data3155000100014 
FACILITY   (LINAC,3KORPUE) The Pohang Neutron Facility            3155000100015 
INC-SOURCE (PHOTO)  The target was composed, of 10 Ta plates with 3155000100016 
            a diameter of 4.9 cm and an effective thickness of    3155000100017 
            7.4 cm.                                               3155000100018 
           There was a 0.15 cm water gap between Ta plates in     3155000100019 
            order to cool the target effectively.                 3155000100020 
           The housing of the target was made of titanium.        3155000100021 
           This target was set at the center of a cylindrical     3155000100022 
            water moderator contained in an aluminum cylinder     3155000100023 
            with thickness of 0.5 cm, a diameter of 30 cm and     3155000100024 
            height of 30 cm.                                      3155000100025 
METHOD     (TOF,TRN) The measurements were performed with two     3155000100026 
            samples simultaneously.                               3155000100027 
           The two other positions of the sample changer were     3155000100028 
            empty to collect the neutron TOF spectra without a    3155000100029 
            sample (open beam).                                   3155000100030 
           TOF path was 11m.                                      3155000100031 
SAMPLE     A set of notch filters of Co, In, and Cd plates with   3155000100032 
            thickness of 0.5 mm, 0.2 mm, and 0.5 mm, respectively,3155000100033 
            was also used for the background measurement and the  3155000100034 
            energy calibration.                                   3155000100035 
DETECTOR   (SCIN) A 6Li-ZnS(Ag) scintillator BC702 with a diam.   3155000100036 
            of 127 mm and a thickness of 15.9 mm mounted on an    3155000100037 
            EMI-93090 photomultiplier, was used as a detector for 3155000100038 
            the neutron TOF spectrum measurement                  3155000100039 
ANALYSIS   (RFN) SAMMY code (Reich-Moore approximation in the     3155000100040 
            application of R-matrix formalism) was used to fit    3155000100041 
            the transmission data.                                3155000100042 
ERR-ANALYS (ERR-S) Only considered the statistical errors for the 3155000100043 
            measurements because the other sources of             3155000100044 
            uncertainties which include the detection             3155000100045 
            efficiencies,the geometric factor for the sample, and 3155000100046 
            the other systematic errors, are negligible.          3155000100047 
STATUS     (APRVD) Entry approved by Dr.Guinyun Kim               3155000100048 
HISTORY    (20050730C) SD                                         3155000100049 
           (20090311A) On. One reference (2006MANGAL) added.      3155000100050 
                           Update of numerical data not needed.   3155000100051 
                           (according to e-mail from Guinyun Kim) 3155000100052 
           (20091216A) S.C.Yang. 005, 006: RP of 107, 109Ag added 3155000100053 
           (20100525A) On. 003 updated                            3155000100054 
           (20131107U) On. Formal correction only                 3155000100055 
ENDBIB              53          0                                 3155000100056 
NOCOMMON             0          0                                 3155000100057 
ENDSUBENT           56          0                                 3155000199999 
SUBENT        31550002   20091216                             31433155000200001 
BIB                  5          9                                 3155000200002 
REACTION   (47-AG-0(N,TOT),,SIG)                                  3155000200003 
REFERENCE  ((S,ISINN-11,173,2004)=(S,JINR-E3-2004-9,173,2004))    3155000200004 
                   preliminary results                            3155000200005 
           ((S,ISINN-12,76,2004)=(S,JINR-E3-2004-169,76,2004))    3155000200006 
            same results as in main publ.: 2004SANTA,740,2004     3155000200007 
SAMPLE      Ag was of 99.98% purity, 10x10 cm2 size, 0.5 mm thick,3155000200008 
            53.04 g weight.                                       3155000200009 
STATUS     (TABLE) Data are recieved from Dr. Guinyun Kim         3155000200010 
HISTORY    (20091216A) S.C.Yang. ERR-ANALYS moved from 001.       3155000200011 
ENDBIB               9          0                                 3155000200012 
NOCOMMON             0          0                                 3155000200013 
DATA                 3        138                                 3155000200014 
EN         DATA       ERR-S                                       3155000200015 
EV         B          B                                           3155000200016 
 0.1529     31.04508    1.46358                                   3155000200017 
 0.1697     30.31575    1.41553                                   3155000200018 
 0.1898     28.81263    1.63209                                   3155000200019 
 0.2098     28.51695    1.82659                                   3155000200020 
 0.2298     28.3934     1.98128                                   3155000200021 
 0.2498     25.50195    2.13898                                   3155000200022 
 0.2698     24.79151    2.27158                                   3155000200023 
 0.2898     26.49165    2.35806                                   3155000200024 
 0.3099     23.4909     2.49964                                   3155000200025 
 0.3299     24.77032    2.56936                                   3155000200026 
 0.3499     24.09368    2.68872                                   3155000200027 
 0.3698     24.39213    2.77533                                   3155000200028 
 0.4041     23.27204    1.84232                                   3155000200029 
 0.4636     22.38892    1.70455                                   3155000200030 
 0.5291     21.58531    2.01555                                   3155000200031 
 0.5891     20.55637    2.18361                                   3155000200032 
 0.6492     19.9648     2.31755                                   3155000200033 
 0.7046     17.83531    2.69876                                   3155000200034 
 0.7643     18.33009    2.39818                                   3155000200035 
 0.8488     19.14119    2.1371                                    3155000200036 
 0.9488     19.80214    2.30039                                   3155000200037 
 1.0489     19.45725    2.44862                                   3155000200038 
 1.1489     17.27556    2.62869                                   3155000200039 
 1.2487     18.04       2.75367                                   3155000200040 
 1.349      15.66193    2.91063                                   3155000200041 
 1.4495     18.2645     3.01742                                   3155000200042 
 1.5736     19.07907    2.60608                                   3155000200043 
 1.7236     16.65496    2.7689                                    3155000200044 
 1.9443     18.04748    2.11864                                   3155000200045 
 2.1493     20.75823    3.85153                                   3155000200046 
 2.2539     20.51181    3.8454                                    3155000200047 
 2.4071     19.02587    2.952                                     3155000200048 
 2.5616     20.20091    4.23667                                   3155000200049 
 2.71       24.85095    3.18855                                   3155000200050 
 2.9024     27.41154    3.35179                                   3155000200051 
 3.2396     32.68872    2.19331                                   3155000200052 
 3.307      35.07443    4.7548                                    3155000200053 
 3.4298     37.3627     4.27812                                   3155000200054 
 3.6256     49.08511    3.17744                                   3155000200055 
 3.8321     58.42888    4.15351                                   3155000200056 
 4.0323     79.56329    3.22916                                   3155000200057 
 4.2361     112.5622    3.94424                                   3155000200058 
 4.385      156.9549    3.85903                                   3155000200059 
 4.511      205.4347    4.05468                                   3155000200060 
 4.6107     285.9176    3.91443                                   3155000200061 
 4.6812     354.4607    4.55638                                   3155000200062 
 4.7335     444.5684    3.83735                                   3155000200063 
 4.7934     564.8216    2.7911                                    3155000200064 
 4.8613     770.0387    2.49858                                   3155000200065 
 4.9167     1042.062    1.67872                                   3155000200066 
 4.973      1470.72     0.71956                                   3155000200067 
 5.0593     1666.376    0.66913                                   3155000200068 
 5.133      1679.043    0.65128                                   3155000200069 
 5.1855     1529.308    0.71906                                   3155000200070 
 5.2698     1356.904    0.6788                                    3155000200071 
 5.3961     1090.47     0.91078                                   3155000200072 
 5.5017     710.5992    2.10204                                   3155000200073 
 5.6024     525.8527    2.35386                                   3155000200074 
 5.7319     308.3842    3.65959                                   3155000200075 
 5.857      210.2351    4.40262                                   3155000200076 
 5.9673     152.9528    5.82774                                   3155000200077 
 6.0907     117.6956    4.93118                                   3155000200078 
 6.2276     87.91753    6.1033                                    3155000200079 
 6.3385     72.6999     6.86522                                   3155000200080 
 6.442      64.96946    6.9033                                    3155000200081 
 6.5804     55.62676    5.5629                                    3155000200082 
 6.8024     40.43492    4.6592                                    3155000200083 
 7.1512     27.992      5.025                                     3155000200084 
 7.4596     27.66936    5.79067                                   3155000200085 
 7.6455     23.03117    6.75517                                   3155000200086 
 7.8672     17.34487    5.29688                                   3155000200087 
 8.249      16.53058    4.15941                                   3155000200088 
 8.7906     11.51389    3.94801                                   3155000200089 
 9.2209     10.06004    6.32167                                   3155000200090 
 9.669      8.67343     4.0387                                    3155000200091 
 10.4905    9.27643     3.42967                                   3155000200092 
 11.4911    8.58372     3.64242                                   3155000200093 
 12.5001    6.73363     3.82109                                   3155000200094 
 13.4874    7.12096     4.15307                                   3155000200095 
 14.4919    11.11194    4.08548                                   3155000200096 
 15.2589    24.57672    6.2238                                    3155000200097 
 15.7274    56.19542    5.77461                                   3155000200098 
 16.051     115.0381    8.83749                                   3155000200099 
 16.217     237.1677    7.28779                                   3155000200100 
 16.4283    321.6611    4.8099                                    3155000200101 
 16.6434    208.6725    7.30245                                   3155000200102 
 16.8631    64.09522    8.06759                                   3155000200103 
 17.1323    28.40466    8.59358                                   3155000200104 
 17.4081    17.42129    8.79119                                   3155000200105 
 17.7867    14.39192    6.8256                                    3155000200106 
 18.5324    10.8673     4.83366                                   3155000200107 
 19.5419    7.67485     5.10603                                   3155000200108 
 21.2409    5.80706     3.812                                     3155000200109 
 23.9312    7.14487     4.14753                                   3155000200110 
 25.9202    5.53643     4.3004                                    3155000200111 
 27.9774    12.47153    4.38118                                   3155000200112 
 29.97      87.89339    4.18374                                   3155000200113 
 31.0412    109.9607    11.68336                                  3155000200114 
 31.2638    50.50411    13.19883                                  3155000200115 
 32.184     11.10731    5.4227                                    3155000200116 
 34.014     6.51926     5.07776                                   3155000200117 
 36.0008    13.64372    5.33077                                   3155000200118 
 38.0185    16.34648    5.24781                                   3155000200119 
 39.559     44.05342    7.52547                                   3155000200120 
 40.2027    94.18636    11.63432                                  3155000200121 
 40.5312    121.6173    11.58747                                  3155000200122 
 41.2003    75.18111    12.14728                                  3155000200123 
 41.541     85.34166    11.90263                                  3155000200124 
 41.8861    95.40466    11.69329                                  3155000200125 
 42.2354    43.10539    13.06199                                  3155000200126 
 43.131     11.68957    9.25446                                   3155000200127 
 44.4278    13.55206    7.98649                                   3155000200128 
 45.5879    21.31389    7.82836                                   3155000200129 
 47.0011    2.97312     7.02991                                   3155000200130 
 49.364     31.07851    4.95817                                   3155000200131 
 51.1772    106.3146    11.24068                                  3155000200132 
 51.6493    176.243     9.69231                                   3155000200133 
 52.128     143.9464    10.20291                                  3155000200134 
 52.6134    60.41839    12.17324                                  3155000200135 
 53.8613    22.3847     6.63781                                   3155000200136 
 55.1449    47.63051    12.55671                                  3155000200137 
 55.6731    87.48444    11.33599                                  3155000200138 
 56.209     106.5458    10.92425                                  3155000200139 
 56.7526    57.73596    12.1416                                   3155000200140 
 58.4399    7.99927     6.02707                                   3155000200141 
 60.7916    10.86632    4.41562                                   3155000200142 
 62.9761    7.65033     6.67633                                   3155000200143 
 65.2745    12.56709    7.58679                                   3155000200144 
 68.07      17.8676     5.80184                                   3155000200145 
 70.2681    59.0247     11.85488                                  3155000200146 
 71.0286    110.2817    10.51273                                  3155000200147 
 71.8015    92.84963    10.89489                                  3155000200148 
 72.5871    33.74615    12.41337                                  3155000200149 
 75.4609    7.19938     5.35183                                   3155000200150 
 81.7195    8.49091     4.58347                                   3155000200151 
 88.7469    13.79403    1.45473                                   3155000200152 
 94.9333    3.46601     5.76861                                   3155000200153 
 99.8393    6.76613     7.38588                                   3155000200154 
ENDDATA            140          0                                 3155000200155 
ENDSUBENT          154          0                                 3155000299999 
SUBENT        31550003   20100525                             31453155000300001 
BIB                  3          4                                 3155000300002 
REACTION   (72-HF-0(N,TOT),,SIG)                                  3155000300003 
STATUS     (SPSDD,31689002)                                       3155000300004 
HISTORY    (20091216A) S.C.Yang. ERR-ANALYS moved from 001.       3155000300005 
           (20100525D) On. Data moved to 31689.002                3155000300006 
ENDBIB               4          0                                 3155000300007 
NOCOMMON             0          0                                 3155000300008 
NODATA               0          0                                 3155000300009 
ENDSUBENT            8          0                                 3155000399999 
SUBENT        31550004   20131107                             31623155000400001 
BIB                  4          7                                 3155000400002 
REACTION   (73-TA-181(N,TOT),,SIG)                                3155000400003 
SAMPLE     Ta was of 99.9% purity, 10x10 cm2 size, 4. mm thick,   3155000400004 
            37.95 g weight.                                       3155000400005 
STATUS     (TABLE) Data are received from Dr. Guinyun Kim         3155000400006 
           (SPSDD,31575002)                                       3155000400007 
HISTORY    (20091216A) S.C.Yang. ERR-ANALYS moved from 001.       3155000400008 
           (20131107A) On. Superseded (G.N.Kim, 2013-11-07)       3155000400009 
ENDBIB               7          0                                 3155000400010 
NOCOMMON             0          0                                 3155000400011 
DATA                 3         88                                 3155000400012 
EN         DATA       ERR-S                                       3155000400013 
EV         B          B                                           3155000400014 
 0.15589    14.42458    2.14761                                   3155000400015 
 0.17494    14.07839    2.30609                                   3155000400016 
 0.19491    13.78912    2.42345                                   3155000400017 
 0.2449     12.97285    2.51863                                   3155000400018 
 0.34641    12.01031    2.46675                                   3155000400019 
 0.44728    11.93403    2.3761                                    3155000400020 
 0.54775    11.40364    2.32414                                   3155000400021 
 0.64816    11.7155     2.29067                                   3155000400022 
 0.74862    10.39167    2.25434                                   3155000400023 
 0.84895    10.87973    2.21703                                   3155000400024 
 0.94915    10.99836    2.18746                                   3155000400025 
 1.04914    10.66091    2.16425                                   3155000400026 
 1.14866    10.41686    2.14511                                   3155000400027 
 1.29536    10.56884    2.11874                                   3155000400028 
 1.54238    10.49324    2.08116                                   3155000400029 
 1.79727    10.53506    2.04372                                   3155000400030 
 2.08974    10.74771    2.02034                                   3155000400031 
 2.44515    10.96237    1.98992                                   3155000400032 
 2.74564    12.51919    1.98138                                   3155000400033 
 3.04461    16.04221    2.00794                                   3155000400034 
 3.24209    19.90725    2.03312                                   3155000400035 
 3.43898    27.02543    2.12377                                   3155000400036 
 3.66214    35.21423    2.25412                                   3155000400037 
 3.74588    52.0207     2.58523                                   3155000400038 
 3.87299    80.80057    3.99868                                   3155000400039 
 4.05347    151.4255    6.89264                                   3155000400040 
 4.12334    180.231     6.95421                                   3155000400041 
 4.40274    164.502     8.07271                                   3155000400042 
 4.60047    144.5003    6.3603                                    3155000400043 
 4.70001    105.2104    4.21541                                   3155000400044 
 4.84572    81.38548    3.34009                                   3155000400045 
 4.88201    59.21402    2.96521                                   3155000400046 
 5.09536    40.95157    2.25777                                   3155000400047 
 5.29596    29.00834    2.04943                                   3155000400048 
 5.50062    22.8517     1.95984                                   3155000400049 
 5.79644    17.97542    1.86645                                   3155000400050 
 6.29211    12.74296    1.81208                                   3155000400051 
 7.34787    12.18092    1.73786                                   3155000400052 
 8.49591    10.93772    1.7114                                    3155000400053 
 9.49087    15.35378    1.81492                                   3155000400054 
 9.79852    26.21452    1.99854                                   3155000400055 
 10.0001    40.42508    2.5296                                    3155000400056 
 10.12486   98.97989    3.64718                                   3155000400057 
 10.30486   99.97989    3.64718                                   3155000400058 
 10.68905   73.20139    2.81891                                   3155000400059 
 11.02145   30.25414    1.95254                                   3155000400060 
 11.43296   19.67934    1.14251                                   3155000400061 
 12.78331   10.41525    1.65833                                   3155000400062 
 13.42541   19.02142    1.53621                                   3155000400063 
 13.70014   31.231      1.99875                                   3155000400064 
 13.86919   51.94487    2.20797                                   3155000400065 
 14.10244   20.21044    1.56321                                   3155000400066 
 14.64951   13.46765    1.6316                                    3155000400067 
 16.52065   9.21021     1.55758                                   3155000400068 
 18.51817   9.7915      1.24101                                   3155000400069 
 19.21254   13.3254     1.25321                                   3155000400070 
 19.78748   19.46008    1.52002                                   3155000400071 
 20.10504   37.26136    1.87736                                   3155000400072 
 20.95421   19.36541    1.52314                                   3155000400073 
 21.28748   10.46008    1.52918                                   3155000400074 
 22.93145   11.23541    1.20145                                   3155000400075 
 23.21399   18.0099     1.6198                                    3155000400076 
 23.3173    29.25412    1.2141                                    3155000400077 
 24.22145   28.23145    1.75852                                   3155000400078 
 24.6173    14.25412    1.2141                                    3155000400079 
 27.18245   8.58843     1.47014                                   3155000400080 
 29.50012   8.45213     1.12541                                   3155000400081 
 30.61017   15.00656    1.76552                                   3155000400082 
 31.69854   10.2144     1.10245                                   3155000400083 
 33.11117   25.00656    1.76552                                   3155000400084 
 33.73214   50.13161    1.82729                                   3155000400085 
 35.69522   79.21042    2.35421                                   3155000400086 
 36.37048   32.27292    2.09333                                   3155000400087 
 37.94053   71.18983    2.33477                                   3155000400088 
 38.9368    75.42947    2.464                                     3155000400089 
 39.87887   33.75876    1.69458                                   3155000400090 
 42.53967   15.03103    1.45967                                   3155000400091 
 48.46122   11.36968    1.43486                                   3155000400092 
 51.39019   9.3335      1.38032                                   3155000400093 
 56.33629   10.92133    1.38007                                   3155000400094 
 62.37845   11.53428    1.35902                                   3155000400095 
 65.88589   15.3214     1.02141                                   3155000400096 
 70.02002   11.23541    1.23521                                   3155000400097 
 78.17505   24.21401    1.02142                                   3155000400098 
 83.35149   10.2141     1.20141                                   3155000400099 
 87.54988   21.2541     1.02423                                   3155000400100 
 90.77077   18.21012    1.14251                                   3155000400101 
 96.31472   12.3214     1.02145                                   3155000400102 
ENDDATA             90          0                                 3155000400103 
ENDSUBENT          102          0                                 3155000499999 
SUBENT        31550005   20091216                             31433155000500001 
BIB                  4          6                                 3155000500002 
REFERENCE  ((S,ISINN-12,76,2004)=(S,JINR-E3-2004-169,76,2004))    3155000500003 
REACTION  1(47-AG-107(N,0),,EN)                                   3155000500004 
          2(47-AG-107(N,G),,WID)                                  3155000500005 
          3(47-AG-107(N,EL),,WID,,G)                              3155000500006 
STATUS     (TABLE) Table 3 of S,ISINN-12,76,2004                  3155000500007 
HISTORY    (20091216C) S.C.Yang                                   3155000500008 
ENDBIB               6          0                                 3155000500009 
NOCOMMON             0          0                                 3155000500010 
DATA                 8         13                                 3155000500011 
SPIN J     MOMENTUM L DATA      1ERR-S     1DATA      2ERR-S     23155000500012 
DATA      3ERR-S     3                                            3155000500013 
NO-DIM     NO-DIM     EV         EV         MILLI-EV   MILLI-EV   3155000500014 
MILLI-EV   MILLI-EV                                               3155000500015 
1.         0.         -11.142               108.06                3155000500016 
14.613                                                            3155000500017 
0.         0.         16.423     0.004      363.54     10.64      3155000500018 
1.886      0.028                                                  3155000500019 
1.         1.         18.899     0.140      100.00     10.00      3155000500020 
0.000105   0.000011                                               3155000500021 
1.         1.         20.323     0.147      99.99      10.00      3155000500022 
0.00012    0.00001                                                3155000500023 
1.         1.         35.826     0.233      99.997     10.00      3155000500024 
0.000286   0.000029                                               3155000500025 
1.         0.         41.726     0.0264     163.78     15.68      3155000500026 
1.891      0.095                                                  3155000500027 
1.         1.         42.751     0.276      100.00     10.00      3155000500028 
0.003511   0.000351                                               3155000500029 
0.         0.         45.264     0.118      150.12     14.94      3155000500030 
0.462      0.0423                                                 3155000500031 
1.         0.         51.756     0.018      314.97     24.32      3155000500032 
7.286      0.219                                                  3155000500033 
1.         1.         64.197     0.428      99.970     9.997      3155000500034 
0.01951    0.001950                                               3155000500035 
2.         1.         64.565     0.431      99.997     10.00      3155000500036 
0.02631    0.000263                                               3155000500037 
1.         1.         72.667     0.494      99.981     9.998      3155000500038 
0.02722    0.00272                                                3155000500039 
1.         0.         82.827     0.598      139.07     13.91      3155000500040 
0.01403    0.001403                                               3155000500041 
ENDDATA             30          0                                 3155000500042 
ENDSUBENT           41          0                                 3155000599999 
SUBENT        31550006   20091216                             31433155000600001 
BIB                  4          6                                 3155000600002 
REFERENCE  ((S,ISINN-12,76,2004)=(S,JINR-E3-2004-169,76,2004))    3155000600003 
REACTION  1(47-AG-109(N,0),,EN)                                   3155000600004 
          2(47-AG-109(N,G),,WID)                                  3155000600005 
          3(47-AG-109(N,EL),,WID,,G)                              3155000600006 
STATUS     (TABLE) Table 3 of S,ISINN-12,76,2004                  3155000600007 
HISTORY    (20091216C) S.C.Yang                                   3155000600008 
ENDBIB               6          0                                 3155000600009 
NOCOMMON             0          0                                 3155000600010 
DATA                 8          7                                 3155000600011 
SPIN J     MOMENTUM L DATA      1ERR-S     1DATA      2ERR-S     23155000600012 
DATA      3ERR-S     3                                            3155000600013 
NO-DIM     NO-DIM     EV         EV         MILLI-EV   MILLI-EV   3155000600014 
MILLI-EV   MILLI-EV                                               3155000600015 
1.         0.         5.186      0.001      345.27     3.608      3155000600016 
4.4633     0.00032193                                             3155000600017 
1.         0.         30.674     0.011      432.99     24.17      3155000600018 
3.3719     0.0851                                                 3155000600019 
1.         1.         32.694     0.214      100.09     10.01      3155000600020 
0.0068938  0.000690                                               3155000600021 
1.         0.         40.492     0.020      231.62     19.89      3155000600022 
2.7860     0.1113                                                 3155000600023 
0.         0.         56.048     0.0318     171.55     16.32      3155000600024 
4.8898     0.22453                                                3155000600025 
1.         0.         71.260     0.038      138.85     13.44      3155000600026 
9.725      0.469                                                  3155000600027 
1.         0.         88.474     0.336      130.81     13.07      3155000600028 
1.6569     0.15893                                                3155000600029 
ENDDATA             18          0                                 3155000600030 
ENDSUBENT           29          0                                 3155000699999 
ENDENTRY             6          0                                 3155099999999 
