ENTRY            31688   20100506                             31453168800000001 
SUBENT        31688001   20100506                             31453168800100001 
BIB                 12         28                                 3168800100002 
TITLE       Measurement of neutron total cross-sections and       3168800100003 
            resonance parameters of erbium at the Pohang Neutron  3168800100004 
            Facility                                              3168800100005 
AUTHOR     (T.F.Wang, M.W.Lee, K.S.Kim, G.N.Kim, Y.D.Oh,          3168800100006 
            M.H.Cho, I.S.Ko, W.Namkung, T.I.Ro)                   3168800100007 
REFERENCE  (J,NIM/B,268,106,2010)                                 3168800100008 
INSTITUTE  (3KORKNU,3KORPUE,3KORDAU)                              3168800100009 
FACILITY   (LINAC,3KORPUE) Pohang Neutron Facility (PNF)          3168800100010 
INC-SOURCE (PHOTO) Ta(g,n) photonuclear reaction                  3168800100011 
SAMPLE      Natural erbium                                        3168800100012 
             - Size (mm): 49.87 +/- 0.01 x 51.15 +/- 0.01,        3168800100013 
                          50.06 +/- 0.01 x 50.14 +/- 0.01,        3168800100014 
                          50.15 +/- 0.01 x 50.04 +/- 0.01         3168800100015 
             - Purity  :  99.9%                                   3168800100016 
             - Density :  9.066 g/cm3                             3168800100017 
           (68-ER-162,NAT=0.00139)                                3168800100018 
           (68-ER-164,NAT=0.01601)                                3168800100019 
           (68-ER-166,NAT=0.33503)                                3168800100020 
           (68-ER-167,NAT=0.22869)                                3168800100021 
           (68-ER-168,NAT=0.26978)                                3168800100022 
           (68-ER-170,NAT=0.14910)                                3168800100023 
METHOD     (TOF,TRN) 12 m flight path                             3168800100024 
PART-DET   (N)                                                    3168800100025 
DETECTOR   (SCIN) 6Li-ZnS(Ag) scintillator (BC702)                3168800100026 
            diameter 12.5 cm x thickness of 1.6 cm                3168800100027 
STATUS     (APRVD) Approved by G.N.Kim (2010-05-13)               3168800100028 
HISTORY    (20100506C) S.C.Yang                                   3168800100029 
           (20100511R) Received from G.N.Kim by e-mail            3168800100030 
ENDBIB              28          0                                 3168800100031 
NOCOMMON             0          0                                 3168800100032 
ENDSUBENT           31          0                                 3168800199999 
SUBENT        31688002   20100506                             31453168800200001 
BIB                  3          8                                 3168800200002 
REACTION   (68-ER-0(N,TOT),,SIG)                                  3168800200003 
ERR-ANALYS (ERR-T) Total uncertainty                              3168800200004 
           (ERR-1) Flight path measurements      (2.0%)           3168800200005 
           (ERR-2) Background estimation         (0.04%)          3168800200006 
           (ERR-3) Sample thickness              (1.3%)           3168800200007 
           (ERR-4) Dead time, normalization etc. (2.0%)           3168800200008 
STATUS     (TABLE) Plotted in Fig.5 of J,NIM/B,268,106,2010       3168800200009 
           (DEP,31688003) Transmission data                       3168800200010 
ENDBIB               8          0                                 3168800200011 
COMMON               4          3                                 3168800200012 
ERR-1      ERR-2      ERR-3      ERR-4                            3168800200013 
PER-CENT   PER-CENT   PER-CENT   PER-CENT                         3168800200014 
 2.0        0.04       1.3        2.0                             3168800200015 
ENDCOMMON            3          0                                 3168800200016 
DATA                 3        563                                 3168800200017 
EN         DATA       ERR-T                                       3168800200018 
EV         B          B                                           3168800200019 
0.18344      197.79739  21.01992                                  3168800200020 
0.18526      133.60623  21.11622                                  3168800200021 
0.1871      144.32169  21.30239                                   3168800200022 
0.18897      195.06598  21.45621                                  3168800200023 
0.19087      170.26943  21.57471                                  3168800200024 
0.1928      174.91382  21.68842                                   3168800200025 
0.19475      182.52689  21.77912                                  3168800200026 
0.19674      91.76789   21.85019                                  3168800200027 
0.19875      131.86296  22.05058                                  3168800200028 
0.2008      220.94353  21.99153                                   3168800200029 
0.20288      160.29474  22.20766                                  3168800200030 
0.205      215.1385   22.33417                                    3168800200031 
0.20714      186.37786  22.41137                                  3168800200032 
0.20932      149.25507  22.58788                                  3168800200033 
0.21153      151.17099  22.63147                                  3168800200034 
0.21378      158.745    22.77317                                  3168800200035 
0.21607      201.31102  22.87309                                  3168800200036 
0.21839      149.03034  22.91391                                  3168800200037 
0.22075      206.04544  22.85766                                  3168800200038 
0.22315      168.53864  23.08868                                  3168800200039 
0.22559      175.11974  23.11527                                  3168800200040 
0.22807      215.99104  23.16229                                  3168800200041 
0.23058      213.28707  23.20274                                  3168800200042 
0.23315      173.92887  23.24117                                  3168800200043 
0.23575      196.95712  23.28097                                  3168800200044 
0.2384      199.67981  23.26197                                   3168800200045 
0.24109      192.51236  23.39354                                  3168800200046 
0.24383      213.69512  23.47687                                  3168800200047 
0.24661      190.19624  23.44489                                  3168800200048 
0.24945      238.0107   23.42238                                  3168800200049 
0.25233      228.36972  23.40648                                  3168800200050 
0.25526      164.76891  23.46244                                  3168800200051 
0.25825      168.9131   23.48057                                  3168800200052 
0.26128      186.71073  23.5699                                   3168800200053 
0.26437      240.45725  23.61071                                  3168800200054 
0.26752      245.58631  23.51884                                  3168800200055 
0.27072      234.46744  23.49352                                  3168800200056 
0.27398      233.04734  23.51313                                  3168800200057 
0.2773      255.68576  23.53895                                   3168800200058 
0.28068      274.18386  23.51487                                  3168800200059 
0.28412      240.60816  23.52563                                  3168800200060 
0.28763      263.28656  23.55075                                  3168800200061 
0.2912      235.89062  23.51536                                   3168800200062 
0.29484      296.94132  23.48521                                  3168800200063 
0.29854      261.42523  23.48445                                  3168800200064 
0.30232      275.07237  23.42553                                  3168800200065 
0.30617      285.13216  23.40028                                  3168800200066 
0.31009      319.09501  23.45032                                  3168800200067 
0.31409      332.23225  23.40339                                  3168800200068 
0.31817      335.68437  23.4191                                   3168800200069 
0.32233      367.85356  23.42887                                  3168800200070 
0.32657      291.11699  23.36114                                  3168800200071 
0.33089      345.76675  23.3369                                   3168800200072 
0.3353      377.24924  23.23014                                   3168800200073 
0.3398      436.62696  23.31603                                   3168800200074 
0.34438      458.52408  23.293                                    3168800200075 
0.34907      415.41448  23.28996                                  3168800200076 
0.35385      471.91356  23.32556                                  3168800200077 
0.35872      518.70757  23.3433                                   3168800200078 
0.3637      539.37847  23.34467                                   3168800200079 
0.36879      533.81798  23.37122                                  3168800200080 
0.37398      563.8501   23.37352                                  3168800200081 
0.37928      650.21336  23.37124                                  3168800200082 
0.3847      761.94083  23.45852                                   3168800200083 
0.39023      745.62309  23.43863                                  3168800200084 
0.39588      845.70152  23.56531                                  3168800200085 
0.40166      940.79553  23.67176                                  3168800200086 
0.40756    1045.49099 23.90293                                    3168800200087 
0.41359    1153.98692 24.11122                                    3168800200088 
0.41976    1421.07623 24.58923                                    3168800200089 
0.42607    1490.66142 24.78748                                    3168800200090 
0.43252    1638.82277 25.21264                                    3168800200091 
0.43912      1787.9319  25.47378                                  3168800200092 
0.44587    1991.43683 25.99895                                    3168800200093 
0.45278    2078.69361 26.29518                                    3168800200094 
0.45985    2156.08948 26.3123                                     3168800200095 
0.46709    2198.45158 26.45753                                    3168800200096 
0.4745      2073.01135 26.10117                                   3168800200097 
0.48208    1980.46202 25.87059                                    3168800200098 
0.48985    1803.86032 25.315                                      3168800200099 
0.49782    1597.35281 24.9463                                     3168800200100 
0.50597    1483.32768 24.46958                                    3168800200101 
0.51433    1350.90187 24.09243                                    3168800200102 
0.52289    1228.74297 23.83476                                    3168800200103 
0.53168    1161.60655 23.75478                                    3168800200104 
0.54068    1178.99787 23.56378                                    3168800200105 
0.54992    1197.24759 23.62412                                    3168800200106 
0.55939    1285.15225 23.79669                                    3168800200107 
0.56911    1324.45821 24.00536                                    3168800200108 
0.57909    1412.10571 24.18436                                    3168800200109 
0.58933    1417.38079 24.10993                                    3168800200110 
0.59985    1308.13026 23.91784                                    3168800200111 
0.61065    1122.68419 23.44088                                    3168800200112 
0.62174      969.0707   22.99167                                  3168800200113 
0.63314      823.41402  22.67832                                  3168800200114 
0.64485      638.43576  22.29483                                  3168800200115 
0.6569      552.81966  22.04548                                   3168800200116 
0.66928      369.75004  21.81378                                  3168800200117 
0.68202      306.3341   21.60609                                  3168800200118 
0.69513      263.42752  21.50523                                  3168800200119 
0.70862      239.34423  21.41077                                  3168800200120 
0.7225      207.8693   21.27852                                   3168800200121 
0.73679      165.10981  21.18557                                  3168800200122 
0.75152      206.87112  21.06627                                  3168800200123 
0.76668      177.97287  21.0468                                   3168800200124 
0.78232      104.30557  20.93266                                  3168800200125 
0.79844      126.64312  20.86571                                  3168800200126 
0.81506      87.43367   20.81966                                  3168800200127 
0.8322      56.17608   20.78395                                   3168800200128 
0.84989      66.26035   20.77705                                  3168800200129 
0.86815      109.72448  20.60462                                  3168800200130 
0.88701      99.58979   20.60476                                  3168800200131 
0.90648      29.01665   20.61222                                  3168800200132 
0.92661      69.52709   20.54797                                  3168800200133 
0.94741      32.06874   20.48053                                  3168800200134 
0.96892      72.19726   20.45762                                  3168800200135 
0.99118      59.9629    20.43847                                  3168800200136 
1.0142      41.14591   20.42695                                   3168800200137 
1.03804      47.035     20.47902                                  3168800200138 
1.06273      12.45929   20.29037                                  3168800200139 
1.08832      18.15212   20.3432                                   3168800200140 
1.11483      23.02591   20.37602                                  3168800200141 
1.14233      39.76033   20.2504                                   3168800200142 
1.17086      54.296     20.18689                                  3168800200143 
1.20047      90.62101   20.16453                                  3168800200144 
1.23122      101.50976  20.08445                                  3168800200145 
1.26316      85.82187   20.02353                                  3168800200146 
1.29637      47.59316   20.07518                                  3168800200147 
1.3309      39.79772   19.97635                                   3168800200148 
1.36683      95.29802   19.94468                                  3168800200149 
1.40423      47.9404    19.82182                                  3168800200150 
1.44319      67.914     19.87397                                  3168800200151 
1.4838      -26.79753  19.81412                                   3168800200152 
1.52614      36.61968   19.772                                    3168800200153 
1.57032      54.40186   19.77363                                  3168800200154 
1.61645      68.04155   19.78001                                  3168800200155 
1.66464      -18.84213  19.65141                                  3168800200156 
1.71502      38.07157   19.59909                                  3168800200157 
1.76772      46.48475   19.68401                                  3168800200158 
1.82289      36.19222   19.59976                                  3168800200159 
2.0212      40.48954   27.61634                                   3168800200160 
2.05456      53.97602   27.54121                                  3168800200161 
2.08876      15.53968   27.41005                                  3168800200162 
2.12382      65.89799   27.48858                                  3168800200163 
2.15977      17.24253   27.2834                                   3168800200164 
2.19663      5.36549    27.32645                                  3168800200165 
2.23445      24.4935    27.33919                                  3168800200166 
2.27325      116.00217  27.3281                                   3168800200167 
2.31308      24.99339   27.23009                                  3168800200168 
2.35396      36.78807   27.26197                                  3168800200169 
2.39594      55.23727   27.23333                                  3168800200170 
2.43904      26.61923   27.286                                    3168800200171 
2.48332      11.33311   27.07269                                  3168800200172 
2.52882      80.12712   27.20868                                  3168800200173 
2.57558      47.46344   27.11256                                  3168800200174 
2.62364      90.62907   27.04407                                  3168800200175 
2.67307      13.27317   27.06727                                  3168800200176 
2.7239      21.18713   26.95842                                   3168800200177 
2.7762      -0.22029   26.74983                                   3168800200178 
2.83002      79.31449   26.99528                                  3168800200179 
2.88543      65.9901    26.90105                                  3168800200180 
2.94247      15.33715   26.77295                                  3168800200181 
3.00122      13.49737   26.79076                                  3168800200182 
3.06175      -19.1239   26.70625                                  3168800200183 
3.12413      98.56393   26.73893                                  3168800200184 
3.18844      77.89112   26.8857                                   3168800200185 
3.25475      28.42136   26.62508                                  3168800200186 
3.32315      48.73588   26.6354                                   3168800200187 
3.39374      62.32991   26.46223                                  3168800200188 
3.46659      59.2267    26.38178                                  3168800200189 
3.54181      52.12757   26.49232                                  3168800200190 
3.61952      28.42323   26.54416                                  3168800200191 
3.6998      14.16151   26.37494                                   3168800200192 
3.78279      59.74328   26.29437                                  3168800200193 
3.8686      26.33583   26.34037                                   3168800200194 
3.95737      54.5107    26.33822                                  3168800200195 
4.04922      20.40914   26.3                                      3168800200196 
4.14432      7.52067    26.23705                                  3168800200197 
4.24279      79.448     26.23719                                  3168800200198 
4.34483      60.05238   26.22974                                  3168800200199 
4.45059      47.16236   26.14644                                  3168800200200 
4.56025      68.33349   25.97635                                  3168800200201 
4.67403      41.24961   25.9842                                   3168800200202 
4.79211      21.81078   25.93916                                  3168800200203 
4.91472      73.40604   25.9195                                   3168800200204 
5.0421      67.64507   26.00699                                   3168800200205 
5.13424      79.4595    41.01489                                  3168800200206 
5.18803      98.64399   41.1097                                   3168800200207 
5.24267      33.31555   40.96255                                  3168800200208 
5.29817      197.26289  41.05252                                  3168800200209 
5.35456      177.46037  40.69739                                  3168800200210 
5.41186      124.5021   40.9979                                   3168800200211 
5.47008      161.5446   40.85635                                  3168800200212 
5.52925      193.80587  41.39357                                  3168800200213 
5.58938      265.41721  41.17811                                  3168800200214 
5.6505      389.00273  41.44094                                   3168800200215 
5.71262      453.19357  41.76915                                  3168800200216 
5.73618      588.81763  84.20928                                  3168800200217 
5.75197      604.33981  84.56238                                  3168800200218 
5.76782      526.63037  84.59109                                  3168800200219 
5.78374      732.13266  86.60791                                  3168800200220 
5.79973      714.13266  85.01754                                  3168800200221 
5.81578      795.06533  87.2536                                   3168800200222 
5.8319      1126.95168 89.09292                                   3168800200223 
5.84809    1152.90847 89.09215                                    3168800200224 
5.86434    1554.32509 90.72616                                    3168800200225 
5.88066    1836.96062 92.9095                                     3168800200226 
5.89705    1923.66388 95.11716                                    3168800200227 
5.91351    2253.4708  97.36158                                    3168800200228 
5.93003      2585.1227  103.43493                                 3168800200229 
5.94663    2862.99077 107.32672                                   3168800200230 
5.9633      3789.33936 119.0452                                   3168800200231 
5.98003    3773.96979 122.12478                                   3168800200232 
5.99684    4241.83794 125.51439                                   3168800200233 
6.01372    5159.47835 142.60634                                   3168800200234 
6.03067    4771.92802 135.26061                                   3168800200235 
6.04769    5204.53761 144.38421                                   3168800200236 
6.06478    4501.21876 133.67435                                   3168800200237 
6.08195    4493.77187 128.83399                                   3168800200238 
6.09918    3892.04011 122.44861                                   3168800200239 
6.1165     3550.17264 114.59565                                   3168800200240 
6.13388    2984.71558 107.94338                                   3168800200241 
6.15134    2531.31595 101.28423                                   3168800200242 
6.16888    2160.53773 99.66209                                    3168800200243 
6.18649    1667.41582 92.1842                                     3168800200244 
6.20417    1146.26503 88.81009                                    3168800200245 
6.22193      1097.5724  87.71662                                  3168800200246 
6.23977      913.73862  86.81904                                  3168800200247 
6.25768      767.46899  85.56595                                  3168800200248 
6.27568      553.74641  84.64567                                  3168800200249 
6.29374      565.51511  83.90286                                  3168800200250 
6.31189      463.50523  83.68575                                  3168800200251 
6.33012      535.84911  83.16733                                  3168800200252 
6.34842      309.14149  82.45441                                  3168800200253 
6.36681      244.28952  81.78915                                  3168800200254 
6.38527      223.22629  82.11851                                  3168800200255 
6.40382      294.19866  81.31129                                  3168800200256 
6.42244      156.37463  82.44176                                  3168800200257 
6.44115      204.47059  47.06285                                  3168800200258 
6.49777      166.59436  46.5001                                   3168800200259 
6.55513      183.13779  46.62112                                  3168800200260 
6.61326      31.43085   46.21275                                  3168800200261 
6.67216      99.66166   46.07197                                  3168800200262 
6.73186      102.91735  45.73796                                  3168800200263 
6.79236      71.08398   46.22978                                  3168800200264 
6.85368      125.86904  46.01934                                  3168800200265 
6.91583      60.88864   45.85216                                  3168800200266 
6.97883      42.38131   45.81606                                  3168800200267 
7.0427      61.31263   45.43127                                   3168800200268 
7.10745      128.01398  46.2163                                   3168800200269 
7.17309      -5.60867   45.87347                                  3168800200270 
7.23965      20.4391    45.64259                                  3168800200271 
7.30714      107.96542  45.54721                                  3168800200272 
7.37558      8.76413    45.14922                                  3168800200273 
7.44498      25.28315   45.48089                                  3168800200274 
7.51537      64.89213   45.57575                                  3168800200275 
7.58676      39.54745   45.08428                                  3168800200276 
7.65917      56.92962   45.67594                                  3168800200277 
7.73263      190.95903  45.42176                                  3168800200278 
7.80714      104.83092  45.57818                                  3168800200279 
7.88274      16.30299   45.41683                                  3168800200280 
7.95944      38.25954   45.61261                                  3168800200281 
8.03727      1.8306     45.24758                                  3168800200282 
8.11625      -17.45097  44.84217                                  3168800200283 
8.19639      96.73641   45.02691                                  3168800200284 
8.27773      65.97436   44.94301                                  3168800200285 
8.36028      62.43501   45.22547                                  3168800200286 
8.44408      78.83803   44.76034                                  3168800200287 
8.52914      33.8525    44.93772                                  3168800200288 
8.61549      -4.63894   44.82199                                  3168800200289 
8.70316      47.24159   44.85024                                  3168800200290 
8.79218      148.61634  45.05158                                  3168800200291 
8.88256      73.44451   45.15667                                  3168800200292 
8.913      325.31585  78.87068                                    3168800200293 
8.9436      140.58479  77.36696                                   3168800200294 
8.97435      285.77897  77.62398                                  3168800200295 
9.00527      49.04236   76.77059                                  3168800200296 
9.03634      150.6733   78.7485                                   3168800200297 
9.06757      145.01454  76.48312                                  3168800200298 
9.09897      142.22121  77.53667                                  3168800200299 
9.13053      227.90924  77.9537                                   3168800200300 
9.16225      260.55763  78.42192                                  3168800200301 
9.19414      192.56926  78.62566                                  3168800200302 
9.2262      140.93774  79.39689                                   3168800200303 
9.25842      403.82089  79.55459                                  3168800200304 
9.29082      472.92904  80.51146                                  3168800200305 
9.32338      578.40201  80.29717                                  3168800200306 
9.35612      927.18521  81.52021                                  3168800200307 
9.38902      1072.1651  84.68806                                  3168800200308 
9.42211    1281.71818 84.91081                                    3168800200309 
9.45536    1266.99657 84.27214                                    3168800200310 
9.4888     1208.94403 86.55439                                    3168800200311 
9.52241    1044.33797 83.57769                                    3168800200312 
9.5562      729.79918  80.20489                                   3168800200313 
9.59017      633.54937  79.68346                                  3168800200314 
9.62432      319.12139  78.37137                                  3168800200315 
9.65865      261.62529  78.58273                                  3168800200316 
9.69317      323.23834  77.89796                                  3168800200317 
9.72788      208.63001  77.69427                                  3168800200318 
9.76277      62.17687   77.75699                                  3168800200319 
9.79785      108.62657  44.33388                                  3168800200320 
9.90422      113.09727  44.16206                                  3168800200321 
10.01234   83.7416    44.15086                                    3168800200322 
10.12224   78.71682   44.25203                                    3168800200323 
10.23396   31.38793   43.95557                                    3168800200324 
10.34754   58.12175   44.02414                                    3168800200325 
10.46302   -16.12463  43.81365                                    3168800200326 
10.58045   115.84763  43.81418                                    3168800200327 
10.69986   88.93767   43.74084                                    3168800200328 
10.8213      151.17748  43.6823                                   3168800200329 
10.94483   14.23992   43.84685                                    3168800200330 
11.07048   35.98661   43.96531                                    3168800200331 
11.19831   56.80546   43.55368                                    3168800200332 
11.32836   -16.98446  43.66317                                    3168800200333 
11.4607      179.35818  43.37039                                  3168800200334 
11.59536   58.73019   43.35241                                    3168800200335 
11.73242   -17.7973   43.56929                                    3168800200336 
11.87191   -35.99645  43.06858                                    3168800200337 
12.01392   25.58074   43.09342                                    3168800200338 
12.15848   68.49507   42.96214                                    3168800200339 
12.30567   56.77563   43.3366                                     3168800200340 
12.45555   161.63497  42.96191                                    3168800200341 
12.60818   -3.21768   43.2357                                     3168800200342 
12.76364   44.41555   42.93267                                    3168800200343 
12.92199   52.17082   43.09211                                    3168800200344 
13.0833    -12.13744  42.86076                                    3168800200345 
13.24765   32.09433   42.55942                                    3168800200346 
13.41512   -63.56755  42.60631                                    3168800200347 
13.58579   109.18892  42.61891                                    3168800200348 
13.75973   120.26674  42.54344                                    3168800200349 
13.93704   5.18298    42.42259                                    3168800200350 
14.1178    63.47378   42.26984                                    3168800200351 
14.30209   -30.597    42.65396                                    3168800200352 
14.49002   -32.40326  42.3554                                     3168800200353 
14.68167   -11.65349  42.41887                                    3168800200354 
14.87716   39.76569   42.313                                      3168800200355 
15.07657   110.54425  42.28663                                    3168800200356 
15.14393   219.04414  74.33895                                    3168800200357 
15.21175   177.89076  73.28213                                    3168800200358 
15.28002   220.39373  72.95603                                    3168800200359 
15.34875   189.30856  73.29503                                    3168800200360 
15.41795   51.78318   73.97262                                    3168800200361 
15.48762   258.72364  74.64127                                    3168800200362 
15.55776   538.98902  76.31185                                    3168800200363 
15.62837   584.4024   75.74595                                    3168800200364 
15.69947   731.47133  76.59216                                    3168800200365 
15.77106   633.51165  75.72661                                    3168800200366 
15.84313   414.92134  74.54619                                    3168800200367 
15.9157      127.65346  73.46374                                  3168800200368 
15.98878   114.80833  73.28361                                    3168800200369 
16.06235   99.00911   72.62187                                    3168800200370 
16.13644   135.20072  72.42819                                    3168800200371 
16.21103   153.35317  42.07402                                    3168800200372 
16.43796   -6.72935   41.35619                                    3168800200373 
16.66968   -22.37276  41.83195                                    3168800200374 
16.90634   37.46888   41.51219                                    3168800200375 
17.14807   66.28801   41.52619                                    3168800200376 
17.39503   -5.08132   41.69585                                    3168800200377 
17.64736   0.3466     41.43787                                    3168800200378 
17.90522   33.78107   41.40239                                    3168800200379 
18.16877   -23.85226  41.0345                                     3168800200380 
18.43819   68.81951   40.79198                                    3168800200381 
18.71364   -1.92129   40.86463                                    3168800200382 
18.99531   23.37045   40.59496                                    3168800200383 
19.28339   120.67011  40.51559                                    3168800200384 
19.57807   55.099     40.7331                                     3168800200385 
19.87956   -43.00756  40.94206                                    3168800200386 
20.18807   205.15661  41.53227                                    3168800200387 
20.2925      387.54097  72.24882                                  3168800200388 
20.39774   424.79487  71.12666                                    3168800200389 
20.50381   323.51069  72.1165                                     3168800200390 
20.6107    160.11702  71.50243                                    3168800200391 
20.71844   158.66467  70.43603                                    3168800200392 
20.82702   -63.52184  70.64019                                    3168800200393 
20.93646   120.76197  70.49421                                    3168800200394 
21.04676   18.97687   40.64826                                    3168800200395 
21.38294   8.87266    41.01106                                    3168800200396 
21.72725   14.44938   40.63877                                    3168800200397 
22.07994   19.58473   40.28044                                    3168800200398 
22.44128   76.85017   39.67728                                    3168800200399 
22.81157   62.75649   40.32201                                    3168800200400 
23.1911    -85.74496  40.00958                                    3168800200401 
23.58018   28.20372   39.97659                                    3168800200402 
23.97914   26.12462   39.85195                                    3168800200403 
24.38831   66.8206    39.75713                                    3168800200404 
24.80804   218.14533  39.86664                                    3168800200405 
24.95036   189.79734  69.36269                                    3168800200406 
25.09391   152.2184   69.54744                                    3168800200407 
25.2387    221.48027  68.43702                                    3168800200408 
25.38474   92.84493   69.44423                                    3168800200409 
25.53206   332.41037  70.65302                                    3168800200410 
25.68067   432.512    69.47135                                    3168800200411 
25.83057   547.47599  70.40605                                    3168800200412 
25.9818    670.46672  72.18411                                    3168800200413 
26.13435   1288.709   76.7996                                     3168800200414 
26.28825   1529.39187 77.87763                                    3168800200415 
26.44352   1440.50122 77.66072                                    3168800200416 
26.60017   1183.86276 74.66673                                    3168800200417 
26.75821   713.78455  70.65941                                    3168800200418 
26.91766   465.71581  69.15835                                    3168800200419 
27.07854   106.20076  67.93971                                    3168800200420 
27.24088   234.35153  68.98971                                    3168800200421 
27.40467   252.82863  68.9745                                     3168800200422 
27.56995   523.90282  69.79371                                    3168800200423 
27.73672   233.45867  69.0688                                     3168800200424 
27.90502   109.34235  67.7554                                     3168800200425 
28.07485   236.33667  68.37255                                    3168800200426 
28.24623   27.82202   66.96566                                    3168800200427 
28.41919   124.33348  67.35391                                    3168800200428 
28.59374   39.68612   67.10134                                    3168800200429 
28.76991   64.24109   67.26587                                    3168800200430 
28.94771   44.09639   67.10476                                    3168800200431 
29.12716   93.09755   68.1235                                     3168800200432 
29.30829   89.5494    39.00294                                    3168800200433 
29.86192   74.83963   38.83462                                    3168800200434 
30.43139   79.72914   38.64734                                    3168800200435 
31.0173      38.80348   38.52287                                  3168800200436 
31.62031   59.55589   38.33981                                    3168800200437 
32.24106   58.81139   38.32387                                    3168800200438 
32.88028   110.83434  38.41514                                    3168800200439 
33.5387    -46.52955  38.09358                                    3168800200440 
34.2171    64.65862   37.93552                                    3168800200441 
34.91629   -20.51383  37.71285                                    3168800200442 
35.63713   56.40235   37.81799                                    3168800200443 
36.38052   -12.66645  37.7319                                     3168800200444 
37.14742   93.71709   37.7277                                     3168800200445 
37.93883   154.17926  37.61177                                    3168800200446 
38.75581   26.47243   37.05396                                    3168800200447 
39.59945   140.92243  37.2237                                     3168800200448 
40.47095   20.69502   36.99543                                    3168800200449 
41.37154   94.42508   36.73408                                    3168800200450 
42.30253   117.85974  37.25974                                    3168800200451 
43.26529   6.93414    37.00399                                    3168800200452 
44.26131   38.05564   36.75912                                    3168800200453 
45.29212   -52.73401  36.83348                                    3168800200454 
46.35936   92.9309    36.24793                                    3168800200455 
47.46477   11.61174   35.97017                                    3168800200456 
48.6102    34.40222   36.11046                                    3168800200457 
49.7976    159.48011  36.15255                                    3168800200458 
50.20308   181.72446  63.29595                                    3168800200459 
50.61353   -59.28768  62.83471                                    3168800200460 
51.02904   177.76091  62.27256                                    3168800200461 
51.44968   28.50226   62.28014                                    3168800200462 
51.87555   145.01454  61.77112                                    3168800200463 
52.30672   72.73143   62.24457                                    3168800200464 
52.7433    80.05015   62.39344                                    3168800200465 
53.18536   259.69049  62.42632                                    3168800200466 
53.63301   363.88556  62.89537                                    3168800200467 
54.08633   272.55635  63.15786                                    3168800200468 
54.54542   151.86414  62.55326                                    3168800200469 
55.01038   105.7567   62.2849                                     3168800200470 
55.48132   -23.59156  61.65575                                    3168800200471 
55.95832   94.26641   61.45144                                    3168800200472 
56.44151   281.17472  61.58951                                    3168800200473 
56.93098   14.74136   61.38534                                    3168800200474 
57.42684   144.24361  62.01249                                    3168800200475 
57.92921   -108.88754 61.05689                                    3168800200476 
58.4382    -183.57396 61.34665                                    3168800200477 
58.95393   48.10859   61.09276                                    3168800200478 
59.47652   51.9078    60.45187                                    3168800200479 
60.00609   192.47145  61.00634                                    3168800200480 
60.54276   130.17782  60.22599                                    3168800200481 
61.08666   152.73354  61.18627                                    3168800200482 
61.63793   -30.5458   60.60596                                    3168800200483 
62.19669   -10.9179   60.99548                                    3168800200484 
62.76309   73.45314   60.75296                                    3168800200485 
63.33725   53.62222   61.10927                                    3168800200486 
63.91934   35.8089    61.00297                                    3168800200487 
64.50948   56.49195   60.35514                                    3168800200488 
65.10783   83.32265   60.16194                                    3168800200489 
65.71455   84.55067   60.40652                                    3168800200490 
66.32979   32.64875   59.76339                                    3168800200491 
66.95371   -77.05595  60.49952                                    3168800200492 
67.58647   52.7805    59.62751                                    3168800200493 
68.22825   23.8672    59.71584                                    3168800200494 
68.87921   58.98961   58.96765                                    3168800200495 
69.53953   70.97507   60.20216                                    3168800200496 
70.20939   147.42467  59.76229                                    3168800200497 
70.88898   183.09008  59.4213                                     3168800200498 
71.57849   169.71945  60.19877                                    3168800200499 
72.2781    309.9888   60.27312                                    3168800200500 
72.98802   438.33929  61.29643                                    3168800200501 
73.70845   489.99409  61.40393                                    3168800200502 
74.4396    273.56112  60.19719                                    3168800200503 
75.18168   78.69821   59.78829                                    3168800200504 
75.93492   54.93191   59.23271                                    3168800200505 
76.69953   65.6807    59.15918                                    3168800200506 
77.47575   -44.43736  58.7012                                     3168800200507 
78.26381   188.00522  58.8326                                     3168800200508 
79.06396   252.76219  59.35737                                    3168800200509 
79.87644   363.33367  60.05547                                    3168800200510 
80.70151   270.17961  59.3277                                     3168800200511 
81.53944   0.55154    58.77283                                    3168800200512 
82.39047   227.24913  58.3042                                     3168800200513 
83.25491   -19.75835  58.84112                                    3168800200514 
84.13302   220.78877  59.23504                                    3168800200515 
85.02509   -34.21386  57.23107                                    3168800200516 
85.93143   65.93108   58.50663                                    3168800200517 
86.85234   -13.81702  58.16235                                    3168800200518 
87.78813   167.51833  58.50522                                    3168800200519 
88.73912   75.11678   59.05909                                    3168800200520 
89.70566   243.62588  58.68303                                    3168800200521 
90.68807   255.22529  58.67254                                    3168800200522 
91.68671   297.43796  58.67628                                    3168800200523 
92.70193   457.38101  58.97526                                    3168800200524 
93.73411   720.90903  61.44275                                    3168800200525 
94.78363   1172.07208 62.11802                                    3168800200526 
95.85087   913.90399  61.76334                                    3168800200527 
96.93624   424.30216  58.69381                                    3168800200528 
98.04015   271.75266  57.98554                                    3168800200529 
99.16303   62.95874   57.41788                                    3168800200530 
100.3053   67.34012   56.77974                                    3168800200531 
101.4674   -86.18444  56.56631                                    3168800200532 
102.6499   98.78769   56.89093                                    3168800200533 
103.8531   76.37297   56.41341                                    3168800200534 
105.0776   184.0985   56.80555                                    3168800200535 
106.3239   174.09414  56.19878                                    3168800200536 
107.5925   114.33119  56.57606                                    3168800200537 
108.884    62.67728   56.81846                                    3168800200538 
110.1988   -11.74208  55.94327                                    3168800200539 
111.5376   65.77454   56.3438                                     3168800200540 
112.9009   112.55083  56.63854                                    3168800200541 
114.2895   41.48682   56.36472                                    3168800200542 
115.7037   -55.22845  56.23806                                    3168800200543 
117.1444   -18.11407  55.49201                                    3168800200544 
118.6122   122.06894  56.17712                                    3168800200545 
120.1077   44.56272   55.70636                                    3168800200546 
121.6317   30.01793   55.81379                                    3168800200547 
123.1848   -58.29595  55.4904                                     3168800200548 
124.7679   96.09929   55.95586                                    3168800200549 
126.3818   -38.08927  55.79708                                    3168800200550 
128.0271   -12.13899  55.69189                                    3168800200551 
129.7048   19.82503   56.52266                                    3168800200552 
131.4157   183.67558  55.85433                                    3168800200553 
133.1606   39.2516    55.88916                                    3168800200554 
134.9406   116.49459  54.77019                                    3168800200555 
136.75639  104.29815  54.77447                                    3168800200556 
138.60921  21.3364    54.51436                                    3168800200557 
140.49989  -64.6921   54.59475                                    3168800200558 
142.4295   -89.04267  54.60894                                    3168800200559 
144.3992   14.0948    54.60111                                    3168800200560 
146.41     -42.95718  54.37922                                    3168800200561 
148.4631   55.80546   53.82073                                    3168800200562 
150.5596   191.59071  53.58535                                    3168800200563 
152.701    -30.78843  53.89803                                    3168800200564 
154.88831  117.25838  53.9562                                     3168800200565 
157.12289  106.67645  53.67499                                    3168800200566 
159.4063   -23.92605  54.14049                                    3168800200567 
161.73981  68.46763   53.41703                                    3168800200568 
164.12489  208.2037   54.49975                                    3168800200569 
166.5632   204.76252  54.04551                                    3168800200570 
169.0562   438.94027  55.29782                                    3168800200571 
171.60561  259.39037  55.01782                                    3168800200572 
174.2132   223.58869  54.01611                                    3168800200573 
176.8806   122.86605  53.32156                                    3168800200574 
179.6097   122.73851  52.96856                                    3168800200575 
182.4025   213.02797  53.07484                                    3168800200576 
185.26089  -62.86175  53.42677                                    3168800200577 
188.1871   106.23252  52.62051                                    3168800200578 
191.18311  19.1467    52.84145                                    3168800200579 
194.2513   -64.51223  52.58803                                    3168800200580 
197.39391  38.50683   52.36978                                    3168800200581 
200.6134   0.45967    52.36693                                    3168800200582 
ENDDATA            565          0                                 3168800200583 
ENDSUBENT          582          0                                 3168800299999 
SUBENT        31688003   20100506                             31453168800300001 
BIB                  2          2                                 3168800300002 
REACTION   (68-ER-0(N,TOT),,TRN)                                  3168800300003 
STATUS     (TABLE) Plotted in Fig.6 of J,NIM/B,268,106,2010       3168800300004 
ENDBIB               2          0                                 3168800300005 
NOCOMMON             0          0                                 3168800300006 
DATA                 3        528                                 3168800300007 
EN         DATA       ERR-T                                       3168800300008 
EV         NO-DIM     NO-DIM                                      3168800300009 
0.18344      0.93748    0.00643                                   3168800300010 
0.18526      0.95733    0.0066                                    3168800300011 
0.1871      0.95399    0.00663                                    3168800300012 
0.18897      0.93832    0.00657                                   3168800300013 
0.19087      0.94594    0.00666                                   3168800300014 
0.1928      0.94451    0.00669                                    3168800300015 
0.19475      0.94216    0.0067                                    3168800300016 
0.19674      0.97049    0.00692                                   3168800300017 
0.19875      0.95787    0.00689                                   3168800300018 
0.2008     0.93042    0.00668                                     3168800300019 
0.20288      0.94902    0.00688                                   3168800300020 
0.205      0.93219    0.0068                                      3168800300021 
0.20714      0.94098    0.00688                                   3168800300022 
0.20932      0.95245    0.00702                                   3168800300023 
0.21153      0.95186    0.00703                                   3168800300024 
0.21378      0.94951    0.00706                                   3168800300025 
0.21607      0.9364     0.00699                                   3168800300026 
0.21839      0.95252    0.00712                                   3168800300027 
0.22075      0.93496    0.00698                                   3168800300028 
0.22315      0.94647    0.00713                                   3168800300029 
0.22559      0.94444    0.00713                                   3168800300030 
0.22807      0.93193    0.00705                                   3168800300031 
0.23058      0.93275    0.00706                                   3168800300032 
0.23315      0.94481    0.00717                                   3168800300033 
0.23575      0.93774    0.00713                                   3168800300034 
0.2384     0.9369     0.00711                                     3168800300035 
0.24109    0.9391     0.00717                                     3168800300036 
0.24383      0.93263    0.00715                                   3168800300037 
0.24661    0.93981    0.00719                                     3168800300038 
0.24945      0.92525    0.00707                                   3168800300039 
0.25233      0.92817    0.00709                                   3168800300040 
0.25526      0.94764    0.00726                                   3168800300041 
0.25825      0.94636    0.00725                                   3168800300042 
0.26128      0.94088    0.00724                                   3168800300043 
0.26437      0.92452    0.00712                                   3168800300044 
0.26752      0.92297    0.00709                                   3168800300045 
0.27072      0.92632    0.0071                                    3168800300046 
0.27398      0.92675    0.00711                                   3168800300047 
0.2773     0.91993    0.00707                                     3168800300048 
0.28068      0.91439    0.00702                                   3168800300049 
0.28412      0.92447    0.0071                                    3168800300050 
0.28763      0.91765    0.00705                                   3168800300051 
0.2912     0.92589    0.00711                                     3168800300052 
0.29484      0.90763    0.00696                                   3168800300053 
0.29854      0.91821    0.00704                                   3168800300054 
0.30232      0.91413    0.00699                                   3168800300055 
0.30617      0.91113    0.00696                                   3168800300056 
0.31009      0.90109    0.0069                                    3168800300057 
0.31409      0.89723    0.00685                                   3168800300058 
0.31817      0.89622    0.00685                                   3168800300059 
0.32233      0.88686    0.00678                                   3168800300060 
0.32657      0.90935    0.00693                                   3168800300061 
0.33089      0.89328    0.0068                                    3168800300062 
0.3353     0.88415    0.0067                                      3168800300063 
0.3398     0.86717    0.0066                                      3168800300064 
0.34438      0.861      0.00655                                   3168800300065 
0.34907      0.8732     0.00664                                   3168800300066 
0.35385      0.85724    0.00653                                   3168800300067 
0.35872      0.84425    0.00643                                   3168800300068 
0.3637     0.83857    0.00639                                     3168800300069 
0.36879      0.8401     0.00641                                   3168800300070 
0.37398      0.8319     0.00635                                   3168800300071 
0.37928      0.80878    0.00617                                   3168800300072 
0.3847     0.77982    0.00597                                     3168800300073 
0.39023      0.78398    0.006                                     3168800300074 
0.39588      0.75878    0.00584                                   3168800300075 
0.40166      0.73559    0.00568                                   3168800300076 
0.40756      0.71088    0.00555                                   3168800300077 
0.41359      0.68615    0.0054                                    3168800300078 
0.41976      0.62886    0.00505                                   3168800300079 
0.42607      0.61474    0.00497                                   3168800300080 
0.43252      0.58572    0.00482                                   3168800300081 
0.43912      0.5579     0.00464                                   3168800300082 
0.44587      0.52204    0.00443                                   3168800300083 
0.45278      0.50738    0.00435                                   3168800300084 
0.45985      0.49473    0.00425                                   3168800300085 
0.46709      0.48793    0.00421                                   3168800300086 
0.4745     0.50833    0.00433                                     3168800300087 
0.48208      0.52392    0.00442                                   3168800300088 
0.48985      0.555      0.00459                                   3168800300089 
0.49782      0.5937     0.00483                                   3168800300090 
0.50597      0.61622    0.00492                                   3168800300091 
0.51433      0.64343    0.00506                                   3168800300092 
0.52289      0.66961    0.00521                                   3168800300093 
0.53168      0.68444    0.00531                                   3168800300094 
0.54068      0.68057    0.00523                                   3168800300095 
0.54992      0.67653    0.00522                                   3168800300096 
0.55939      0.65739    0.00511                                   3168800300097 
0.56911      0.64901    0.00509                                   3168800300098 
0.57909      0.63071    0.00498                                   3168800300099 
0.58933      0.62962    0.00495                                   3168800300100 
0.59985      0.65248    0.00509                                   3168800300101 
0.61065      0.69319    0.0053                                    3168800300102 
0.62174      0.72884    0.00547                                   3168800300103 
0.63314      0.76432    0.00566                                   3168800300104 
0.64485      0.81189    0.00591                                   3168800300105 
0.6569     0.8349     0.00601                                     3168800300106 
0.66928      0.88631    0.00631                                   3168800300107 
0.68202      0.90485    0.00638                                   3168800300108 
0.69513      0.91761    0.00644                                   3168800300109 
0.70862      0.92485    0.00646                                   3168800300110 
0.7225     0.9344     0.00649                                     3168800300111 
0.73679      0.94753    0.00655                                   3168800300112 
0.75152      0.93471    0.00643                                   3168800300113 
0.76668      0.94356    0.00648                                   3168800300114 
0.78232      0.96653    0.0066                                    3168800300115 
0.79844      0.95951    0.00653                                   3168800300116 
0.81506      0.97187    0.0066                                    3168800300117 
0.8322     0.98183    0.00666                                     3168800300118 
0.84989      0.9786     0.00664                                   3168800300119 
0.86815      0.96482    0.00649                                   3168800300120 
0.88701      0.96802    0.00651                                   3168800300121 
0.90648      0.99057    0.00666                                   3168800300122 
0.92661      0.97756    0.00656                                   3168800300123 
0.94741      0.98959    0.00662                                   3168800300124 
0.96892      0.97671    0.00652                                   3168800300125 
0.99118      0.98062    0.00654                                   3168800300126 
1.0142     0.98666    0.00658                                     3168800300127 
1.03804      0.98477    0.00658                                   3168800300128 
1.06273      0.99594    0.0066                                    3168800300129 
1.08832      0.99409    0.0066                                    3168800300130 
1.11483      0.99251    0.0066                                    3168800300131 
1.14233      0.98711    0.00652                                   3168800300132 
1.17086      0.98243    0.00647                                   3168800300133 
1.20047      0.97085    0.00639                                   3168800300134 
1.23122      0.96741    0.00634                                   3168800300135 
1.26316      0.97238    0.00636                                   3168800300136 
1.29637      0.98459    0.00645                                   3168800300137 
1.3309     0.98709    0.00644                                     3168800300138 
1.36683      0.96937    0.00631                                   3168800300139 
1.40423      0.98447    0.00637                                   3168800300140 
1.44319      0.97808    0.00634                                   3168800300141 
1.4838     1.00879    0.00652                                     3168800300142 
1.52614      0.98812    0.00638                                   3168800300143 
1.57032      0.9824     0.00634                                   3168800300144 
1.61645      0.97804    0.00631                                   3168800300145 
1.66464      1.00617    0.00645                                   3168800300146 
1.71502      0.98765    0.00632                                   3168800300147 
1.76772      0.98494    0.00633                                   3168800300148 
1.82289      0.98826    0.00632                                   3168800300149 
2.0212     0.98687    0.0089                                      3168800300150 
2.05456      0.98254    0.00883                                   3168800300151 
2.08876      0.99494    0.0089                                    3168800300152 
2.12382      0.97872    0.00878                                   3168800300153 
2.15977      0.99439    0.00886                                   3168800300154 
2.19663      0.99825    0.0089                                    3168800300155 
2.23445      0.99204    0.00885                                   3168800300156 
2.27325      0.96284    0.00859                                   3168800300157 
2.31308      0.99188    0.00882                                   3168800300158 
2.35396      0.98806    0.00879                                   3168800300159 
2.39594      0.98213    0.00873                                   3168800300160 
2.43904      0.99135    0.00883                                   3168800300161 
2.48332      0.99631    0.0088                                    3168800300162 
2.52882      0.97419    0.00865                                   3168800300163 
2.57558      0.98463    0.00871                                   3168800300164 
2.62364      0.97085    0.00857                                   3168800300165 
2.67307      0.99568    0.0088                                    3168800300166 
2.7239     0.99311    0.00874                                     3168800300167 
2.7762     1.00007    0.00873                                     3168800300168 
2.83002      0.97444    0.00859                                   3168800300169 
2.88543      0.97869    0.00859                                   3168800300170 
2.94247      0.99501    0.0087                                    3168800300171 
3.00122      0.9956     0.00871                                   3168800300172 
3.06175      1.00626    0.00877                                   3168800300173 
3.12413      0.96834    0.00845                                   3168800300174 
3.18844      0.9749     0.00856                                   3168800300175 
3.25475      0.99077    0.00861                                   3168800300176 
3.32315      0.98422    0.00856                                   3168800300177 
3.39374      0.97986    0.00846                                   3168800300178 
3.46659      0.98085    0.00845                                   3168800300179 
3.54181      0.98313    0.0085                                    3168800300180 
3.61952      0.99077    0.00858                                   3168800300181 
3.6998     0.99539    0.00857                                     3168800300182 
3.78279      0.98069    0.00842                                   3168800300183 
3.8686     0.99144    0.00852                                     3168800300184 
3.95737      0.98237    0.00845                                   3168800300185 
4.04922      0.99336    0.00853                                   3168800300186 
4.14432      0.99755    0.00854                                   3168800300187 
4.24279      0.9744     0.00834                                   3168800300188 
4.34483      0.98059    0.0084                                    3168800300189 
4.45059      0.98472    0.0084                                    3168800300190 
4.56025      0.97794    0.00829                                   3168800300191 
4.67403      0.98663    0.00837                                   3168800300192 
4.79211      0.99291    0.00841                                   3168800300193 
4.91472      0.97633    0.00826                                   3168800300194 
5.0421     0.97816    0.0083                                      3168800300195 
5.13424      0.9744     0.01304                                   3168800300196 
5.18803      0.96832    0.01299                                   3168800300197 
5.24267      0.98918    0.01323                                   3168800300198 
5.29817      0.93764    0.01256                                   3168800300199 
5.35456      0.94372    0.01254                                   3168800300200 
5.41186      0.96018    0.01285                                   3168800300201 
5.47008      0.94864    0.01265                                   3168800300202 
5.52925      0.9387     0.01268                                   3168800300203 
5.58938      0.91701    0.01233                                   3168800300204 
5.6505     0.88076    0.01191                                     3168800300205 
5.71262      0.8625     0.01176                                   3168800300206 
5.73618      0.82515    0.02268                                   3168800300207 
5.75197      0.82098    0.02266                                   3168800300208 
5.76782      0.84207    0.02325                                   3168800300209 
5.78374      0.78744    0.02226                                   3168800300210 
5.79973      0.79208    0.02198                                   3168800300211 
5.81578      0.77143    0.02197                                   3168800300212 
5.8319     0.69223    0.02013                                     3168800300213 
5.84809      0.68639    0.01996                                   3168800300214 
5.86434      0.6021     0.01783                                   3168800300215 
5.88066      0.54904    0.01665                                   3168800300216 
5.89705      0.53372    0.01657                                   3168800300217 
5.91351      0.47925    0.01523                                   3168800300218 
5.93003      0.43008    0.01452                                   3168800300219 
5.94663      0.39279    0.01376                                   3168800300220 
5.9633     0.2903     0.01128                                     3168800300221 
5.98003      0.29176    0.01163                                   3168800300222 
5.99684      0.25044    0.01026                                   3168800300223 
6.01372      0.18562    0.00864                                   3168800300224 
6.03067      0.21065    0.0093                                    3168800300225 
6.04769      0.18291    0.00862                                   3168800300226 
6.06478      0.23011    0.01004                                   3168800300227 
6.08195      0.23067    0.0097                                    3168800300228 
6.09918      0.28073    0.01122                                   3168800300229 
6.1165     0.31387    0.01174                                     3168800300230 
6.13388      0.37749    0.0133                                    3168800300231 
6.15134      0.4377     0.01447                                   3168800300232 
6.16888      0.49401    0.01607                                   3168800300233 
6.18649      0.58028    0.01746                                   3168800300234 
6.20417      0.68788    0.01994                                   3168800300235 
6.22193      0.6989     0.02001                                   3168800300236 
6.23977      0.74212    0.02103                                   3168800300237 
6.25768      0.77841    0.02174                                   3168800300238 
6.27568      0.83465    0.02306                                   3168800300239 
6.29374      0.83145    0.02277                                   3168800300240 
6.31189      0.8596     0.02348                                   3168800300241 
6.33012      0.83954    0.02279                                   3168800300242 
6.34842      0.90402    0.02433                                   3168800300243 
6.36681      0.92336    0.02465                                   3168800300244 
6.38527      0.92973    0.02492                                   3168800300245 
6.40382      0.90844    0.02411                                   3168800300246 
6.42244      0.95024    0.02557                                   3168800300247 
6.44115      0.93544    0.01437                                   3168800300248 
6.49777      0.94708    0.01437                                   3168800300249 
6.55513      0.94198    0.01433                                   3168800300250 
6.61326      0.98979    0.01493                                   3168800300251 
6.67216      0.96799    0.01456                                   3168800300252 
6.73186      0.96697    0.01444                                   3168800300253 
6.79236      0.97707    0.01474                                   3168800300254 
6.85368      0.95975    0.01442                                   3168800300255 
6.91583      0.98032    0.01467                                   3168800300256 
6.97883      0.98626    0.01475                                   3168800300257 
7.0427     0.98019    0.01453                                     3168800300258 
7.10745      0.95908    0.01447                                   3168800300259 
7.17309      1.00183    0.015                                     3168800300260 
7.23965      0.99335    0.0148                                    3168800300261 
7.30714      0.96537    0.01435                                   3168800300262 
7.37558      0.99714    0.01469                                   3168800300263 
7.44498      0.99178    0.01472                                   3168800300264 
7.51537      0.97904    0.01456                                   3168800300265 
7.58676      0.98717    0.01453                                   3168800300266 
7.65917      0.98159    0.01463                                   3168800300267 
7.73263      0.93957    0.01393                                   3168800300268 
7.80714      0.96636    0.01438                                   3168800300269 
7.88274      0.99469    0.01475                                   3168800300270 
7.95944      0.98759    0.0147                                    3168800300271 
8.03727      0.9994     0.01476                                   3168800300272 
8.11625      1.00571    0.01472                                   3168800300273 
8.19639      0.96892    0.01424                                   3168800300274 
8.27773      0.9787     0.01436                                   3168800300275 
8.36028      0.97983    0.01446                                   3168800300276 
8.44408      0.9746     0.01424                                   3168800300277 
8.52914      0.98901    0.01451                                   3168800300278 
8.61549      1.00152    0.01465                                   3168800300279 
8.70316      0.9847     0.01442                                   3168800300280 
8.79218      0.95265    0.01401                                   3168800300281 
8.88256      0.97631    0.01439                                   3168800300282 
8.913      0.89926    0.02315                                     3168800300283 
8.9436     0.95515    0.02412                                     3168800300284 
8.97435      0.91094    0.02308                                   3168800300285 
9.00527      0.98412    0.02466                                   3168800300286 
9.03634      0.95201    0.02447                                   3168800300287 
9.06757      0.95377    0.02381                                   3168800300288 
9.09897      0.95464    0.02416                                   3168800300289 
9.13053      0.92831    0.02362                                   3168800300290 
9.16225      0.91847    0.02351                                   3168800300291 
9.19414      0.93908    0.0241                                    3168800300292 
9.2262     0.95504    0.02475                                     3168800300293 
9.25842      0.87651    0.02276                                   3168800300294 
9.29082      0.85696    0.02252                                   3168800300295 
9.32338      0.82796    0.0217                                    3168800300296 
9.35612      0.73887    0.01966                                   3168800300297 
9.38902      0.70472    0.01948                                   3168800300298 
9.42211      0.65813    0.01824                                   3168800300299 
9.45536      0.6613     0.01819                                   3168800300300 
9.4888     0.67395    0.01904                                     3168800300301 
9.52241      0.71115    0.0194                                    3168800300302 
9.5562     0.78804    0.02063                                     3168800300303 
9.59017      0.81319    0.02115                                   3168800300304 
9.62432      0.90108    0.02305                                   3168800300305 
9.65865      0.91815    0.02355                                   3168800300306 
9.69317      0.89987    0.02288                                   3168800300307 
9.72788      0.93417    0.02369                                   3168800300308 
9.76277      0.97991    0.02487                                   3168800300309 
9.79785      0.96517    0.01397                                   3168800300310 
9.90422      0.96376    0.01389                                   3168800300311 
10.01234   0.97304    0.01402                                     3168800300312 
10.12224   0.97463    0.01408                                     3168800300313 
10.23396   0.98981    0.0142                                      3168800300314 
10.34754   0.98121    0.0141                                      3168800300315 
10.46302   1.00528    0.01438                                     3168800300316 
10.58045   0.96289    0.01377                                     3168800300317 
10.69986   0.97139    0.01387                                     3168800300318 
10.8213    0.95185    0.01357                                     3168800300319 
10.94483   0.99536    0.01425                                     3168800300320 
11.07048   0.98832    0.01418                                     3168800300321 
11.19831   0.98163    0.01395                                     3168800300322 
11.32836   1.00556    0.01433                                     3168800300323 
11.4607    0.94314    0.01335                                     3168800300324 
11.59536   0.98101    0.01388                                     3168800300325 
11.73242   1.00583    0.0143                                      3168800300326 
11.87191   1.01182    0.01422                                     3168800300327 
12.01392   0.99169    0.01395                                     3168800300328 
12.15848   0.97789    0.01371                                     3168800300329 
12.30567   0.98164    0.01389                                     3168800300330 
12.45555   0.94861    0.0133                                      3168800300331 
12.60818   1.00105    0.01413                                     3168800300332 
12.76364   0.98561    0.01381                                     3168800300333 
12.92199   0.98312    0.01383                                     3168800300334 
13.0833    1.00397    0.01405                                     3168800300335 
13.24765   0.98958    0.01375                                     3168800300336 
13.41512   1.02097    0.0142                                      3168800300337 
13.58579   0.96499    0.01342                                     3168800300338 
13.75973   0.96151    0.01335                                     3168800300339 
13.93704   0.99831    0.01382                                     3168800300340 
14.1178    0.9795     0.01351                                     3168800300341 
14.30209   1.01004    0.01406                                     3168800300342 
14.49002   1.01063    0.01397                                     3168800300343 
14.68167   1.00381    0.0139                                      3168800300344 
14.87716   0.9871     0.01363                                     3168800300345 
15.07657   0.96456    0.01331                                     3168800300346 
15.14393   0.931      0.02259                                     3168800300347 
15.21175   0.94359    0.02257                                     3168800300348 
15.28002   0.93059    0.02216                                     3168800300349 
15.34875   0.94008    0.02249                                     3168800300350 
15.41795   0.98324    0.02374                                     3168800300351 
15.48762   0.91902    0.02239                                     3168800300352 
15.55776   0.83868    0.02089                                     3168800300353 
15.62837   0.82634    0.02043                                     3168800300354 
15.69947   0.78761    0.01969                                     3168800300355 
15.77106   0.8132     0.0201                                      3168800300356 
15.84313   0.87334    0.02125                                     3168800300357 
15.9157    0.95919    0.023                                       3168800300358 
15.98878   0.96322    0.02304                                     3168800300359 
16.06235   0.9682     0.02295                                     3168800300360 
16.13644   0.95683    0.02262                                     3168800300361 
16.21103   0.95118    0.01306                                     3168800300362 
16.43796   1.0022     0.01353                                     3168800300363 
16.66968   1.00733    0.01375                                     3168800300364 
16.90634   0.98784    0.01338                                     3168800300365 
17.14807   0.9786     0.01326                                     3168800300366 
17.39503   1.00166    0.01363                                     3168800300367 
17.64736   0.99989    0.01352                                     3168800300368 
17.90522   0.98903    0.01337                                     3168800300369 
18.16877   1.00782    0.0135                                      3168800300370 
18.43819   0.97779    0.01302                                     3168800300371 
18.71364   1.00063    0.01335                                     3168800300372 
18.99531   0.9924     0.01315                                     3168800300373 
19.28339   0.96138    0.01271                                     3168800300374 
19.57807   0.98218    0.01306                                     3168800300375 
19.87956   1.01414    0.01355                                     3168800300376 
20.18807   0.93523    0.01268                                     3168800300377 
20.2925      0.88118    0.02078                                   3168800300378 
20.39774   0.87053    0.02021                                     3168800300379 
20.50381   0.89979    0.02118                                     3168800300380 
20.6107    0.94908    0.02215                                     3168800300381 
20.71844   0.94953    0.02183                                     3168800300382 
20.82702   1.02095    0.02354                                     3168800300383 
20.93646   0.96135    0.02212                                     3168800300384 
21.04676   0.99383    0.01319                                     3168800300385 
21.38294   0.99711    0.01335                                     3168800300386 
21.72725   0.99529    0.0132                                      3168800300387 
22.07994   0.99363    0.01306                                     3168800300388 
22.44128   0.97523    0.01263                                     3168800300389 
22.81157   0.97972    0.01289                                     3168800300390 
23.1911      1.02838    0.01343                                   3168800300391 
23.58018   0.99084    0.01293                                     3168800300392 
23.97914   0.99151    0.0129                                      3168800300393 
24.38831   0.97843    0.0127                                      3168800300394 
24.80804   0.93127    0.01212                                     3168800300395 
24.95036   0.93993    0.02128                                     3168800300396 
25.09391   0.95153    0.0216                                      3168800300397 
25.2387      0.93026    0.02078                                   3168800300398 
25.38474   0.97015    0.02199                                     3168800300399 
25.53206   0.89718    0.02069                                     3168800300400 
25.68067   0.86834    0.01969                                     3168800300401 
25.83057   0.83636    0.01922                                     3168800300402 
25.9818      0.80345    0.01893                                   3168800300403 
26.13435   0.65663    0.01646                                     3168800300404 
26.28825   0.60702    0.01543                                     3168800300405 
26.44352   0.62489    0.01584                                     3168800300406 
26.60017   0.67949    0.01656                                     3168800300407 
26.75821   0.79217    0.01827                                     3168800300408 
26.91766   0.85898    0.01939                                     3168800300409 
27.07854   0.96593    0.02142                                     3168800300410 
27.24088   0.92636    0.02086                                     3168800300411 
27.40467   0.92079    0.02073                                     3168800300412 
27.56995   0.84282    0.0192                                      3168800300413 
27.73672   0.92663    0.02089                                     3168800300414 
27.90502   0.96494    0.02134                                     3168800300415 
28.07485   0.92576    0.02066                                     3168800300416 
28.24623   0.99096    0.02166                                     3168800300417 
28.41919   0.96023    0.02111                                     3168800300418 
28.59374   0.98713    0.02162                                     3168800300419 
28.76991   0.97925    0.0215                                      3168800300420 
28.94771   0.98571    0.02159                                     3168800300421 
29.12716   0.97007    0.02157                                     3168800300422 
29.30829   0.97119    0.01236                                     3168800300423 
29.86192   0.97587    0.01237                                     3168800300424 
30.43139   0.97431    0.01229                                     3168800300425 
31.0173      0.98741    0.01242                                   3168800300426 
31.62031   0.98075    0.01227                                     3168800300427 
32.24106   0.98099    0.01227                                     3168800300428 
32.88028   0.96447    0.01209                                     3168800300429 
33.5387      1.0153     0.01262                                   3168800300430 
34.2171      0.97912    0.01212                                   3168800300431 
34.91629   1.00672    0.01239                                     3168800300432 
35.63713   0.98176    0.01212                                     3168800300433 
36.38052   1.00414    0.01237                                     3168800300434 
37.14742   0.96987    0.01194                                     3168800300435 
37.93883   0.95092    0.01167                                     3168800300436 
38.75581   0.9914     0.01199                                     3168800300437 
39.59945   0.95504    0.0116                                      3168800300438 
40.47095   0.99327    0.01199                                     3168800300439 
41.37154   0.96965    0.01163                                     3168800300440 
42.30253   0.96226    0.0117                                      3168800300441 
43.26529   0.99774    0.01205                                     3168800300442 
44.26131   0.98766    0.01185                                     3168800300443 
45.29212   1.01736    0.01223                                     3168800300444 
46.35936   0.97012    0.01148                                     3168800300445 
47.46477   0.99622    0.0117                                      3168800300446 
48.6102      0.98883    0.01165                                   3168800300447 
49.7976      0.94928    0.0112                                    3168800300448 
50.20308   0.94241    0.01947                                     3168800300449 
50.61353   1.01954    0.02091                                     3168800300450 
51.02904   0.94363    0.01918                                     3168800300451 
51.44968   0.99074    0.02014                                     3168800300452 
51.87555   0.95377    0.01923                                     3168800300453 
52.30672   0.97654    0.01984                                     3168800300454 
52.7433      0.97421    0.01984                                   3168800300455 
53.18536   0.91873    0.01872                                     3168800300456 
53.63301   0.88801    0.01823                                     3168800300457 
54.08633   0.91488    0.01886                                     3168800300458 
54.54542   0.95164    0.01943                                     3168800300459 
55.01038   0.96607    0.01964                                     3168800300460 
55.48132   1.00773    0.02028                                     3168800300461 
55.95832   0.9697     0.01945                                     3168800300462 
56.44151   0.91231    0.01834                                     3168800300463 
56.93098   0.9952     0.01994                                     3168800300464 
57.42684   0.95401    0.01931                                     3168800300465 
57.92921   1.03618    0.02065                                     3168800300466 
58.4382      1.06175    0.02126                                   3168800300467 
58.95393   0.98442    0.01963                                     3168800300468 
59.47652   0.9832     0.0194                                      3168800300469 
60.00609   0.93911    0.0187                                      3168800300470 
60.54276   0.9584     0.01884                                     3168800300471 
61.08666   0.95137    0.019                                       3168800300472 
61.63793   1.01002    0.01998                                     3168800300473 
62.19669   1.00357    0.01998                                     3168800300474 
62.76309   0.97631    0.01936                                     3168800300475 
63.33725   0.98265    0.0196                                      3168800300476 
63.91934   0.98838    0.01968                                     3168800300477 
64.50948   0.98173    0.01934                                     3168800300478 
65.10783   0.97317    0.01911                                     3168800300479 
65.71455   0.97278    0.01918                                     3168800300480 
66.32979   0.9894     0.0193                                      3168800300481 
66.95371   1.02547    0.02025                                     3168800300482 
67.58647   0.98292    0.01913                                     3168800300483 
68.22825   0.99224    0.01934                                     3168800300484 
68.87921   0.98093    0.01888                                     3168800300485 
69.53953   0.9771     0.0192                                      3168800300486 
70.20939   0.95302    0.01859                                     3168800300487 
70.88898   0.94199    0.01827                                     3168800300488 
71.57849   0.94611    0.01859                                     3168800300489 
72.2781      0.90377    0.01778                                   3168800300490 
72.98802   0.86669    0.01734                                     3168800300491 
73.70845   0.8522     0.01708                                     3168800300492 
74.4396      0.91458    0.01797                                   3168800300493 
75.18168   0.97464    0.01902                                     3168800300494 
75.93492   0.98223    0.01899                                     3168800300495 
76.69953   0.97879    0.0189                                      3168800300496 
77.47575   1.01461    0.01944                                     3168800300497 
78.26381   0.94048    0.01806                                     3168800300498 
79.06396   0.92081    0.01784                                     3168800300499 
79.87644   0.88817    0.01741                                     3168800300500 
80.70151   0.91559    0.01773                                     3168800300501 
81.53944   0.99982    0.01918                                     3168800300502 
82.39047   0.92851    0.01767                                     3168800300503 
83.25491   1.00647    0.01933                                     3168800300504 
84.13302   0.93047    0.01799                                     3168800300505 
85.02509   1.01123    0.01889                                     3168800300506 
85.93143   0.97871    0.01869                                     3168800300507 
86.85234   1.00452    0.01907                                     3168800300508 
87.78813   0.94679    0.01808                                     3168800300509 
88.73912   0.97578    0.01881                                     3168800300510 
89.70566   0.92356    0.01769                                     3168800300511 
90.68807   0.92007    0.01762                                     3168800300512 
91.68671   0.90748    0.01738                                     3168800300513 
92.70193   0.86132    0.01658                                     3168800300514 
93.73411   0.79033    0.01585                                     3168800300515 
94.78363   0.68211    0.01383                                     3168800300516 
95.85087   0.74208    0.01496                                     3168800300517 
96.93624   0.87067    0.01668                                     3168800300518 
98.04015   0.91512    0.01732                                     3168800300519 
99.16303   0.97966    0.01836                                     3168800300520 
100.3053   0.97826    0.01813                                     3168800300521 
101.4674   1.02853    0.01899                                     3168800300522 
102.6499   0.96827    0.01798                                     3168800300523 
103.8531   0.97538    0.01796                                     3168800300524 
105.0776   0.94168    0.01746                                     3168800300525 
106.3239   0.94476    0.01733                                     3168800300526 
107.5925   0.96337    0.01779                                     3168800300527 
108.884      0.97975    0.01817                                   3168800300528 
110.1988   1.00384    0.01833                                     3168800300529 
111.5376   0.97876    0.018                                       3168800300530 
112.9009   0.96393    0.01782                                     3168800300531 
114.2895   0.98655    0.01815                                     3168800300532 
115.7037   1.01819    0.01869                                     3168800300533 
117.1444   1.00593    0.01822                                     3168800300534 
118.6122   0.96094    0.01762                                     3168800300535 
120.1077   0.98556    0.01792                                     3168800300536 
121.6317   0.99025    0.01804                                     3168800300537 
ENDDATA            530          0                                 3168800300538 
ENDSUBENT          537          0                                 3168800399999 
SUBENT        31688004   20100506                             31453168800400001 
BIB                  4          7                                 3168800400002 
REACTION  1(68-ER-166(N,0),,EN)                                   3168800400003 
          2(68-ER-166(N,G),,WID)                                  3168800400004 
          3(68-ER-166(N,EL),,WID,,G)                              3168800400005 
ANALYSIS   (MLA) Analyzed by Multilevel R-Matrix code SAMMY       3168800400006 
ERR-ANALYS (DATA-ERR) No information on source of uncertainties   3168800400007 
STATUS     (TABLE) Table 2 of J,NIM/B,268,106,2010                3168800400008 
           (DEP,31688003) Transmission data                       3168800400009 
ENDBIB               7          0                                 3168800400010 
NOCOMMON             0          0                                 3168800400011 
DATA                 8          4                                 3168800400012 
SPIN J     MOMENTUM L DATA      1DATA-ERR  1DATA      2DATA-ERR  23168800400013 
DATA      3DATA-ERR  3                                            3168800400014 
NO-DIM     NO-DIM     EV         EV         MILLI-EV   MILLI-EV   3168800400015 
MILLI-EV   MILLI-EV                                               3168800400016 
0.5        0.         15.673     0.001      120.7      7.7        3168800400017 
3.38       0.07                                                   3168800400018 
0.5        0.         73.33      0.07       81.86      8.11       3168800400019 
58.76      4.13                                                   3168800400020 
0.5        0.         82.57      0.10       82.72      8.27       3168800400021 
10.04      1.01                                                   3168800400022 
1.5        1.         110.638    0.738      89.0       8.9        3168800400023 
0.063      0.006                                                  3168800400024 
ENDDATA             12          0                                 3168800400025 
ENDSUBENT           24          0                                 3168800499999 
SUBENT        31688005   20100506                             31453168800500001 
BIB                  4          7                                 3168800500002 
REACTION  1(68-ER-167(N,0),,EN)                                   3168800500003 
          2(68-ER-167(N,G),,WID)                                  3168800500004 
          3(68-ER-167(N,EL),,WID,,G)                              3168800500005 
ANALYSIS   (MLA) Analyzed by Multilevel R-Matrix code SAMMY       3168800500006 
ERR-ANALYS (DATA-ERR) No information on source of uncertainties   3168800500007 
STATUS     (TABLE) Table 2 of J,NIM/B,268,106,2010                3168800500008 
           (DEP,31688003) Transmission data                       3168800500009 
ENDBIB               7          0                                 3168800500010 
NOCOMMON             0          0                                 3168800500011 
DATA                 8         30                                 3168800500012 
SPIN J     MOMENTUM L DATA      1DATA-ERR  1DATA      2DATA-ERR  23168800500013 
DATA      3DATA-ERR  3                                            3168800500014 
NO-DIM     NO-DIM     EV         EV         MILLI-EV   MILLI-EV   3168800500015 
MILLI-EV   MILLI-EV                                               3168800500016 
4.         0.         0.4638     0.0004     94.72      0.94       3168800500017 
0.1527     0.0015                                                 3168800500018 
3.         0.         0.5907     0.0006     89.864     2.133      3168800500019 
0.1068     0.0020                                                 3168800500020 
3.         0.         6.036      0.001      136.7      0.8        3168800500021 
10.258     0.027                                                  3168800500022 
4.         0.         7.826      0.059      98.40      9.87       3168800500023 
0.098      0.010                                                  3168800500024 
3.         0.         9.451      0.005      158.97     9.78       3168800500025 
4.537      0.186                                                  3168800500026 
4.         0.         20.397     0.024      85.72      8.52       3168800500027 
3.46       0.26                                                   3168800500028 
3.         0.         22.31      0.11       87.25      8.73       3168800500029 
0.57       0.06                                                   3168800500030 
3.         0.         26.31      0.01       273.8      8.6        3168800500031 
44.1       0.4                                                    3168800500032 
4.         0.         27.59      0.04       90.18      8.97       3168800500033 
5.43       0.46                                                   3168800500034 
4.         0.         32.73      0.09       91.64      9.15       3168800500035 
3.66       0.35                                                   3168800500036 
4.         0.         37.699     0.104      81.94      8.19       3168800500037 
4.52       0.43                                                   3168800500038 
3.         0.         39.45      0.13       90.2       9.1        3168800500039 
4.1        0.4                                                    3168800500040 
3.         0.         42.55      0.22       99.62      9.97       3168800500041 
1.83       0.18                                                   3168800500042 
4.         0.         49.83      0.21       82.85      8.29       3168800500043 
4.38       0.43                                                   3168800500044 
4.         0.         53.69      0.07       102.34     10.15      3168800500045 
27.55      2.19                                                   3168800500046 
3.         0.         60.32      0.26       91.68      9.17       3168800500047 
7.36       0.71                                                   3168800500048 
4.         0.         61.813     0.341      88.43      8.84       3168800500049 
3.09       0.31                                                   3168800500050 
3.         0.         63.092     0.351      88.04      8.80       3168800500051 
3.11       0.31                                                   3168800500052 
4.         0.         73.328     0.071      81.86      8.11       3168800500053 
58.76      4.13                                                   3168800500054 
4.         0.         74.605     0.441      88.04      8.81       3168800500055 
3.25       0.32                                                   3168800500056 
4.         0.         75.754     0.459      88.0       8.8        3168800500057 
0.592      0.059                                                  3168800500058 
3.         0.         78.946     0.468      88.03      8.80       3168800500059 
5.16       0.51                                                   3168800500060 
3.         0.         85.378     0.531      88.02      8.80       3168800500061 
0.621      0.062                                                  3168800500062 
4.         0.         90.71      0.57       87.97      8.80       3168800500063 
1.74       0.17                                                   3168800500064 
4.         0.         92.34      0.04       80.07      8.01       3168800500065 
9.61       0.96                                                   3168800500066 
4.         0.         97.56      0.63       87.99      8.80       3168800500067 
0.482      0.048                                                  3168800500068 
4.         0.         98.18      0.63       88.0       8.8        3168800500069 
0.12       0.01                                                   3168800500070 
3.         0.         106.15     0.60       82.14      8.21       3168800500071 
24.23      2.35                                                   3168800500072 
4.         0.         112.88     0.76       87.99      8.80       3168800500073 
0.70       0.07                                                   3168800500074 
3.         0.         115.44     0.78       88.02      8.80       3168800500075 
1.59       0.16                                                   3168800500076 
ENDDATA             64          0                                 3168800500077 
ENDSUBENT           76          0                                 3168800599999 
SUBENT        31688006   20100506                             31453168800600001 
BIB                  4          7                                 3168800600002 
REACTION  1(68-ER-168(N,0),,EN)                                   3168800600003 
          2(68-ER-168(N,G),,WID)                                  3168800600004 
          3(68-ER-168(N,EL),,WID,,G)                              3168800600005 
ANALYSIS   (MLA) Analyzed by Multilevel R-Matrix code SAMMY       3168800600006 
ERR-ANALYS (DATA-ERR) No information on source of uncertainties   3168800600007 
STATUS     (TABLE) Table 2 of J,NIM/B,268,106,2010                3168800600008 
           (DEP,31688003) Transmission data                       3168800600009 
ENDBIB               7          0                                 3168800600010 
NOCOMMON             0          0                                 3168800600011 
DATA                 8          1                                 3168800600012 
SPIN J     MOMENTUM L DATA      1DATA-ERR  1DATA      2DATA-ERR  23168800600013 
DATA      3DATA-ERR  3                                            3168800600014 
NO-DIM     NO-DIM     EV         EV         MILLI-EV   MILLI-EV   3168800600015 
MILLI-EV   MILLI-EV                                               3168800600016 
0.5        0.         79.896     0.137      81.18      8.10       3168800600017 
50.17      4.20                                                   3168800600018 
ENDDATA              6          0                                 3168800600019 
ENDSUBENT           18          0                                 3168800699999 
SUBENT        31688007   20100506                             31453168800700001 
BIB                  4          7                                 3168800700002 
REACTION  1(68-ER-170(N,0),,EN)                                   3168800700003 
          2(68-ER-170(N,G),,WID)                                  3168800700004 
          3(68-ER-170(N,EL),,WID,,G)                              3168800700005 
ANALYSIS   (MLA) Analyzed by Multilevel R-Matrix code SAMMY       3168800700006 
ERR-ANALYS (DATA-ERR) No information on source of uncertainties   3168800700007 
STATUS     (TABLE) Table 2 of J,NIM/B,268,106,2010                3168800700008 
           (DEP,31688003) Transmission data                       3168800700009 
ENDBIB               7          0                                 3168800700010 
NOCOMMON             0          0                                 3168800700011 
DATA                 8          1                                 3168800700012 
SPIN J     MOMENTUM L DATA      1DATA-ERR  1DATA      2DATA-ERR  23168800700013 
DATA      3DATA-ERR  3                                            3168800700014 
NO-DIM     NO-DIM     EV         EV         MILLI-EV   MILLI-EV   3168800700015 
MILLI-EV   MILLI-EV                                               3168800700016 
0.5        0.         95.059     0.055      77.78      7.69       3168800700017 
684.95     27.05                                                  3168800700018 
ENDDATA              6          0                                 3168800700019 
ENDSUBENT           18          0                                 3168800799999 
ENDENTRY             7          0                                 3168899999999 
