ENTRY            32848   20211208                             32073284800000001 
SUBENT        32848001   20211208                             32073284800100001 
BIB                 12         31                                 3284800100002 
TITLE      Measurement of neutron total cross sections of 209Bi   3284800100003 
           at the pohang neutron facility                         3284800100004 
AUTHOR     (Wang Taofeng,A.K.M.M.H.Meaze,G.N.Kim)                 3284800100005 
INSTITUTE  (3CPRBHN,3KORKNU)                                      3284800100006 
           (3BANBAN) University of Chittagong, Chittagong         3284800100007 
REFERENCE  (J,CNPR,32,280,2015)                                   3284800100008 
           #doi:10.11804/NuclPhysRev.32.03.280                    3284800100009 
FACILITY   (LINAC,3KORPUE) Pohang Neutron Facility (PNF),         3284800100010 
            which consists of an electron linear accelerator, a   3284800100011 
            water-cooled tantalum target with a water moderator   3284800100012 
            and a 12 m long TOF path.                             3284800100013 
INC-SOURCE (PHOTO) Pulsed neutrons were produced via the          3284800100014 
            181Ta(g, xn) reaction by bombarding a metallic        3284800100015 
            Ta target with the pulsed electron beam.              3284800100016 
SAMPLE     A high purity (99.90%) natural bismuth metal plate     3284800100017 
            (9.8 g/cm3) shaped as square sheets (50.06 +- 0.01 mm 3284800100018 
            x 50.14 +- 0.01 mm) and with a thickness of           3284800100019 
            3.0 +- 0.1 mm was used as the transmission            3284800100020 
            measurement sample.                                   3284800100021 
           A set of notch filters of Co, In, and Cd plates which  3284800100022 
            have the same size as that of Bi sample were used for 3284800100023 
            the background measurement and energy calibration.    3284800100024 
DETECTOR   (SCIN) A 6Li-ZnS (Ag) scintillator (BC702) with a      3284800100025 
            diameter of 12.5 cm and a thickness of 1.6 cm mounted 3284800100026 
            on an EMI-93090 photomultiplier was used as a neutron 3284800100027 
            detector.                                             3284800100028 
METHOD     (TOF,TRN)                                              3284800100029 
ERR-ANALYS (DATA-ERR) No information                              3284800100030 
STATUS     (TABLE) Data received from Wang Taofeng                3284800100031 
HISTORY    (20211208C) Jimin Wang (CNDC)                          3284800100032 
           (20220118R) Data received by the Email                 3284800100033 
ENDBIB              31          0                                 3284800100034 
NOCOMMON             0          0                                 3284800100035 
ENDSUBENT           34          0                                 3284800199999 
SUBENT        32848002   20211208                             32073284800200001 
BIB                  1          1                                 3284800200002 
REACTION   (83-BI-209(N,TOT),,SIG)                                3284800200003 
ENDBIB               1          0                                 3284800200004 
NOCOMMON             0          0                                 3284800200005 
DATA                 3         42                                 3284800200006 
EN         DATA       DATA-ERR                                    3284800200007 
EV         B          B                                           3284800200008 
   93.37632    9.07441    0.56470                                 3284800200009 
   87.44771    9.56408    0.57720                                 3284800200010 
   82.51480    9.84730    0.58159                                 3284800200011 
   76.82416    9.16413    0.60145                                 3284800200012 
   71.33675    9.56261    0.61652                                 3284800200013 
   64.93887    9.25959    0.63241                                 3284800200014 
   58.03051    9.89902    0.65743                                 3284800200015 
   52.39194    9.47153    0.67877                                 3284800200016 
   47.90705    9.52867    0.70168                                 3284800200017 
   42.87335    9.84412    0.72653                                 3284800200018 
   38.25853    9.54355    0.74447                                 3284800200019 
   34.73473    9.29769    0.76659                                 3284800200020 
   30.31395    9.89887    0.59742                                 3284800200021 
   26.40529    9.43022    0.52414                                 3284800200022 
   22.87073    9.85191    0.56672                                 3284800200023 
   19.42065    9.32263    0.50436                                 3284800200024 
   16.44282    9.12591    0.54335                                 3284800200025 
   13.43539    9.77906    0.59272                                 3284800200026 
   10.97264    9.30067    0.54557                                 3284800200027 
    8.94528    9.59985    0.50108                                 3284800200028 
    7.47929    9.30244    0.54539                                 3284800200029 
    6.48135    9.09215    0.59041                                 3284800200030 
    5.47591    9.37503    0.53915                                 3284800200031 
    4.47116    9.22921    0.59391                                 3284800200032 
    3.46326    9.56372    0.56590                                 3284800200033 
    2.89319    9.50732    0.29885                                 3284800200034 
    2.44652    9.33976    0.31053                                 3284800200035 
    2.09271    9.56905    0.35379                                 3284800200036 
    1.68722    9.68722    0.39349                                 3284800200037 
    1.34075    8.46810    0.30213                                 3284800200038 
    1.10557    9.17992    0.47163                                 3284800200039 
    0.90310    9.01251    0.42101                                 3284800200040 
    0.74735    9.25036    0.54536                                 3284800200041 
    0.64681    8.76609    0.37026                                 3284800200042 
    0.54764    9.08234    0.59434                                 3284800200043 
    0.44751    9.09029    0.62245                                 3284800200044 
    0.37727    8.57377    0.66189                                 3284800200045 
    0.32845    8.77503    0.70546                                 3284800200046 
    0.27276    9.34241    0.73837                                 3284800200047 
    0.22261    9.11722    0.71708                                 3284800200048 
    0.17322    8.97842    0.54509                                 3284800200049 
    0.12251    9.06227    0.19152                                 3284800200050 
ENDDATA             44          0                                 3284800200051 
ENDSUBENT           50          0                                 3284800299999 
ENDENTRY             2          0                                 3284899999999 
