ENTRY            32868   20230217                             32093286800000001 
SUBENT        32868001   20230217                             32093286800100001 
BIB                 11         25                                 3286800100002 
TITLE      Measurement of total neutron cross section of natural  3286800100003 
           lithium at China Spallation Neutron Source Back-n      3286800100004 
           facility                                               3286800100005 
AUTHOR     (Zhang Jiang-Lin,Jiang Bing,Chen Yong-Hao,Guo Zi-An,   3286800100006 
           Wang Xiao-He,Jiang Wei,Yi Han,Han Jian-Long,           3286800100007 
           Hu Ji-Feng,Tang Jing-Yu,Chen Jin-Gen,Cai Xiang-Zhou)   3286800100008 
INSTITUTE  (3CPRNRS,3CPRUCA,3CPRIHP)                              3286800100009 
           (3CPRCPR) Innovative Academy in TMSR Energy System,    3286800100010 
           Chinese Academy of Sciences, Shanghai                  3286800100011 
REFERENCE  (J,ASI,71,052901,2022)                                 3286800100012 
           #doi:10.7498/aps.71.20211646                           3286800100013 
FACILITY   (SYNCH,3CPRIHP) The Back-n white neutron source at     3286800100014 
           China Spallation Neutron Source (CSNS)                 3286800100015 
SAMPLE     Two high-purity natural lithium samples with diameter  3286800100016 
           of 50.0 mm and thicknesses of 8.0 mm and 15.0 mm,      3286800100017 
           respectively.                                          3286800100018 
DETECTOR   (IOCH) A multi-cell fast fission ionization chamber    3286800100019 
METHOD     (TOF) Flight distance of 76 m.                         3286800100020 
           (TRN) Transmission                                     3286800100021 
INC-SOURCE (SPALL) The measurement was performed in the double-   3286800100022 
           bunch mode with an interval of 410 ns and the proton   3286800100023 
           bunches power was about 100 kW.                        3286800100024 
ERR-ANALYS (DATA-ERR) No information                              3286800100025 
HISTORY    (20230216R) The data received from Hu Ji-Feng          3286800100026 
           (20230217C) Jimin Wang (CNDC)                          3286800100027 
ENDBIB              25          0                                 3286800100028 
NOCOMMON             0          0                                 3286800100029 
ENDSUBENT           28          0                                 3286800199999 
SUBENT        32868002   20230217                             32093286800200001 
BIB                  2          3                                 3286800200002 
REACTION   (3-LI-0(N,TOT),,TRN)                                   3286800200003 
STATUS     (TABLE) Fig.6 of Acta Physica Sinica,71,052901,2022    3286800200004 
                   Data were obtained from AUTHOR                 3286800200005 
ENDBIB               3          0                                 3286800200006 
COMMON               1          3                                 3286800200007 
THICKNESS                                                         3286800200008 
ATOMS/B                                                           3286800200009 
      0.037                                                       3286800200010 
ENDCOMMON            3          0                                 3286800200011 
DATA                 3        463                                 3286800200012 
EN         DATA       DATA-ERR                                    3286800200013 
MEV        NO-DIM     NO-DIM                                      3286800200014 
4.25000E-07    0.51993    0.00994                                 3286800200015 
4.58000E-07    0.52404    0.00642                                 3286800200016 
5.05000E-07    0.55313    0.00596                                 3286800200017 
5.56000E-07    0.56111    0.00569                                 3286800200018 
6.14000E-07    0.57270    0.00543                                 3286800200019 
6.77000E-07    0.58735    0.00532                                 3286800200020 
7.47000E-07    0.60144    0.00521                                 3286800200021 
8.24000E-07    0.60284    0.00508                                 3286800200022 
9.09000E-07    0.62228    0.00485                                 3286800200023 
1.00000E-06    0.63663    0.00433                                 3286800200024 
1.11000E-06    0.65045    0.00346                                 3286800200025 
1.22000E-06    0.65744    0.00476                                 3286800200026 
1.35000E-06    0.67999    0.00726                                 3286800200027 
1.42000E-06    0.66654    0.02061                                 3286800200028 
1.50000E-06    0.67525    0.00874                                 3286800200029 
1.64000E-06    0.70084    0.00861                                 3286800200030 
1.81000E-06    0.72651    0.00895                                 3286800200031 
1.99000E-06    0.73584    0.00743                                 3286800200032 
2.20000E-06    0.74909    0.00976                                 3286800200033 
2.42000E-06    0.72494    0.01045                                 3286800200034 
2.67000E-06    0.76366    0.01135                                 3286800200035 
2.95000E-06    0.75287    0.00710                                 3286800200036 
3.25000E-06    0.77012    0.00627                                 3286800200037 
3.59000E-06    0.77248    0.00565                                 3286800200038 
3.96000E-06    0.76344    0.02146                                 3286800200039 
4.37000E-06    0.77265    0.02174                                 3286800200040 
4.82000E-06    0.79790    0.01129                                 3286800200041 
5.31000E-06    0.78238    0.00913                                 3286800200042 
5.86000E-06    0.79792    0.00644                                 3286800200043 
6.46000E-06    0.81082    0.00426                                 3286800200044 
7.15000E-06    0.81514    0.00640                                 3286800200045 
7.91000E-06    0.85363    0.01439                                 3286800200046 
8.76000E-06    0.83591    0.00185                                 3286800200047 
9.71000E-06    0.84074    0.00426                                 3286800200048 
1.04000E-05    0.84931    0.01167                                 3286800200049 
1.09000E-05    0.86471    0.01025                                 3286800200050 
1.18000E-05    0.84359    0.00341                                 3286800200051 
1.30000E-05    0.86299    0.00387                                 3286800200052 
1.43000E-05    0.85259    0.00392                                 3286800200053 
1.59000E-05    0.87158    0.00494                                 3286800200054 
1.76000E-05    0.85956    0.00429                                 3286800200055 
1.96000E-05    0.87375    0.00280                                 3286800200056 
2.16000E-05    0.88392    0.00527                                 3286800200057 
2.38000E-05    0.88282    0.00377                                 3286800200058 
2.61000E-05    0.88667    0.00422                                 3286800200059 
2.87000E-05    0.91257    0.00578                                 3286800200060 
3.17000E-05    0.89331    0.00400                                 3286800200061 
3.52000E-05    0.89707    0.00252                                 3286800200062 
3.91000E-05    0.89856    0.00444                                 3286800200063 
4.30000E-05    0.90305    0.00412                                 3286800200064 
4.71000E-05    0.90329    0.00441                                 3286800200065 
5.16000E-05    0.90631    0.00268                                 3286800200066 
5.71000E-05    0.90748    0.00217                                 3286800200067 
6.31000E-05    0.90902    0.00485                                 3286800200068 
6.99000E-05    0.91994    0.00321                                 3286800200069 
7.79000E-05    0.91889    0.00379                                 3286800200070 
8.66000E-05    0.92443    0.00357                                 3286800200071 
9.71000E-05    0.91558    0.00400                                 3286800200072 
1.07000E-04    0.92361    0.00516                                 3286800200073 
1.16000E-04    0.92441    0.00451                                 3286800200074 
1.26000E-04    0.92886    0.00417                                 3286800200075 
1.37000E-04    0.92791    0.00525                                 3286800200076 
1.50000E-04    0.93532    0.00475                                 3286800200077 
1.63000E-04    0.93234    0.00443                                 3286800200078 
1.80000E-04    0.92476    0.00419                                 3286800200079 
1.97000E-04    0.92286    0.00500                                 3286800200080 
2.13000E-04    0.92934    0.00463                                 3286800200081 
2.32000E-04    0.93151    0.00428                                 3286800200082 
2.51000E-04    0.93403    0.00499                                 3286800200083 
2.72000E-04    0.94155    0.00363                                 3286800200084 
2.98000E-04    0.94902    0.00483                                 3286800200085 
3.26000E-04    0.93825    0.00572                                 3286800200086 
3.58000E-04    0.94247    0.00599                                 3286800200087 
3.92000E-04    0.95896    0.00607                                 3286800200088 
4.26000E-04    0.95156    0.00488                                 3286800200089 
4.63000E-04    0.93868    0.00454                                 3286800200090 
5.02000E-04    0.94548    0.00428                                 3286800200091 
5.44000E-04    0.94010    0.00474                                 3286800200092 
5.94000E-04    0.94740    0.00419                                 3286800200093 
6.48000E-04    0.95031    0.00510                                 3286800200094 
7.13000E-04    0.95238    0.00453                                 3286800200095 
7.83000E-04    0.94667    0.00503                                 3286800200096 
8.46000E-04    0.94638    0.00638                                 3286800200097 
9.07000E-04    0.95376    0.00497                                 3286800200098 
9.69000E-04    0.94644    0.00744                                 3286800200099 
1.07000E-03    0.94619    0.00468                                 3286800200100 
1.21000E-03    0.95523    0.00417                                 3286800200101 
1.35000E-03    0.94868    0.00454                                 3286800200102 
1.50000E-03    0.93798    0.00498                                 3286800200103 
1.71000E-03    0.95083    0.00395                                 3286800200104 
1.95000E-03    0.93713    0.00415                                 3286800200105 
2.21000E-03    0.94510    0.00493                                 3286800200106 
2.55000E-03    0.94884    0.00435                                 3286800200107 
2.93000E-03    0.96273    0.00448                                 3286800200108 
3.38000E-03    0.95785    0.00409                                 3286800200109 
3.90000E-03    0.94506    0.00460                                 3286800200110 
4.43000E-03    0.94575    0.00457                                 3286800200111 
5.10000E-03    0.95869    0.00414                                 3286800200112 
5.86000E-03    0.95239    0.00473                                 3286800200113 
6.77000E-03    0.94872    0.00425                                 3286800200114 
7.77000E-03    0.95200    0.00533                                 3286800200115 
8.73000E-03    0.96408    0.00533                                 3286800200116 
9.62000E-03    0.97450    0.00584                                 3286800200117 
1.05400E-02    0.95652    0.00536                                 3286800200118 
1.13800E-02    0.94210    0.00687                                 3286800200119 
1.23900E-02    0.96957    0.00643                                 3286800200120 
1.33100E-02    0.94561    0.00624                                 3286800200121 
1.43000E-02    0.93715    0.00592                                 3286800200122 
1.54400E-02    0.94646    0.00609                                 3286800200123 
1.65800E-02    0.95064    0.00733                                 3286800200124 
1.77800E-02    0.94564    0.00616                                 3286800200125 
1.93300E-02    0.97661    0.00553                                 3286800200126 
2.11700E-02    0.95588    0.00514                                 3286800200127 
2.29900E-02    0.94042    0.00532                                 3286800200128 
2.47700E-02    0.94728    0.00465                                 3286800200129 
2.66100E-02    0.96478    0.00478                                 3286800200130 
3.08800E-02    0.97631    0.00555                                 3286800200131 
3.31700E-02    0.98040    0.00630                                 3286800200132 
3.55600E-02    0.93724    0.00642                                 3286800200133 
3.87300E-02    0.95309    0.00502                                 3286800200134 
4.18800E-02    0.95791    0.00539                                 3286800200135 
4.49100E-02    0.97997    0.00462                                 3286800200136 
4.85000E-02    0.96361    0.00441                                 3286800200137 
5.12500E-02    0.95421    0.00676                                 3286800200138 
5.33400E-02    0.94998    0.00598                                 3286800200139 
5.65800E-02    0.96924    0.00432                                 3286800200140 
6.05100E-02    0.95654    0.00443                                 3286800200141 
6.47900E-02    0.95041    0.00392                                 3286800200142 
7.06800E-02    0.96725    0.00331                                 3286800200143 
7.75500E-02    0.94957    0.00383                                 3286800200144 
8.37800E-02    0.95745    0.00409                                 3286800200145 
9.04600E-02    0.96969    0.00427                                 3286800200146 
9.73500E-02    0.96137    0.00402                                 3286800200147 
1.01420E-01    0.95542    0.00846                                 3286800200148 
1.07000E-01    0.97129    0.00313                                 3286800200149 
1.15930E-01    0.95807    0.00342                                 3286800200150 
1.25450E-01    0.95594    0.00317                                 3286800200151 
1.35030E-01    0.95646    0.00306                                 3286800200152 
1.45490E-01    0.95665    0.00364                                 3286800200153 
1.55570E-01    0.96330    0.00337                                 3286800200154 
1.68110E-01    0.94999    0.00287                                 3286800200155 
1.77550E-01    0.95824    0.00471                                 3286800200156 
1.90000E-01    0.94329    0.00238                                 3286800200157 
2.05000E-01    0.92610    0.00355                                 3286800200158 
2.12990E-01    0.92008    0.00456                                 3286800200159 
2.17990E-01    0.89618    0.00566                                 3286800200160 
2.25000E-01    0.87533    0.00357                                 3286800200161 
2.34990E-01    0.81554    0.00362                                 3286800200162 
2.40350E-01    0.77244    0.01357                                 3286800200163 
2.45360E-01    0.75528    0.00380                                 3286800200164 
2.55000E-01    0.70647    0.00382                                 3286800200165 
2.63280E-01    0.72720    0.00437                                 3286800200166 
2.68280E-01    0.70881    0.00646                                 3286800200167 
2.71290E-01    0.73583    0.00754                                 3286800200168 
2.75880E-01    0.75270    0.00473                                 3286800200169 
2.79590E-01    0.78593    0.01271                                 3286800200170 
2.82130E-01    0.78458    0.00555                                 3286800200171 
2.87130E-01    0.81091    0.00502                                 3286800200172 
2.91010E-01    0.80021    0.00852                                 3286800200173 
2.96010E-01    0.84871    0.00411                                 3286800200174 
3.02920E-01    0.86552    0.00475                                 3286800200175 
3.07920E-01    0.92058    0.00584                                 3286800200176 
3.10520E-01    0.90095    0.01177                                 3286800200177 
3.14320E-01    0.89872    0.00466                                 3286800200178 
3.18800E-01    0.90604    0.00738                                 3286800200179 
3.21010E-01    0.90621    0.00795                                 3286800200180 
3.24540E-01    0.89453    0.00509                                 3286800200181 
3.28540E-01    0.92460    0.00693                                 3286800200182 
3.32390E-01    0.92453    0.00534                                 3286800200183 
3.37390E-01    0.92610    0.00492                                 3286800200184 
3.40830E-01    0.92384    0.00863                                 3286800200185 
3.44950E-01    0.92076    0.00452                                 3286800200186 
3.49120E-01    0.93072    0.00891                                 3286800200187 
3.54200E-01    0.92229    0.00407                                 3286800200188 
3.63220E-01    0.94948    0.00449                                 3286800200189 
3.71820E-01    0.93832    0.00357                                 3286800200190 
3.78600E-01    0.93973    0.00712                                 3286800200191 
3.84100E-01    0.95077    0.00412                                 3286800200192 
3.94100E-01    0.94607    0.00338                                 3286800200193 
4.08560E-01    0.95125    0.00304                                 3286800200194 
4.28340E-01    0.94919    0.00261                                 3286800200195 
4.44780E-01    0.94998    0.00416                                 3286800200196 
4.53700E-01    0.95104    0.00470                                 3286800200197 
4.68650E-01    0.95546    0.00272                                 3286800200198 
4.89950E-01    0.96525    0.00293                                 3286800200199 
5.07360E-01    0.97024    0.00336                                 3286800200200 
5.25410E-01    0.96085    0.00283                                 3286800200201 
5.48140E-01    0.96430    0.00681                                 3286800200202 
5.70240E-01    0.96052    0.00251                                 3286800200203 
5.92120E-01    0.95420    0.00321                                 3286800200204 
6.25000E-01    0.96249    0.00189                                 3286800200205 
6.52290E-01    0.96866    0.00581                                 3286800200206 
6.75410E-01    0.96393    0.00222                                 3286800200207 
6.98120E-01    0.94627    0.00735                                 3286800200208 
7.25000E-01    0.95290    0.00199                                 3286800200209 
7.63510E-01    0.95534    0.00300                                 3286800200210 
7.88510E-01    0.94702    0.00298                                 3286800200211 
8.05640E-01    0.96752    0.00478                                 3286800200212 
8.30640E-01    0.96656    0.00261                                 3286800200213 
8.54300E-01    0.94482    0.00556                                 3286800200214 
8.60300E-01    0.95737    0.00896                                 3286800200215 
8.80990E-01    0.94811    0.00266                                 3286800200216 
9.03170E-01    0.97027    0.00667                                 3286800200217 
9.14850E-01    0.96664    0.00408                                 3286800200218 
9.36680E-01    0.96185    0.00318                                 3286800200219 
9.75000E-01    0.93971    0.00249                                 3286800200220 
1.02500E+00    0.95130    0.00247                                 3286800200221 
1.07500E+00    0.94107    0.00236                                 3286800200222 
1.12500E+00    0.93583    0.00260                                 3286800200223 
1.15406E+00    0.95296    0.00690                                 3286800200224 
1.17905E+00    0.94938    0.00302                                 3286800200225 
1.20846E+00    0.93887    0.00459                                 3286800200226 
1.25521E+00    0.93511    0.00191                                 3286800200227 
1.30592E+00    0.93227    0.00438                                 3286800200228 
1.35917E+00    0.93827    0.00230                                 3286800200229 
1.46058E+00    0.93042    0.00182                                 3286800200230 
1.57759E+00    0.93370    0.00212                                 3286800200231 
1.67130E+00    0.93282    0.00296                                 3286800200232 
1.75000E+00    0.94655    0.00218                                 3286800200233 
1.85000E+00    0.94321    0.00239                                 3286800200234 
1.90670E+00    0.94237    0.00651                                 3286800200235 
1.98511E+00    0.92981    0.00195                                 3286800200236 
2.07842E+00    0.94013    0.00378                                 3286800200237 
2.13013E+00    0.93783    0.00313                                 3286800200238 
2.18013E+00    0.95593    0.00382                                 3286800200239 
2.25000E+00    0.93821    0.00253                                 3286800200240 
2.35000E+00    0.92824    0.00268                                 3286800200241 
2.45882E+00    0.93775    0.00263                                 3286800200242 
2.56799E+00    0.92606    0.00274                                 3286800200243 
2.67821E+00    0.92651    0.00205                                 3286800200244 
2.74674E+00    0.94059    0.00666                                 3286800200245 
2.77769E+00    0.94099    0.00446                                 3286800200246 
2.84065E+00    0.93851    0.00354                                 3286800200247 
2.89065E+00    0.91295    0.00752                                 3286800200248 
2.95000E+00    0.93571    0.00327                                 3286800200249 
3.01058E+00    0.93145    0.00710                                 3286800200250 
3.06058E+00    0.91741    0.00365                                 3286800200251 
3.12270E+00    0.92292    0.00476                                 3286800200252 
3.17270E+00    0.91886    0.00431                                 3286800200253 
3.25000E+00    0.89073    0.00303                                 3286800200254 
3.31578E+00    0.92253    0.00521                                 3286800200255 
3.36578E+00    0.93416    0.00364                                 3286800200256 
3.41199E+00    0.93127    0.00639                                 3286800200257 
3.46199E+00    0.93662    0.00384                                 3286800200258 
3.51234E+00    0.93217    0.00726                                 3286800200259 
3.56235E+00    0.93634    0.00434                                 3286800200260 
3.61269E+00    0.93191    0.00770                                 3286800200261 
3.66270E+00    0.91692    0.00455                                 3286800200262 
3.70860E+00    0.93898    0.00953                                 3286800200263 
3.75860E+00    0.90370    0.00444                                 3286800200264 
3.85000E+00    0.92609    0.00405                                 3286800200265 
3.91376E+00    0.91058    0.00770                                 3286800200266 
3.96375E+00    0.90621    0.00471                                 3286800200267 
4.05000E+00    0.91148    0.00414                                 3286800200268 
4.11446E+00    0.90734    0.00764                                 3286800200269 
4.16446E+00    0.90997    0.00467                                 3286800200270 
4.24455E+00    0.90977    0.00372                                 3286800200271 
4.29455E+00    0.89065    0.00968                                 3286800200272 
4.31025E+00    0.91027    0.00676                                 3286800200273 
4.36025E+00    0.90340    0.00318                                 3286800200274 
4.41552E+00    0.92232    0.00513                                 3286800200275 
4.46552E+00    0.92275    0.00378                                 3286800200276 
4.55000E+00    0.92737    0.00369                                 3286800200277 
4.65000E+00    0.93561    0.00425                                 3286800200278 
4.75000E+00    0.94487    0.00460                                 3286800200279 
4.83050E+00    0.91377    0.00607                                 3286800200280 
4.88050E+00    0.93261    0.00763                                 3286800200281 
4.91728E+00    0.91112    0.00818                                 3286800200282 
4.96729E+00    0.90690    0.00596                                 3286800200283 
5.05000E+00    0.92134    0.00485                                 3286800200284 
5.15000E+00    0.92012    0.00482                                 3286800200285 
5.24782E+00    0.89138    0.00490                                 3286800200286 
5.29673E+00    0.93496    0.03201                                 3286800200287 
5.32500E+00    0.92342    0.00666                                 3286800200288 
5.37500E+00    0.91644    0.00651                                 3286800200289 
5.41645E+00    0.92679    0.00786                                 3286800200290 
5.44145E+00    0.93096    0.01075                                 3286800200291 
5.47500E+00    0.92017    0.00617                                 3286800200292 
5.50539E+00    0.92353    0.01291                                 3286800200293 
5.53039E+00    0.92118    0.00673                                 3286800200294 
5.57500E+00    0.91379    0.00584                                 3286800200295 
5.65000E+00    0.91623    0.00418                                 3286800200296 
5.75000E+00    0.90025    0.00443                                 3286800200297 
5.85000E+00    0.90499    0.00463                                 3286800200298 
5.95000E+00    0.92841    0.00481                                 3286800200299 
6.00240E+00    0.92353    0.02190                                 3286800200300 
6.12740E+00    0.92309    0.00323                                 3286800200301 
6.37500E+00    0.92227    0.00326                                 3286800200302 
6.53835E+00    0.92400    0.00587                                 3286800200303 
6.59990E+00    0.94662    0.00758                                 3286800200304 
6.64311E+00    0.92908    0.00819                                 3286800200305 
6.70656E+00    0.91829    0.00561                                 3286800200306 
6.87500E+00    0.92125    0.00334                                 3286800200307 
7.07425E+00    0.92091    0.00427                                 3286800200308 
7.19925E+00    0.93063    0.00521                                 3286800200309 
7.37500E+00    0.92346    0.00348                                 3286800200310 
7.61020E+00    0.93358    0.00389                                 3286800200311 
7.73520E+00    0.91912    0.01085                                 3286800200312 
7.87500E+00    0.92285    0.00382                                 3286800200313 
8.12500E+00    0.94694    0.00388                                 3286800200314 
8.27115E+00    0.91423    0.00957                                 3286800200315 
8.39644E+00    0.92098    0.00430                                 3286800200316 
8.57050E+00    0.92089    0.00508                                 3286800200317 
8.69550E+00    0.91797    0.00565                                 3286800200318 
8.80710E+00    0.94045    0.00540                                 3286800200319 
8.86603E+00    0.99788    0.02975                                 3286800200320 
8.93393E+00    0.93989    0.00502                                 3286800200321 
9.12500E+00    0.93258    0.00373                                 3286800200322 
9.34305E+00    0.92267    0.00449                                 3286800200323 
9.46805E+00    0.94574    0.00771                                 3286800200324 
9.53350E+00    0.92051    0.00763                                 3286800200325 
9.65850E+00    0.93884    0.00469                                 3286800200326 
9.86411E+00    0.93982    0.00434                                 3286800200327 
9.98911E+00    0.91888    0.01435                                 3286800200328 
1.00040E+01    0.95384    0.02372                                 3286800200329 
1.00346E+01    0.92801    0.00914                                 3286800200330 
1.00885E+01    0.95348    0.00928                                 3286800200331 
1.01321E+01    0.92388    0.01145                                 3286800200332 
1.01558E+01    0.95475    0.01856                                 3286800200333 
1.01832E+01    0.94376    0.01044                                 3286800200334 
1.02223E+01    0.95185    0.01126                                 3286800200335 
1.02665E+01    0.95158    0.00943                                 3286800200336 
1.02986E+01    1.01992    0.01956                                 3286800200337 
1.03263E+01    0.92870    0.01042                                 3286800200338 
1.03714E+01    0.91042    0.01141                                 3286800200339 
1.04137E+01    0.97567    0.00995                                 3286800200340 
1.04412E+01    0.87127    0.02628                                 3286800200341 
1.04693E+01    0.93160    0.00984                                 3286800200342 
1.04970E+01    0.90669    0.02827                                 3286800200343 
1.05306E+01    0.91787    0.00890                                 3286800200344 
1.05706E+01    0.98104    0.01609                                 3286800200345 
1.05824E+01    0.90936    0.03230                                 3286800200346 
1.06134E+01    0.91614    0.00934                                 3286800200347 
1.06556E+01    0.93261    0.01366                                 3286800200348 
1.07018E+01    0.96588    0.00883                                 3286800200349 
1.07426E+01    0.94954    0.01699                                 3286800200350 
1.07715E+01    0.93555    0.01116                                 3286800200351 
1.08024E+01    0.98911    0.01594                                 3286800200352 
1.08491E+01    0.95239    0.00850                                 3286800200353 
1.08958E+01    0.92839    0.01625                                 3286800200354 
1.09252E+01    0.94035    0.01188                                 3286800200355 
1.09722E+01    0.91755    0.00991                                 3286800200356 
1.10196E+01    0.99150    0.01184                                 3286800200357 
1.10690E+01    0.93773    0.00966                                 3286800200358 
1.11254E+01    0.93428    0.01035                                 3286800200359 
1.11996E+01    0.95312    0.00769                                 3286800200360 
1.12824E+01    0.94853    0.01036                                 3286800200361 
1.13617E+01    0.96822    0.00753                                 3286800200362 
1.14415E+01    0.97106    0.01042                                 3286800200363 
1.14844E+01    0.97320    0.01400                                 3286800200364 
1.15376E+01    0.93995    0.00912                                 3286800200365 
1.15991E+01    0.93302    0.01154                                 3286800200366 
1.16426E+01    0.93255    0.01270                                 3286800200367 
1.16892E+01    0.94754    0.01080                                 3286800200368 
1.17201E+01    0.97105    0.02845                                 3286800200369 
1.17312E+01    0.93033    0.02102                                 3286800200370 
1.17827E+01    0.92653    0.00858                                 3286800200371 
1.18420E+01    0.93503    0.01454                                 3286800200372 
1.18806E+01    0.91530    0.01186                                 3286800200373 
1.19489E+01    0.97004    0.00854                                 3286800200374 
1.20360E+01    0.93345    0.00957                                 3286800200375 
1.20976E+01    0.95884    0.01136                                 3286800200376 
1.21430E+01    0.94790    0.01303                                 3286800200377 
1.21895E+01    0.93324    0.01117                                 3286800200378 
1.22293E+01    0.98588    0.01598                                 3286800200379 
1.22687E+01    0.91633    0.01132                                 3286800200380 
1.23163E+01    0.95420    0.01264                                 3286800200381 
1.23475E+01    0.97549    0.01828                                 3286800200382 
1.24129E+01    0.96834    0.00781                                 3286800200383 
1.24842E+01    0.94564    0.01457                                 3286800200384 
1.25058E+01    0.89920    0.02413                                 3286800200385 
1.25172E+01    0.83336    0.02529                                 3286800200386 
1.25835E+01    0.95514    0.00753                                 3286800200387 
1.26663E+01    0.96610    0.01251                                 3286800200388 
1.27179E+01    0.98390    0.01077                                 3286800200389 
1.27852E+01    0.94941    0.00961                                 3286800200390 
1.28449E+01    0.96935    0.01267                                 3286800200391 
1.28672E+01    1.01864    0.16002                                 3286800200392 
1.29337E+01    0.94197    0.00732                                 3286800200393 
1.30244E+01    0.95358    0.01208                                 3286800200394 
1.31161E+01    0.94028    0.00726                                 3286800200395 
1.32081E+01    0.89041    0.01195                                 3286800200396 
1.32402E+01    0.99412    0.02237                                 3286800200397 
1.33085E+01    0.96716    0.00771                                 3286800200398 
1.33945E+01    0.91719    0.01201                                 3286800200399 
1.34293E+01    0.95394    0.01953                                 3286800200400 
1.34695E+01    0.97787    0.01099                                 3286800200401 
1.35544E+01    0.96108    0.00834                                 3286800200402 
1.36497E+01    0.92484    0.00966                                 3286800200403 
1.37457E+01    0.93190    0.00831                                 3286800200404 
1.38422E+01    0.94043    0.00972                                 3286800200405 
1.39396E+01    0.94648    0.00835                                 3286800200406 
1.39978E+01    0.99609    0.04167                                 3286800200407 
1.40055E+01    0.90196    0.02739                                 3286800200408 
1.41020E+01    0.94092    0.00660                                 3286800200409 
1.42009E+01    0.98720    0.02283                                 3286800200410 
1.43010E+01    0.95630    0.00670                                 3286800200411 
1.44012E+01    0.89398    0.02274                                 3286800200412 
1.44546E+01    0.96327    0.00962                                 3286800200413 
1.45415E+01    0.91803    0.01015                                 3286800200414 
1.45897E+01    0.95025    0.02517                                 3286800200415 
1.46044E+01    0.97937    0.02271                                 3286800200416 
1.47073E+01    0.96769    0.00672                                 3286800200417 
1.48104E+01    0.93968    0.02323                                 3286800200418 
1.49093E+01    0.95105    0.00704                                 3286800200419 
1.50055E+01    1.00608    0.02872                                 3286800200420 
1.50831E+01    0.92700    0.00800                                 3286800200421 
1.51833E+01    0.96278    0.01273                                 3286800200422 
1.52172E+01    0.90807    0.02913                                 3286800200423 
1.53245E+01    0.96103    0.00685                                 3286800200424 
1.54320E+01    0.87049    0.02933                                 3286800200425 
1.54688E+01    0.95089    0.01258                                 3286800200426 
1.55720E+01    0.95900    0.00833                                 3286800200427 
1.56497E+01    0.90919    0.02980                                 3286800200428 
1.56913E+01    0.96139    0.01194                                 3286800200429 
1.57958E+01    0.92172    0.00871                                 3286800200430 
1.58705E+01    1.01520    0.02972                                 3286800200431 
1.59382E+01    0.96639    0.00922                                 3286800200432 
1.60442E+01    0.95602    0.01103                                 3286800200433 
1.61570E+01    0.95705    0.00884                                 3286800200434 
1.62623E+01    0.93212    0.01206                                 3286800200435 
1.63072E+01    0.96905    0.02562                                 3286800200436 
1.63850E+01    0.95497    0.00896                                 3286800200437 
1.64773E+01    0.92128    0.01600                                 3286800200438 
1.65228E+01    0.97167    0.01574                                 3286800200439 
1.66162E+01    0.94378    0.00901                                 3286800200440 
1.67329E+01    0.93579    0.01120                                 3286800200441 
1.68250E+01    0.96908    0.01136                                 3286800200442 
1.68966E+01    0.97601    0.01523                                 3286800200443 
1.69611E+01    0.95972    0.01240                                 3286800200444 
1.70805E+01    0.97817    0.00874                                 3286800200445 
1.72004E+01    0.98094    0.01244                                 3286800200446 
1.73214E+01    0.97351    0.00881                                 3286800200447 
1.74226E+01    0.95107    0.01786                                 3286800200448 
1.74626E+01    0.90390    0.01763                                 3286800200449 
1.74916E+01    0.96462    0.02716                                 3286800200450 
1.75743E+01    0.94055    0.00931                                 3286800200451 
1.76891E+01    0.95032    0.01272                                 3286800200452 
1.78137E+01    0.94006    0.00893                                 3286800200453 
1.79387E+01    0.97520    0.01283                                 3286800200454 
1.79900E+01    0.95558    0.02564                                 3286800200455 
1.80070E+01    1.02689    0.03132                                 3286800200456 
1.80820E+01    0.99479    0.00998                                 3286800200457 
1.82091E+01    0.97786    0.01082                                 3286800200458 
1.83371E+01    0.91393    0.01011                                 3286800200459 
1.84530E+01    1.00211    0.01217                                 3286800200460 
1.85130E+01    0.95610    0.02347                                 3286800200461 
1.85559E+01    0.96711    0.01543                                 3286800200462 
1.86259E+01    0.98601    0.01345                                 3286800200463 
1.87265E+01    0.99224    0.01090                                 3286800200464 
1.88582E+01    0.92381    0.01022                                 3286800200465 
1.89646E+01    0.95300    0.01447                                 3286800200466 
1.90262E+01    0.96245    0.01724                                 3286800200467 
1.91052E+01    1.00490    0.01205                                 3286800200468 
1.91771E+01    0.89607    0.01990                                 3286800200469 
1.93122E+01    0.97440    0.00814                                 3286800200470 
1.94476E+01    1.04637    0.01993                                 3286800200471 
1.94835E+01    0.90114    0.02176                                 3286800200472 
1.96012E+01    0.96599    0.00879                                 3286800200473 
1.97162E+01    0.97943    0.02373                                 3286800200474 
1.97358E+01    0.80455    0.03752                                 3286800200475 
1.98610E+01    0.97683    0.00819                                 3286800200476 
1.99901E+01    0.93481    0.02901                                 3286800200477 
ENDDATA            465          0                                 3286800200478 
ENDSUBENT          477          0                                 3286800299999 
SUBENT        32868003   20230217                             32093286800300001 
BIB                  2          3                                 3286800300002 
REACTION   (3-LI-0(N,TOT),,TRN)                                   3286800300003 
STATUS     (TABLE) Fig.6 of Acta Physica Sinica,71,052901,2022    3286800300004 
                   Data were obtained from AUTHOR                 3286800300005 
ENDBIB               3          0                                 3286800300006 
COMMON               1          3                                 3286800300007 
THICKNESS                                                         3286800300008 
ATOMS/B                                                           3286800300009 
      0.069                                                       3286800300010 
ENDCOMMON            3          0                                 3286800300011 
DATA                 3        463                                 3286800300012 
EN         DATA       DATA-ERR                                    3286800300013 
MEV        NO-DIM     NO-DIM                                      3286800300014 
4.25000E-07    0.28622    0.02312                                 3286800300015 
4.58000E-07    0.29093    0.01488                                 3286800300016 
5.05000E-07    0.31581    0.01361                                 3286800300017 
5.56000E-07    0.32231    0.01296                                 3286800300018 
6.14000E-07    0.34039    0.01220                                 3286800300019 
6.77000E-07    0.35855    0.01182                                 3286800300020 
7.47000E-07    0.37680    0.01144                                 3286800300021 
8.24000E-07    0.39104    0.01102                                 3286800300022 
9.09000E-07    0.41121    0.01044                                 3286800300023 
1.00000E-06    0.42839    0.00925                                 3286800300024 
1.11000E-06    0.44035    0.00737                                 3286800300025 
1.22000E-06    0.45970    0.01003                                 3286800300026 
1.35000E-06    0.48204    0.01520                                 3286800300027 
1.42000E-06    0.48416    0.04279                                 3286800300028 
1.50000E-06    0.49523    0.01809                                 3286800300029 
1.64000E-06    0.50987    0.01784                                 3286800300030 
1.81000E-06    0.51574    0.01867                                 3286800300031 
1.99000E-06    0.54462    0.01527                                 3286800300032 
2.20000E-06    0.56835    0.01990                                 3286800300033 
2.42000E-06    0.57288    0.02105                                 3286800300034 
2.67000E-06    0.58181    0.02309                                 3286800300035 
2.95000E-06    0.59493    0.01429                                 3286800300036 
3.25000E-06    0.60357    0.01264                                 3286800300037 
3.59000E-06    0.61347    0.01134                                 3286800300038 
3.96000E-06    0.62514    0.04270                                 3286800300039 
4.37000E-06    0.66572    0.04258                                 3286800300040 
4.82000E-06    0.65421    0.02243                                 3286800300041 
5.31000E-06    0.65949    0.01799                                 3286800300042 
5.86000E-06    0.67364    0.01268                                 3286800300043 
6.46000E-06    0.68581    0.00838                                 3286800300044 
7.15000E-06    0.69438    0.01256                                 3286800300045 
7.91000E-06    0.70315    0.02851                                 3286800300046 
8.76000E-06    0.71432    0.00362                                 3286800300047 
9.71000E-06    0.72418    0.00833                                 3286800300048 
1.04000E-05    0.73377    0.02280                                 3286800300049 
1.09000E-05    0.75895    0.01992                                 3286800300050 
1.18000E-05    0.73404    0.00666                                 3286800300051 
1.30000E-05    0.74707    0.00756                                 3286800300052 
1.43000E-05    0.75905    0.00760                                 3286800300053 
1.59000E-05    0.76966    0.00958                                 3286800300054 
1.76000E-05    0.77093    0.00829                                 3286800300055 
1.96000E-05    0.78010    0.00541                                 3286800300056 
2.16000E-05    0.78654    0.01021                                 3286800300057 
2.38000E-05    0.79802    0.00726                                 3286800300058 
2.61000E-05    0.79436    0.00816                                 3286800300059 
2.87000E-05    0.81301    0.01118                                 3286800300060 
3.17000E-05    0.81451    0.00768                                 3286800300061 
3.52000E-05    0.81846    0.00484                                 3286800300062 
3.91000E-05    0.81834    0.00855                                 3286800300063 
4.30000E-05    0.83432    0.00789                                 3286800300064 
4.71000E-05    0.83403    0.00845                                 3286800300065 
5.16000E-05    0.83965    0.00512                                 3286800300066 
5.71000E-05    0.84149    0.00416                                 3286800300067 
6.31000E-05    0.84557    0.00928                                 3286800300068 
6.99000E-05    0.84857    0.00615                                 3286800300069 
7.79000E-05    0.86321    0.00722                                 3286800300070 
8.66000E-05    0.85877    0.00683                                 3286800300071 
9.71000E-05    0.85217    0.00764                                 3286800300072 
1.07000E-04    0.87255    0.00983                                 3286800300073 
1.16000E-04    0.86822    0.00861                                 3286800300074 
1.26000E-04    0.87663    0.00795                                 3286800300075 
1.37000E-04    0.86585    0.01003                                 3286800300076 
1.50000E-04    0.88040    0.00906                                 3286800300077 
1.63000E-04    0.88038    0.00843                                 3286800300078 
1.80000E-04    0.87279    0.00798                                 3286800300079 
1.97000E-04    0.87101    0.00951                                 3286800300080 
2.13000E-04    0.88214    0.00880                                 3286800300081 
2.32000E-04    0.88996    0.00813                                 3286800300082 
2.51000E-04    0.89999    0.00945                                 3286800300083 
2.72000E-04    0.88997    0.00691                                 3286800300084 
2.98000E-04    0.89790    0.00919                                 3286800300085 
3.26000E-04    0.89577    0.01087                                 3286800300086 
3.58000E-04    0.90163    0.01136                                 3286800300087 
3.92000E-04    0.91162    0.01153                                 3286800300088 
4.26000E-04    0.89890    0.00928                                 3286800300089 
4.63000E-04    0.89377    0.00862                                 3286800300090 
5.02000E-04    0.88727    0.00816                                 3286800300091 
5.44000E-04    0.88989    0.00902                                 3286800300092 
5.94000E-04    0.90037    0.00797                                 3286800300093 
6.48000E-04    0.90773    0.00968                                 3286800300094 
7.13000E-04    0.90544    0.00861                                 3286800300095 
7.83000E-04    0.90373    0.00955                                 3286800300096 
8.46000E-04    0.90056    0.01212                                 3286800300097 
9.07000E-04    0.89518    0.00948                                 3286800300098 
9.69000E-04    0.89796    0.01414                                 3286800300099 
1.07000E-03    0.90351    0.00888                                 3286800300100 
1.21000E-03    0.91002    0.00792                                 3286800300101 
1.35000E-03    0.90918    0.00860                                 3286800300102 
1.50000E-03    0.91233    0.00940                                 3286800300103 
1.71000E-03    0.91217    0.00750                                 3286800300104 
1.95000E-03    0.89953    0.00787                                 3286800300105 
2.21000E-03    0.90404    0.00936                                 3286800300106 
2.55000E-03    0.92225    0.00821                                 3286800300107 
2.93000E-03    0.91875    0.00850                                 3286800300108 
3.38000E-03    0.91661    0.00776                                 3286800300109 
3.90000E-03    0.91510    0.00871                                 3286800300110 
4.43000E-03    0.92096    0.00863                                 3286800300111 
5.10000E-03    0.91051    0.00787                                 3286800300112 
5.86000E-03    0.92576    0.00893                                 3286800300113 
6.77000E-03    0.91429    0.00805                                 3286800300114 
7.77000E-03    0.92220    0.01009                                 3286800300115 
8.73000E-03    0.92687    0.01009                                 3286800300116 
9.62000E-03    0.92391    0.01111                                 3286800300117 
1.05400E-02    0.92548    0.01015                                 3286800300118 
1.13800E-02    0.91082    0.01300                                 3286800300119 
1.23900E-02    0.94173    0.01216                                 3286800300120 
1.33100E-02    0.92599    0.01177                                 3286800300121 
1.43000E-02    0.91300    0.01118                                 3286800300122 
1.54400E-02    0.92145    0.01149                                 3286800300123 
1.65800E-02    0.92453    0.01384                                 3286800300124 
1.77800E-02    0.92197    0.01164                                 3286800300125 
1.93300E-02    0.92976    0.01050                                 3286800300126 
2.11700E-02    0.93387    0.00969                                 3286800300127 
2.29900E-02    0.92616    0.01002                                 3286800300128 
2.47700E-02    0.92364    0.00877                                 3286800300129 
2.66100E-02    0.92287    0.00907                                 3286800300130 
3.08800E-02    0.93532    0.01052                                 3286800300131 
3.31700E-02    0.93889    0.01195                                 3286800300132 
3.55600E-02    0.91042    0.01213                                 3286800300133 
3.87300E-02    0.92870    0.00947                                 3286800300134 
4.18800E-02    0.93811    0.01016                                 3286800300135 
4.49100E-02    0.93381    0.00878                                 3286800300136 
4.85000E-02    0.93192    0.00834                                 3286800300137 
5.12500E-02    0.93139    0.01276                                 3286800300138 
5.33400E-02    0.93289    0.01127                                 3286800300139 
5.65800E-02    0.93946    0.00818                                 3286800300140 
6.05100E-02    0.93662    0.00836                                 3286800300141 
6.47900E-02    0.92804    0.00741                                 3286800300142 
7.06800E-02    0.94151    0.00626                                 3286800300143 
7.75500E-02    0.91941    0.00724                                 3286800300144 
8.37800E-02    0.93284    0.00772                                 3286800300145 
9.04600E-02    0.93669    0.00808                                 3286800300146 
9.73500E-02    0.93408    0.00760                                 3286800300147 
1.01420E-01    0.93688    0.01594                                 3286800300148 
1.07000E-01    0.94211    0.00593                                 3286800300149 
1.15930E-01    0.92446    0.00648                                 3286800300150 
1.25450E-01    0.93129    0.00598                                 3286800300151 
1.35030E-01    0.92297    0.00580                                 3286800300152 
1.45490E-01    0.93206    0.00688                                 3286800300153 
1.55570E-01    0.93113    0.00637                                 3286800300154 
1.68110E-01    0.91039    0.00545                                 3286800300155 
1.77550E-01    0.92968    0.00890                                 3286800300156 
1.90000E-01    0.89850    0.00451                                 3286800300157 
2.05000E-01    0.87384    0.00676                                 3286800300158 
2.12990E-01    0.85009    0.00874                                 3286800300159 
2.17990E-01    0.81958    0.01088                                 3286800300160 
2.25000E-01    0.77575    0.00693                                 3286800300161 
2.34990E-01    0.70123    0.00709                                 3286800300162 
2.40350E-01    0.61762    0.02720                                 3286800300163 
2.45360E-01    0.59317    0.00765                                 3286800300164 
2.55000E-01    0.53533    0.00781                                 3286800300165 
2.63280E-01    0.53818    0.00900                                 3286800300166 
2.68280E-01    0.54523    0.01314                                 3286800300167 
2.71290E-01    0.54710    0.01548                                 3286800300168 
2.75880E-01    0.58648    0.00957                                 3286800300169 
2.79590E-01    0.62614    0.02549                                 3286800300170 
2.82130E-01    0.63952    0.01106                                 3286800300171 
2.87130E-01    0.67585    0.00992                                 3286800300172 
2.91010E-01    0.68818    0.01669                                 3286800300173 
2.96010E-01    0.74540    0.00799                                 3286800300174 
3.02920E-01    0.79844    0.00910                                 3286800300175 
3.07920E-01    0.81419    0.01132                                 3286800300176 
3.10520E-01    0.81265    0.02269                                 3286800300177 
3.14320E-01    0.81668    0.00896                                 3286800300178 
3.18800E-01    0.83678    0.01415                                 3286800300179 
3.21010E-01    0.82937    0.01527                                 3286800300180 
3.24540E-01    0.84428    0.00970                                 3286800300181 
3.28540E-01    0.85527    0.01327                                 3286800300182 
3.32390E-01    0.85241    0.01023                                 3286800300183 
3.37390E-01    0.86485    0.00940                                 3286800300184 
3.40830E-01    0.86285    0.01648                                 3286800300185 
3.44950E-01    0.87986    0.00857                                 3286800300186 
3.49120E-01    0.85286    0.01711                                 3286800300187 
3.54200E-01    0.86517    0.00776                                 3286800300188 
3.63220E-01    0.90395    0.00853                                 3286800300189 
3.71820E-01    0.89248    0.00678                                 3286800300190 
3.78600E-01    0.89239    0.01354                                 3286800300191 
3.84100E-01    0.91124    0.00782                                 3286800300192 
3.94100E-01    0.89901    0.00642                                 3286800300193 
4.08560E-01    0.91067    0.00577                                 3286800300194 
4.28340E-01    0.91565    0.00494                                 3286800300195 
4.44780E-01    0.92471    0.00785                                 3286800300196 
4.53700E-01    0.92415    0.00889                                 3286800300197 
4.68650E-01    0.92052    0.00516                                 3286800300198 
4.89950E-01    0.92806    0.00556                                 3286800300199 
5.07360E-01    0.94826    0.00633                                 3286800300200 
5.25410E-01    0.93256    0.00535                                 3286800300201 
5.48140E-01    0.92300    0.01292                                 3286800300202 
5.70240E-01    0.92471    0.00476                                 3286800300203 
5.92120E-01    0.92403    0.00608                                 3286800300204 
6.25000E-01    0.93099    0.00358                                 3286800300205 
6.52290E-01    0.95170    0.01095                                 3286800300206 
6.75410E-01    0.93220    0.00421                                 3286800300207 
6.98120E-01    0.94520    0.01379                                 3286800300208 
7.25000E-01    0.92387    0.00377                                 3286800300209 
7.63510E-01    0.93260    0.00566                                 3286800300210 
7.88510E-01    0.90504    0.00565                                 3286800300211 
8.05640E-01    0.91612    0.00908                                 3286800300212 
8.30640E-01    0.93074    0.00494                                 3286800300213 
8.54300E-01    0.92047    0.01050                                 3286800300214 
8.60300E-01    0.93229    0.01692                                 3286800300215 
8.80990E-01    0.90737    0.00505                                 3286800300216 
9.03170E-01    0.93856    0.01262                                 3286800300217 
9.14850E-01    0.92260    0.00775                                 3286800300218 
9.36680E-01    0.91522    0.00605                                 3286800300219 
9.75000E-01    0.90417    0.00473                                 3286800300220 
1.02500E+00    0.90423    0.00470                                 3286800300221 
1.07500E+00    0.90116    0.00448                                 3286800300222 
1.12500E+00    0.90053    0.00493                                 3286800300223 
1.15406E+00    0.90864    0.01310                                 3286800300224 
1.17905E+00    0.89879    0.00574                                 3286800300225 
1.20846E+00    0.89423    0.00871                                 3286800300226 
1.25521E+00    0.88182    0.00365                                 3286800300227 
1.30592E+00    0.89627    0.00830                                 3286800300228 
1.35917E+00    0.88781    0.00438                                 3286800300229 
1.46058E+00    0.87629    0.00346                                 3286800300230 
1.57759E+00    0.89143    0.00402                                 3286800300231 
1.67130E+00    0.89408    0.00562                                 3286800300232 
1.75000E+00    0.89886    0.00414                                 3286800300233 
1.85000E+00    0.90028    0.00453                                 3286800300234 
1.90670E+00    0.90718    0.01233                                 3286800300235 
1.98511E+00    0.89514    0.00369                                 3286800300236 
2.07842E+00    0.88793    0.00719                                 3286800300237 
2.13013E+00    0.88853    0.00596                                 3286800300238 
2.18013E+00    0.90880    0.00726                                 3286800300239 
2.25000E+00    0.88745    0.00481                                 3286800300240 
2.35000E+00    0.87975    0.00510                                 3286800300241 
2.45882E+00    0.88530    0.00500                                 3286800300242 
2.56799E+00    0.86333    0.00523                                 3286800300243 
2.67821E+00    0.86019    0.00391                                 3286800300244 
2.74674E+00    0.87063    0.01275                                 3286800300245 
2.77769E+00    0.88330    0.00850                                 3286800300246 
2.84065E+00    0.88486    0.00674                                 3286800300247 
2.89065E+00    0.85718    0.01435                                 3286800300248 
2.95000E+00    0.87733    0.00624                                 3286800300249 
3.01058E+00    0.85391    0.01362                                 3286800300250 
3.06058E+00    0.86638    0.00695                                 3286800300251 
3.12270E+00    0.87126    0.00907                                 3286800300252 
3.17270E+00    0.84869    0.00826                                 3286800300253 
3.25000E+00    0.82869    0.00579                                 3286800300254 
3.31578E+00    0.83632    0.01003                                 3286800300255 
3.36578E+00    0.85944    0.00698                                 3286800300256 
3.41199E+00    0.87712    0.01217                                 3286800300257 
3.46199E+00    0.88823    0.00730                                 3286800300258 
3.51234E+00    0.86628    0.01388                                 3286800300259 
3.56235E+00    0.87874    0.00829                                 3286800300260 
3.61269E+00    0.87624    0.01467                                 3286800300261 
3.66270E+00    0.86442    0.00868                                 3286800300262 
3.70860E+00    0.86969    0.01824                                 3286800300263 
3.75860E+00    0.86084    0.00844                                 3286800300264 
3.85000E+00    0.86355    0.00774                                 3286800300265 
3.91376E+00    0.85751    0.01467                                 3286800300266 
3.96375E+00    0.86216    0.00895                                 3286800300267 
4.05000E+00    0.86585    0.00786                                 3286800300268 
4.11446E+00    0.85649    0.01454                                 3286800300269 
4.16446E+00    0.84920    0.00893                                 3286800300270 
4.24455E+00    0.84148    0.00713                                 3286800300271 
4.29455E+00    0.85069    0.01837                                 3286800300272 
4.31025E+00    0.84795    0.01293                                 3286800300273 
4.36025E+00    0.85405    0.00605                                 3286800300274 
4.41552E+00    0.85735    0.00981                                 3286800300275 
4.46552E+00    0.84225    0.00727                                 3286800300276 
4.55000E+00    0.85303    0.00707                                 3286800300277 
4.65000E+00    0.85827    0.00815                                 3286800300278 
4.75000E+00    0.86076    0.00884                                 3286800300279 
4.83050E+00    0.86432    0.01155                                 3286800300280 
4.88050E+00    0.86578    0.01459                                 3286800300281 
4.91728E+00    0.85052    0.01563                                 3286800300282 
4.96729E+00    0.84817    0.01137                                 3286800300283 
5.05000E+00    0.85970    0.00926                                 3286800300284 
5.15000E+00    0.87874    0.00916                                 3286800300285 
5.24782E+00    0.86890    0.00925                                 3286800300286 
5.29673E+00    0.89254    0.06078                                 3286800300287 
5.32500E+00    0.87736    0.01266                                 3286800300288 
5.37500E+00    0.88693    0.01231                                 3286800300289 
5.41645E+00    0.88032    0.01493                                 3286800300290 
5.44145E+00    0.88801    0.02041                                 3286800300291 
5.47500E+00    0.88127    0.01170                                 3286800300292 
5.50539E+00    0.86580    0.02463                                 3286800300293 
5.53039E+00    0.86972    0.01281                                 3286800300294 
5.57500E+00    0.85850    0.01114                                 3286800300295 
5.65000E+00    0.83695    0.00803                                 3286800300296 
5.75000E+00    0.83514    0.00848                                 3286800300297 
5.85000E+00    0.82391    0.00891                                 3286800300298 
5.95000E+00    0.84832    0.00923                                 3286800300299 
6.00240E+00    0.82721    0.04229                                 3286800300300 
6.12740E+00    0.86305    0.00617                                 3286800300301 
6.37500E+00    0.86440    0.00622                                 3286800300302 
6.53835E+00    0.87028    0.01119                                 3286800300303 
6.59990E+00    0.88347    0.01447                                 3286800300304 
6.64311E+00    0.89289    0.01552                                 3286800300305 
6.70656E+00    0.87266    0.01066                                 3286800300306 
6.87500E+00    0.87259    0.00635                                 3286800300307 
7.07425E+00    0.86378    0.00815                                 3286800300308 
7.19925E+00    0.87585    0.00993                                 3286800300309 
7.37500E+00    0.87184    0.00662                                 3286800300310 
7.61020E+00    0.86998    0.00743                                 3286800300311 
7.73520E+00    0.86811    0.02066                                 3286800300312 
7.87500E+00    0.87142    0.00727                                 3286800300313 
8.12500E+00    0.88305    0.00741                                 3286800300314 
8.27115E+00    0.87565    0.01816                                 3286800300315 
8.39644E+00    0.86709    0.00819                                 3286800300316 
8.57050E+00    0.85979    0.00970                                 3286800300317 
8.69550E+00    0.86722    0.01076                                 3286800300318 
8.80710E+00    0.86888    0.01034                                 3286800300319 
8.86603E+00    0.91092    0.05712                                 3286800300320 
8.93393E+00    0.87986    0.00958                                 3286800300321 
9.12500E+00    0.88017    0.00711                                 3286800300322 
9.34305E+00    0.88038    0.00852                                 3286800300323 
9.46805E+00    0.87366    0.01476                                 3286800300324 
9.53350E+00    0.88340    0.01446                                 3286800300325 
9.65850E+00    0.88502    0.00893                                 3286800300326 
9.86411E+00    0.88160    0.00828                                 3286800300327 
9.98911E+00    0.91030    0.02698                                 3286800300328 
1.00040E+01    0.93661    0.04470                                 3286800300329 
1.00346E+01    0.89477    0.01730                                 3286800300330 
1.00885E+01    0.91650    0.01758                                 3286800300331 
1.01321E+01    0.88184    0.02175                                 3286800300332 
1.01558E+01    0.90810    0.03526                                 3286800300333 
1.01832E+01    0.88221    0.01992                                 3286800300334 
1.02223E+01    0.92272    0.02129                                 3286800300335 
1.02665E+01    0.90089    0.01795                                 3286800300336 
1.02986E+01    0.93577    0.03750                                 3286800300337 
1.03263E+01    0.88577    0.01979                                 3286800300338 
1.03714E+01    0.89287    0.02151                                 3286800300339 
1.04137E+01    0.90417    0.01903                                 3286800300340 
1.04412E+01    0.86375    0.04941                                 3286800300341 
1.04693E+01    0.86688    0.01882                                 3286800300342 
1.04970E+01    0.86702    0.05365                                 3286800300343 
1.05306E+01    0.86784    0.01695                                 3286800300344 
1.05706E+01    0.89977    0.03086                                 3286800300345 
1.05824E+01    0.85597    0.06157                                 3286800300346 
1.06134E+01    0.89440    0.01763                                 3286800300347 
1.06556E+01    0.94821    0.02551                                 3286800300348 
1.07018E+01    0.89797    0.01688                                 3286800300349 
1.07426E+01    0.88780    0.03244                                 3286800300350 
1.07715E+01    0.89019    0.02120                                 3286800300351 
1.08024E+01    0.90480    0.03060                                 3286800300352 
1.08491E+01    0.89925    0.01619                                 3286800300353 
1.08958E+01    0.88874    0.03083                                 3286800300354 
1.09252E+01    0.88612    0.02264                                 3286800300355 
1.09722E+01    0.88692    0.01875                                 3286800300356 
1.10196E+01    0.92624    0.02260                                 3286800300357 
1.10690E+01    0.88791    0.01839                                 3286800300358 
1.11254E+01    0.91627    0.01950                                 3286800300359 
1.11996E+01    0.88515    0.01471                                 3286800300360 
1.12824E+01    0.88308    0.01980                                 3286800300361 
1.13617E+01    0.91502    0.01433                                 3286800300362 
1.14415E+01    0.87808    0.02006                                 3286800300363 
1.14844E+01    0.91793    0.02666                                 3286800300364 
1.15376E+01    0.91322    0.01723                                 3286800300365 
1.15991E+01    0.93182    0.02165                                 3286800300366 
1.16426E+01    0.89965    0.02404                                 3286800300367 
1.16892E+01    0.90767    0.02048                                 3286800300368 
1.17201E+01    0.91807    0.05413                                 3286800300369 
1.17312E+01    0.90923    0.03966                                 3286800300370 
1.17827E+01    0.93433    0.01607                                 3286800300371 
1.18420E+01    0.87526    0.02774                                 3286800300372 
1.18806E+01    0.90351    0.02232                                 3286800300373 
1.19489E+01    0.91244    0.01627                                 3286800300374 
1.20360E+01    0.88185    0.01823                                 3286800300375 
1.20976E+01    0.87444    0.02182                                 3286800300376 
1.21430E+01    0.92225    0.02460                                 3286800300377 
1.21895E+01    0.89389    0.02119                                 3286800300378 
1.22293E+01    0.90897    0.03061                                 3286800300379 
1.22687E+01    0.89965    0.02133                                 3286800300380 
1.23163E+01    0.91063    0.02400                                 3286800300381 
1.23475E+01    0.89729    0.03503                                 3286800300382 
1.24129E+01    0.91139    0.01488                                 3286800300383 
1.24842E+01    0.87463    0.02790                                 3286800300384 
1.25058E+01    0.89547    0.04531                                 3286800300385 
1.25172E+01    0.85966    0.04703                                 3286800300386 
1.25835E+01    0.91336    0.01428                                 3286800300387 
1.26663E+01    0.93151    0.02368                                 3286800300388 
1.27179E+01    0.89524    0.02069                                 3286800300389 
1.27852E+01    0.89681    0.01830                                 3286800300390 
1.28449E+01    0.94310    0.02393                                 3286800300391 
1.28672E+01    0.89434    0.31029                                 3286800300392 
1.29337E+01    0.92311    0.01380                                 3286800300393 
1.30244E+01    0.88821    0.02309                                 3286800300394 
1.31161E+01    0.89961    0.01378                                 3286800300395 
1.32081E+01    0.86140    0.02262                                 3286800300396 
1.32402E+01    0.92883    0.04270                                 3286800300397 
1.33085E+01    0.89834    0.01475                                 3286800300398 
1.33945E+01    0.89105    0.02270                                 3286800300399 
1.34293E+01    0.90691    0.03711                                 3286800300400 
1.34695E+01    0.90660    0.02101                                 3286800300401 
1.35544E+01    0.90831    0.01588                                 3286800300402 
1.36497E+01    0.89327    0.01828                                 3286800300403 
1.37457E+01    0.90363    0.01570                                 3286800300404 
1.38422E+01    0.89599    0.01846                                 3286800300405 
1.39396E+01    0.88801    0.01592                                 3286800300406 
1.39978E+01    0.92978    0.07955                                 3286800300407 
1.40055E+01    0.93102    0.05095                                 3286800300408 
1.41020E+01    0.89665    0.01254                                 3286800300409 
1.42009E+01    0.96006    0.04312                                 3286800300410 
1.43010E+01    0.91739    0.01269                                 3286800300411 
1.44012E+01    0.85094    0.04321                                 3286800300412 
1.44546E+01    0.90454    0.01834                                 3286800300413 
1.45415E+01    0.89393    0.01916                                 3286800300414 
1.45897E+01    0.89396    0.04796                                 3286800300415 
1.46044E+01    0.85660    0.04411                                 3286800300416 
1.47073E+01    0.90193    0.01284                                 3286800300417 
1.48104E+01    0.89390    0.04415                                 3286800300418 
1.49093E+01    0.90878    0.01337                                 3286800300419 
1.50055E+01    0.94070    0.05480                                 3286800300420 
1.50831E+01    0.91267    0.01507                                 3286800300421 
1.51833E+01    0.90001    0.02430                                 3286800300422 
1.52172E+01    0.88466    0.05501                                 3286800300423 
1.53245E+01    0.91403    0.01301                                 3286800300424 
1.54320E+01    0.84201    0.05551                                 3286800300425 
1.54688E+01    0.92786    0.02375                                 3286800300426 
1.55720E+01    0.92144    0.01578                                 3286800300427 
1.56497E+01    0.90202    0.05602                                 3286800300428 
1.56913E+01    0.91900    0.02266                                 3286800300429 
1.57958E+01    0.91090    0.01638                                 3286800300430 
1.58705E+01    1.00781    0.05584                                 3286800300431 
1.59382E+01    0.89491    0.01765                                 3286800300432 
1.60442E+01    0.91674    0.02091                                 3286800300433 
1.61570E+01    0.89722    0.01685                                 3286800300434 
1.62623E+01    0.89566    0.02285                                 3286800300435 
1.63072E+01    0.88402    0.04921                                 3286800300436 
1.63850E+01    0.92010    0.01697                                 3286800300437 
1.64773E+01    0.91587    0.03005                                 3286800300438 
1.65228E+01    0.92553    0.02990                                 3286800300439 
1.66162E+01    0.89883    0.01712                                 3286800300440 
1.67329E+01    0.89793    0.02123                                 3286800300441 
1.68250E+01    0.92570    0.02155                                 3286800300442 
1.68966E+01    0.93884    0.02885                                 3286800300443 
1.69611E+01    0.91139    0.02358                                 3286800300444 
1.70805E+01    0.93298    0.01660                                 3286800300445 
1.72004E+01    0.88944    0.02394                                 3286800300446 
1.73214E+01    0.91519    0.01679                                 3286800300447 
1.74226E+01    0.89543    0.03403                                 3286800300448 
1.74626E+01    0.89623    0.03314                                 3286800300449 
1.74916E+01    0.88592    0.05208                                 3286800300450 
1.75743E+01    0.89931    0.01767                                 3286800300451 
1.76891E+01    0.92748    0.02400                                 3286800300452 
1.78137E+01    0.91695    0.01686                                 3286800300453 
1.79387E+01    0.92696    0.02437                                 3286800300454 
1.79900E+01    0.90211    0.04881                                 3286800300455 
1.80070E+01    0.90757    0.06062                                 3286800300456 
1.80820E+01    0.93740    0.01901                                 3286800300457 
1.82091E+01    0.92353    0.02059                                 3286800300458 
1.83371E+01    0.89489    0.01907                                 3286800300459 
1.84530E+01    0.90960    0.02339                                 3286800300460 
1.85130E+01    0.93447    0.04428                                 3286800300461 
1.85559E+01    0.92013    0.02932                                 3286800300462 
1.86259E+01    0.94522    0.02550                                 3286800300463 
1.87265E+01    0.93111    0.02079                                 3286800300464 
1.88582E+01    0.91291    0.01923                                 3286800300465 
1.89646E+01    0.90124    0.02754                                 3286800300466 
1.90262E+01    0.92431    0.03267                                 3286800300467 
1.91052E+01    0.97263    0.02279                                 3286800300468 
1.91771E+01    0.92663    0.03700                                 3286800300469 
1.93122E+01    0.92870    0.01545                                 3286800300470 
1.94476E+01    0.95729    0.03822                                 3286800300471 
1.94835E+01    0.86605    0.04124                                 3286800300472 
1.96012E+01    0.92617    0.01667                                 3286800300473 
1.97162E+01    0.89029    0.04562                                 3286800300474 
1.97358E+01    0.84696    0.06938                                 3286800300475 
1.98610E+01    0.91890    0.01561                                 3286800300476 
1.99901E+01    0.97219    0.05387                                 3286800300477 
ENDDATA            465          0                                 3286800300478 
ENDSUBENT          477          0                                 3286800399999 
SUBENT        32868004   20230217                             32093286800400001 
BIB                  3          5                                 3286800400002 
REACTION   (3-LI-0(N,TOT),,SIG)                                   3286800400003 
SAMPLE     8.0 mm thick sample                                    3286800400004 
STATUS     (TABLE) Fig.7 of Acta Physica Sinica,71,052901,2022    3286800400005 
                   Data were obtained from AUTHOR                 3286800400006 
           (DEP,32868002) Transmission                            3286800400007 
ENDBIB               5          0                                 3286800400008 
NOCOMMON             0          0                                 3286800400009 
DATA                 3        463                                 3286800400010 
EN         DATA       DATA-ERR                                    3286800400011 
MEV        B          B                                           3286800400012 
4.25000E-07     17.653      0.304                                 3286800400013 
4.58000E-07     17.441      0.223                                 3286800400014 
5.05000E-07     15.983      0.206                                 3286800400015 
5.56000E-07     15.596      0.199                                 3286800400016 
6.14000E-07     15.044      0.190                                 3286800400017 
6.77000E-07     14.362      0.185                                 3286800400018 
7.47000E-07     13.723      0.179                                 3286800400019 
8.24000E-07     13.660      0.176                                 3286800400020 
9.09000E-07     12.803      0.167                                 3286800400021 
1.00000E-06     12.188      0.153                                 3286800400022 
1.11000E-06     11.608      0.132                                 3286800400023 
1.22000E-06     11.320      0.158                                 3286800400024 
1.35000E-06     10.409      0.213                                 3286800400025 
1.42000E-06     10.949      0.563                                 3286800400026 
1.50000E-06     10.598      0.251                                 3286800400027 
1.64000E-06      9.594      0.245                                 3286800400028 
1.81000E-06      8.623      0.251                                 3286800400029 
1.99000E-06      8.279      0.211                                 3286800400030 
2.20000E-06      7.797      0.271                                 3286800400031 
2.42000E-06      8.682      0.291                                 3286800400032 
2.67000E-06      7.277      0.312                                 3286800400033 
2.95000E-06      7.662      0.201                                 3286800400034 
3.25000E-06      7.050      0.179                                 3286800400035 
3.59000E-06      6.967      0.162                                 3286800400036 
3.96000E-06      7.285      0.582                                 3286800400037 
4.37000E-06      6.962      0.589                                 3286800400038 
4.82000E-06      6.094      0.309                                 3286800400039 
5.31000E-06      6.624      0.252                                 3286800400040 
5.86000E-06      6.093      0.181                                 3286800400041 
6.46000E-06      5.660      0.124                                 3286800400042 
7.15000E-06      5.517      0.178                                 3286800400043 
7.91000E-06      4.271      0.390                                 3286800400044 
8.76000E-06      4.837      0.063                                 3286800400045 
9.71000E-06      4.682      0.121                                 3286800400046 
1.04000E-05      4.408      0.317                                 3286800400047 
1.09000E-05      3.923      0.278                                 3286800400048 
1.18000E-05      4.591      0.099                                 3286800400049 
1.30000E-05      3.977      0.109                                 3286800400050 
1.43000E-05      4.304      0.111                                 3286800400051 
1.59000E-05      3.710      0.137                                 3286800400052 
1.76000E-05      4.084      0.120                                 3286800400053 
1.96000E-05      3.642      0.081                                 3286800400054 
2.16000E-05      3.330      0.145                                 3286800400055 
2.38000E-05      3.364      0.105                                 3286800400056 
2.61000E-05      3.246      0.117                                 3286800400057 
2.87000E-05      2.469      0.157                                 3286800400058 
3.17000E-05      3.045      0.111                                 3286800400059 
3.52000E-05      2.932      0.072                                 3286800400060 
3.91000E-05      2.887      0.122                                 3286800400061 
4.30000E-05      2.752      0.113                                 3286800400062 
4.71000E-05      2.745      0.121                                 3286800400063 
5.16000E-05      2.655      0.075                                 3286800400064 
5.71000E-05      2.620      0.062                                 3286800400065 
6.31000E-05      2.574      0.133                                 3286800400066 
6.99000E-05      2.252      0.088                                 3286800400067 
7.79000E-05      2.283      0.104                                 3286800400068 
8.66000E-05      2.121      0.098                                 3286800400069 
9.71000E-05      2.380      0.110                                 3286800400070 
1.07000E-04      2.145      0.140                                 3286800400071 
1.16000E-04      2.122      0.123                                 3286800400072 
1.26000E-04      1.992      0.114                                 3286800400073 
1.37000E-04      2.019      0.143                                 3286800400074 
1.50000E-04      1.805      0.129                                 3286800400075 
1.63000E-04      1.891      0.120                                 3286800400076 
1.80000E-04      2.111      0.114                                 3286800400077 
1.97000E-04      2.167      0.136                                 3286800400078 
2.13000E-04      1.978      0.126                                 3286800400079 
2.32000E-04      1.915      0.117                                 3286800400080 
2.51000E-04      1.842      0.135                                 3286800400081 
2.72000E-04      1.626      0.099                                 3286800400082 
2.98000E-04      1.412      0.131                                 3286800400083 
3.26000E-04      1.720      0.155                                 3286800400084 
3.58000E-04      1.599      0.162                                 3286800400085 
3.92000E-04      1.131      0.164                                 3286800400086 
4.26000E-04      1.340      0.132                                 3286800400087 
4.63000E-04      1.708      0.123                                 3286800400088 
5.02000E-04      1.513      0.116                                 3286800400089 
5.44000E-04      1.667      0.129                                 3286800400090 
5.94000E-04      1.458      0.114                                 3286800400091 
6.48000E-04      1.376      0.138                                 3286800400092 
7.13000E-04      1.317      0.123                                 3286800400093 
7.83000E-04      1.479      0.136                                 3286800400094 
8.46000E-04      1.487      0.173                                 3286800400095 
9.07000E-04      1.278      0.135                                 3286800400096 
9.69000E-04      1.486      0.201                                 3286800400097 
1.07000E-03      1.493      0.127                                 3286800400098 
1.21000E-03      1.236      0.113                                 3286800400099 
1.35000E-03      1.422      0.123                                 3286800400100 
1.50000E-03      1.728      0.135                                 3286800400101 
1.71000E-03      1.361      0.107                                 3286800400102 
1.95000E-03      1.752      0.113                                 3286800400103 
2.21000E-03      1.524      0.134                                 3286800400104 
2.55000E-03      1.418      0.118                                 3286800400105 
2.93000E-03      1.025      0.121                                 3286800400106 
3.38000E-03      1.162      0.111                                 3286800400107 
3.90000E-03      1.525      0.125                                 3286800400108 
4.43000E-03      1.505      0.124                                 3286800400109 
5.10000E-03      1.139      0.112                                 3286800400110 
5.86000E-03      1.317      0.128                                 3286800400111 
6.77000E-03      1.421      0.115                                 3286800400112 
7.77000E-03      1.328      0.144                                 3286800400113 
8.73000E-03      0.987      0.144                                 3286800400114 
9.62000E-03      0.697      0.158                                 3286800400115 
1.05400E-02      1.200      0.145                                 3286800400116 
1.13800E-02      1.610      0.186                                 3286800400117 
1.23900E-02      0.834      0.174                                 3286800400118 
1.33100E-02      1.509      0.169                                 3286800400119 
1.43000E-02      1.752      0.160                                 3286800400120 
1.54400E-02      1.485      0.165                                 3286800400121 
1.65800E-02      1.366      0.198                                 3286800400122 
1.77800E-02      1.509      0.167                                 3286800400123 
1.93300E-02      0.639      0.149                                 3286800400124 
2.11700E-02      1.218      0.139                                 3286800400125 
2.29900E-02      1.658      0.144                                 3286800400126 
2.47700E-02      1.462      0.126                                 3286800400127 
2.66100E-02      0.968      0.129                                 3286800400128 
3.08800E-02      0.647      0.150                                 3286800400129 
3.31700E-02      0.534      0.170                                 3286800400130 
3.55600E-02      1.749      0.174                                 3286800400131 
3.87300E-02      1.297      0.136                                 3286800400132 
4.18800E-02      1.161      0.146                                 3286800400133 
4.49100E-02      0.546      0.125                                 3286800400134 
4.85000E-02      1.001      0.119                                 3286800400135 
5.12500E-02      1.265      0.183                                 3286800400136 
5.33400E-02      1.385      0.162                                 3286800400137 
5.65800E-02      0.843      0.117                                 3286800400138 
6.05100E-02      1.199      0.120                                 3286800400139 
6.47900E-02      1.373      0.107                                 3286800400140 
7.06800E-02      0.899      0.090                                 3286800400141 
7.75500E-02      1.397      0.104                                 3286800400142 
8.37800E-02      1.174      0.111                                 3286800400143 
9.04600E-02      0.831      0.115                                 3286800400144 
9.73500E-02      1.063      0.109                                 3286800400145 
1.01420E-01      1.231      0.228                                 3286800400146 
1.07000E-01      0.786      0.085                                 3286800400147 
1.15930E-01      1.156      0.093                                 3286800400148 
1.25450E-01      1.216      0.086                                 3286800400149 
1.35030E-01      1.201      0.083                                 3286800400150 
1.45490E-01      1.196      0.099                                 3286800400151 
1.55570E-01      1.009      0.091                                 3286800400152 
1.68110E-01      1.385      0.078                                 3286800400153 
1.77550E-01      1.151      0.127                                 3286800400154 
1.90000E-01      1.576      0.065                                 3286800400155 
2.05000E-01      2.072      0.097                                 3286800400156 
2.12990E-01      2.248      0.124                                 3286800400157 
2.17990E-01      2.959      0.155                                 3286800400158 
2.25000E-01      3.594      0.101                                 3286800400159 
2.34990E-01      5.503      0.107                                 3286800400160 
2.40350E-01      6.969      0.371                                 3286800400161 
2.45360E-01      7.575      0.119                                 3286800400162 
2.55000E-01      9.378      0.128                                 3286800400163 
2.63280E-01      8.598      0.137                                 3286800400164 
2.68280E-01      9.289      0.190                                 3286800400165 
2.71290E-01      8.279      0.214                                 3286800400166 
2.75880E-01      7.668      0.142                                 3286800400167 
2.79590E-01      6.502      0.347                                 3286800400168 
2.82130E-01      6.548      0.159                                 3286800400169 
2.87130E-01      5.657      0.143                                 3286800400170 
2.91010E-01      6.016      0.235                                 3286800400171 
2.96010E-01      4.427      0.117                                 3286800400172 
3.02920E-01      3.898      0.132                                 3286800400173 
3.07920E-01      2.233      0.159                                 3286800400174 
3.10520E-01      2.815      0.318                                 3286800400175 
3.14320E-01      2.882      0.128                                 3286800400176 
3.18800E-01      2.663      0.200                                 3286800400177 
3.21010E-01      2.658      0.216                                 3286800400178 
3.24540E-01      3.008      0.140                                 3286800400179 
3.28540E-01      2.116      0.188                                 3286800400180 
3.32390E-01      2.118      0.145                                 3286800400181 
3.37390E-01      2.072      0.134                                 3286800400182 
3.40830E-01      2.138      0.234                                 3286800400183 
3.44950E-01      2.228      0.123                                 3286800400184 
3.49120E-01      1.938      0.241                                 3286800400185 
3.54200E-01      2.183      0.111                                 3286800400186 
3.63220E-01      1.399      0.122                                 3286800400187 
3.71820E-01      1.718      0.097                                 3286800400188 
3.78600E-01      1.678      0.193                                 3286800400189 
3.84100E-01      1.362      0.112                                 3286800400190 
3.94100E-01      1.496      0.092                                 3286800400191 
4.08560E-01      1.349      0.083                                 3286800400192 
4.28340E-01      1.407      0.071                                 3286800400193 
4.44780E-01      1.385      0.113                                 3286800400194 
4.53700E-01      1.355      0.127                                 3286800400195 
4.68650E-01      1.230      0.074                                 3286800400196 
4.89950E-01      0.955      0.080                                 3286800400197 
5.07360E-01      0.816      0.091                                 3286800400198 
5.25410E-01      1.078      0.077                                 3286800400199 
5.48140E-01      0.981      0.184                                 3286800400200 
5.70240E-01      1.087      0.068                                 3286800400201 
5.92120E-01      1.265      0.087                                 3286800400202 
6.25000E-01      1.032      0.052                                 3286800400203 
6.52290E-01      0.859      0.157                                 3286800400204 
6.75410E-01      0.992      0.061                                 3286800400205 
6.98120E-01      1.491      0.199                                 3286800400206 
7.25000E-01      1.302      0.055                                 3286800400207 
7.63510E-01      1.233      0.082                                 3286800400208 
7.88510E-01      1.469      0.081                                 3286800400209 
8.05640E-01      0.891      0.129                                 3286800400210 
8.30640E-01      0.918      0.071                                 3286800400211 
8.54300E-01      1.532      0.151                                 3286800400212 
8.60300E-01      1.176      0.242                                 3286800400213 
8.80990E-01      1.438      0.073                                 3286800400214 
9.03170E-01      0.815      0.180                                 3286800400215 
9.14850E-01      0.916      0.110                                 3286800400216 
9.36680E-01      1.050      0.086                                 3286800400217 
9.75000E-01      1.678      0.069                                 3286800400218 
1.02500E+00      1.348      0.068                                 3286800400219 
1.07500E+00      1.639      0.065                                 3286800400220 
1.12500E+00      1.790      0.072                                 3286800400221 
1.15406E+00      1.301      0.187                                 3286800400222 
1.17905E+00      1.402      0.082                                 3286800400223 
1.20846E+00      1.702      0.125                                 3286800400224 
1.25521E+00      1.811      0.054                                 3286800400225 
1.30592E+00      1.893      0.119                                 3286800400226 
1.35917E+00      1.720      0.064                                 3286800400227 
1.46058E+00      1.946      0.051                                 3286800400228 
1.57759E+00      1.851      0.059                                 3286800400229 
1.67130E+00      1.877      0.081                                 3286800400230 
1.75000E+00      1.483      0.060                                 3286800400231 
1.85000E+00      1.578      0.066                                 3286800400232 
1.90670E+00      1.602      0.176                                 3286800400233 
1.98511E+00      1.964      0.055                                 3286800400234 
2.07842E+00      1.666      0.103                                 3286800400235 
2.13013E+00      1.732      0.086                                 3286800400236 
2.18013E+00      1.216      0.104                                 3286800400237 
2.25000E+00      1.721      0.070                                 3286800400238 
2.35000E+00      2.010      0.074                                 3286800400239 
2.45882E+00      1.735      0.072                                 3286800400240 
2.56799E+00      2.073      0.076                                 3286800400241 
2.67821E+00      2.060      0.058                                 3286800400242 
2.74674E+00      1.653      0.180                                 3286800400243 
2.77769E+00      1.642      0.121                                 3286800400244 
2.84065E+00      1.713      0.097                                 3286800400245 
2.89065E+00      2.458      0.204                                 3286800400246 
2.95000E+00      1.794      0.089                                 3286800400247 
3.01058E+00      1.917      0.192                                 3286800400248 
3.06058E+00      2.327      0.100                                 3286800400249 
3.12270E+00      2.165      0.130                                 3286800400250 
3.17270E+00      2.284      0.118                                 3286800400251 
3.25000E+00      3.123      0.086                                 3286800400252 
3.31578E+00      2.176      0.142                                 3286800400253 
3.36578E+00      1.838      0.099                                 3286800400254 
3.41199E+00      1.922      0.173                                 3286800400255 
3.46199E+00      1.767      0.105                                 3286800400256 
3.51234E+00      1.896      0.197                                 3286800400257 
3.56235E+00      1.775      0.118                                 3286800400258 
3.61269E+00      1.903      0.208                                 3286800400259 
3.66270E+00      2.341      0.124                                 3286800400260 
3.70860E+00      1.699      0.258                                 3286800400261 
3.75860E+00      2.733      0.122                                 3286800400262 
3.85000E+00      2.072      0.111                                 3286800400263 
3.91376E+00      2.528      0.209                                 3286800400264 
3.96375E+00      2.658      0.129                                 3286800400265 
4.05000E+00      2.502      0.113                                 3286800400266 
4.11446E+00      2.624      0.207                                 3286800400267 
4.16446E+00      2.546      0.128                                 3286800400268 
4.24455E+00      2.552      0.103                                 3286800400269 
4.29455E+00      3.125      0.262                                 3286800400270 
4.31025E+00      2.537      0.184                                 3286800400271 
4.36025E+00      2.742      0.089                                 3286800400272 
4.41552E+00      2.183      0.140                                 3286800400273 
4.46552E+00      2.170      0.104                                 3286800400274 
4.55000E+00      2.035      0.101                                 3286800400275 
4.65000E+00      1.796      0.115                                 3286800400276 
4.75000E+00      1.531      0.125                                 3286800400277 
4.83050E+00      2.434      0.165                                 3286800400278 
4.88050E+00      1.883      0.206                                 3286800400279 
4.91728E+00      2.512      0.222                                 3286800400280 
4.96729E+00      2.638      0.162                                 3286800400281 
5.05000E+00      2.211      0.132                                 3286800400282 
5.15000E+00      2.247      0.131                                 3286800400283 
5.24782E+00      3.103      0.135                                 3286800400284 
5.29673E+00      1.815      0.864                                 3286800400285 
5.32500E+00      2.150      0.181                                 3286800400286 
5.37500E+00      2.355      0.177                                 3286800400287 
5.41645E+00      2.052      0.213                                 3286800400288 
5.44145E+00      1.931      0.291                                 3286800400289 
5.47500E+00      2.245      0.167                                 3286800400290 
5.50539E+00      2.147      0.349                                 3286800400291 
5.53039E+00      2.216      0.182                                 3286800400292 
5.57500E+00      2.433      0.159                                 3286800400293 
5.65000E+00      2.361      0.114                                 3286800400294 
5.75000E+00      2.836      0.122                                 3286800400295 
5.85000E+00      2.695      0.127                                 3286800400296 
5.95000E+00      2.005      0.131                                 3286800400297 
6.00240E+00      2.147      0.591                                 3286800400298 
6.12740E+00      2.160      0.089                                 3286800400299 
6.37500E+00      2.184      0.090                                 3286800400300 
6.53835E+00      2.133      0.159                                 3286800400301 
6.59990E+00      1.481      0.205                                 3286800400302 
6.64311E+00      1.985      0.222                                 3286800400303 
6.70656E+00      2.301      0.153                                 3286800400304 
6.87500E+00      2.214      0.092                                 3286800400305 
7.07425E+00      2.224      0.117                                 3286800400306 
7.19925E+00      1.940      0.142                                 3286800400307 
7.37500E+00      2.149      0.095                                 3286800400308 
7.61020E+00      1.855      0.106                                 3286800400309 
7.73520E+00      2.276      0.293                                 3286800400310 
7.87500E+00      2.167      0.105                                 3286800400311 
8.12500E+00      1.472      0.105                                 3286800400312 
8.27115E+00      2.420      0.259                                 3286800400313 
8.39644E+00      2.222      0.117                                 3286800400314 
8.57050E+00      2.224      0.138                                 3286800400315 
8.69550E+00      2.310      0.154                                 3286800400316 
8.80710E+00      1.657      0.146                                 3286800400317 
8.86603E+00      0.057      0.002                                 3286800400318 
8.93393E+00      1.673      0.136                                 3286800400319 
9.12500E+00      1.884      0.102                                 3286800400320 
9.34305E+00      2.172      0.122                                 3286800400321 
9.46805E+00      1.506      0.208                                 3286800400322 
9.53350E+00      2.235      0.207                                 3286800400323 
9.65850E+00      1.703      0.127                                 3286800400324 
9.86411E+00      1.675      0.118                                 3286800400325 
9.98911E+00      2.283      0.388                                 3286800400326 
1.00040E+01      1.275      0.640                                 3286800400327 
1.00346E+01      2.016      0.247                                 3286800400328 
1.00885E+01      1.286      0.251                                 3286800400329 
1.01321E+01      2.137      0.310                                 3286800400330 
1.01558E+01      1.250      0.501                                 3286800400331 
1.01832E+01      1.562      0.282                                 3286800400332 
1.02223E+01      1.332      0.211                                 3286800400333 
1.02665E+01      1.340      0.256                                 3286800400334 
1.02986E+01     -0.532     -0.210                                 3286800400335 
1.03263E+01      1.996      1.055                                 3286800400336 
1.03714E+01      2.533      0.202                                 3286800400337 
1.04137E+01      0.665      0.071                                 3286800400338 
1.04412E+01      3.719      0.251                                 3286800400339 
1.04693E+01      1.912      0.137                                 3286800400340 
1.04970E+01      2.644      1.055                                 3286800400341 
1.05306E+01      2.313      0.211                                 3286800400342 
1.05706E+01      0.517      0.097                                 3286800400343 
1.05824E+01      2.565      1.764                                 3286800400344 
1.06134E+01      2.364      0.233                                 3286800400345 
1.06556E+01      1.883      0.294                                 3286800400346 
1.07018E+01      0.937      0.119                                 3286800400347 
1.07426E+01      1.398      0.684                                 3286800400348 
1.07715E+01      1.798      0.388                                 3286800400349 
1.08024E+01      0.296      0.071                                 3286800400350 
1.08491E+01      1.316      1.022                                 3286800400351 
1.08958E+01      2.005      0.668                                 3286800400352 
1.09252E+01      1.660      0.266                                 3286800400353 
1.09722E+01      2.322      0.375                                 3286800400354 
1.10196E+01      0.231      0.032                                 3286800400355 
1.10690E+01      1.735      0.229                                 3286800400356 
1.11254E+01      1.835      0.296                                 3286800400357 
1.11996E+01      1.296      0.147                                 3286800400358 
1.12824E+01      1.426      0.810                                 3286800400359 
1.13617E+01      0.872      0.124                                 3286800400360 
1.14415E+01      0.792      0.256                                 3286800400361 
1.14844E+01      0.733      0.350                                 3286800400362 
1.15376E+01      1.672      0.561                                 3286800400363 
1.15991E+01      1.871      0.349                                 3286800400364 
1.16426E+01      1.885      0.346                                 3286800400365 
1.16892E+01      1.454      0.225                                 3286800400366 
1.17201E+01      0.793      0.419                                 3286800400367 
1.17312E+01      1.949      1.394                                 3286800400368 
1.17827E+01      2.060      0.245                                 3286800400369 
1.18420E+01      1.813      0.346                                 3286800400370 
1.18806E+01      2.389      0.422                                 3286800400371 
1.19489E+01      0.821      0.079                                 3286800400372 
1.20360E+01      1.859      0.408                                 3286800400373 
1.20976E+01      1.134      0.187                                 3286800400374 
1.21430E+01      1.444      0.448                                 3286800400375 
1.21895E+01      1.865      0.390                                 3286800400376 
1.22293E+01      0.384      0.089                                 3286800400377 
1.22687E+01      2.358      1.878                                 3286800400378 
1.23163E+01      1.265      0.183                                 3286800400379 
1.23475E+01      0.670      0.261                                 3286800400380 
1.24129E+01      0.868      0.273                                 3286800400381 
1.24842E+01      1.509      0.683                                 3286800400382 
1.25058E+01      2.868      1.238                                 3286800400383 
1.25172E+01      4.920      1.172                                 3286800400384 
1.25835E+01      1.239      0.052                                 3286800400385 
1.26663E+01      0.931      0.254                                 3286800400386 
1.27179E+01      0.438      0.137                                 3286800400387 
1.27852E+01      1.401      0.830                                 3286800400388 
1.28449E+01      0.840      0.205                                 3286800400389 
1.28672E+01     -0.499     -0.070                                 3286800400390 
1.29337E+01      1.614      0.639                                 3286800400391 
1.30244E+01      1.283      0.259                                 3286800400392 
1.31161E+01      1.662      0.254                                 3286800400393 
1.32081E+01      3.133      0.609                                 3286800400394 
1.32402E+01      0.159      0.031                                 3286800400395 
1.33085E+01      0.901      1.178                                 3286800400396 
1.33945E+01      2.333      0.839                                 3286800400397 
1.34293E+01      1.273      0.288                                 3286800400398 
1.34695E+01      0.604      0.141                                 3286800400399 
1.35544E+01      1.071      0.399                                 3286800400400 
1.36497E+01      2.109      0.513                                 3286800400401 
1.37457E+01      1.903      0.203                                 3286800400402 
1.38422E+01      1.658      0.229                                 3286800400403 
1.39396E+01      1.485      0.202                                 3286800400404 
1.39978E+01      0.106      0.080                                 3286800400405 
1.40055E+01      2.785      2.753                                 3286800400406 
1.41020E+01      1.644      0.106                                 3286800400407 
1.42009E+01      0.348      0.130                                 3286800400408 
1.43010E+01      1.206      0.627                                 3286800400409 
1.44012E+01      3.025      1.539                                 3286800400410 
1.44546E+01      1.010      0.087                                 3286800400411 
1.45415E+01      2.308      0.626                                 3286800400412 
1.45897E+01      1.377      0.406                                 3286800400413 
1.46044E+01      0.563      0.250                                 3286800400414 
1.47073E+01      0.886      0.286                                 3286800400415 
1.48104E+01      1.679      1.188                                 3286800400416 
1.49093E+01      1.355      0.154                                 3286800400417 
1.50055E+01     -0.164     -0.094                                 3286800400418 
1.50831E+01      2.046      0.655                                 3286800400419 
1.51833E+01      1.024      0.172                                 3286800400420 
1.52172E+01      2.603      1.999                                 3286800400421 
1.53245E+01      1.073      0.077                                 3286800400422 
1.54320E+01      3.743      2.763                                 3286800400423 
1.54688E+01      1.359      0.124                                 3286800400424 
1.55720E+01      1.130      0.187                                 3286800400425 
1.56497E+01      2.570      1.829                                 3286800400426 
1.56913E+01      1.063      0.134                                 3286800400427 
1.57958E+01      2.200      0.487                                 3286800400428 
1.58705E+01     -0.407     -0.149                                 3286800400429 
1.59382E+01      0.923      0.564                                 3286800400430 
1.60442E+01      1.214      0.392                                 3286800400431 
1.61570E+01      1.185      0.233                                 3286800400432 
1.62623E+01      1.897      0.521                                 3286800400433 
1.63072E+01      0.848      0.309                                 3286800400434 
1.63850E+01      1.243      0.355                                 3286800400435 
1.64773E+01      2.213      0.769                                 3286800400436 
1.65228E+01      0.776      0.149                                 3286800400437 
1.66162E+01      1.562      0.490                                 3286800400438 
1.67329E+01      1.791      0.347                                 3286800400439 
1.68250E+01      0.848      0.145                                 3286800400440 
1.68966E+01      0.655      0.318                                 3286800400441 
1.69611E+01      1.110      0.567                                 3286800400442 
1.70805E+01      0.596      0.127                                 3286800400443 
1.72004E+01      0.519      0.293                                 3286800400444 
1.73214E+01      0.725      0.332                                 3286800400445 
1.74226E+01      1.354      0.901                                 3286800400446 
1.74626E+01      2.727      0.959                                 3286800400447 
1.74916E+01      0.972      0.261                                 3286800400448 
1.75743E+01      1.654      0.428                                 3286800400449 
1.76891E+01      1.375      0.286                                 3286800400450 
1.78137E+01      1.668      0.293                                 3286800400451 
1.79387E+01      0.678      0.141                                 3286800400452 
1.79900E+01      1.226      0.028                                 3286800400453 
1.80070E+01     -0.716     -0.494                                 3286800400454 
1.80820E+01      0.141      0.053                                 3286800400455 
1.82091E+01      0.604      0.103                                 3286800400456 
1.83371E+01      2.429      1.097                                 3286800400457 
1.84530E+01     -0.057     -0.008                                 3286800400458 
1.85130E+01      1.212      0.139                                 3286800400459 
1.85559E+01      0.903      0.310                                 3286800400460 
1.86259E+01      0.380      0.153                                 3286800400461 
1.87265E+01      0.210      0.163                                 3286800400462 
1.88582E+01      2.139      0.668                                 3286800400463 
1.89646E+01      1.299      0.238                                 3286800400464 
1.90262E+01      1.033      0.370                                 3286800400465 
1.91052E+01     -0.132     -0.042                                 3286800400466 
1.91771E+01      2.962     12.055                                 3286800400467 
1.93122E+01      0.700      0.052                                 3286800400468 
1.94476E+01     -1.223     -0.940                                 3286800400469 
1.94835E+01      2.810      1.349                                 3286800400470 
1.96012E+01      0.934      0.079                                 3286800400471 
1.97162E+01      0.561      0.385                                 3286800400472 
1.97358E+01      5.870      4.727                                 3286800400473 
1.98610E+01      0.633      0.024                                 3286800400474 
1.99901E+01      1.819      0.432                                 3286800400475 
ENDDATA            465          0                                 3286800400476 
ENDSUBENT          475          0                                 3286800499999 
SUBENT        32868005   20230217                             32093286800500001 
BIB                  3          5                                 3286800500002 
REACTION   (3-LI-0(N,TOT),,SIG)                                   3286800500003 
SAMPLE     15.0 mm thick sample                                   3286800500004 
STATUS     (TABLE) Fig.7 of Acta Physica Sinica,71,052901,2022    3286800500005 
                   Data were obtained from AUTHOR                 3286800500006 
           (DEP,32868003) Transmission                            3286800500007 
ENDBIB               5          0                                 3286800500008 
NOCOMMON             0          0                                 3286800500009 
DATA                 3        463                                 3286800500010 
EN         DATA       DATA-ERR                                    3286800500011 
MEV        B          B                                           3286800500012 
4.25000E-07     18.002      0.483                                 3286800500013 
4.58000E-07     17.767      0.406                                 3286800500014 
5.05000E-07     16.586      0.377                                 3286800500015 
5.56000E-07     16.293      0.367                                 3286800500016 
6.14000E-07     15.508      0.349                                 3286800500017 
6.77000E-07     14.760      0.333                                 3286800500018 
7.47000E-07     14.045      0.319                                 3286800500019 
8.24000E-07     13.512      0.307                                 3286800500020 
9.09000E-07     12.788      0.290                                 3286800500021 
1.00000E-06     12.199      0.272                                 3286800500022 
1.11000E-06     11.802      0.253                                 3286800500023 
1.22000E-06     11.184      0.261                                 3286800500024 
1.35000E-06     10.501      0.299                                 3286800500025 
1.42000E-06     10.438      0.648                                 3286800500026 
1.50000E-06     10.112      0.326                                 3286800500027 
1.64000E-06      9.693      0.318                                 3286800500028 
1.81000E-06      9.528      0.326                                 3286800500029 
1.99000E-06      8.744      0.278                                 3286800500030 
2.20000E-06      8.131      0.327                                 3286800500031 
2.42000E-06      8.016      0.341                                 3286800500032 
2.67000E-06      7.794      0.365                                 3286800500033 
2.95000E-06      7.473      0.252                                 3286800500034 
3.25000E-06      7.265      0.230                                 3286800500035 
3.59000E-06      7.031      0.213                                 3286800500036 
3.96000E-06      6.760      0.628                                 3286800500037 
4.37000E-06      5.855      0.623                                 3286800500038 
4.82000E-06      6.106      0.344                                 3286800500039 
5.31000E-06      5.990      0.284                                 3286800500040 
5.86000E-06      5.685      0.213                                 3286800500041 
6.46000E-06      5.427      0.160                                 3286800500042 
7.15000E-06      5.249      0.207                                 3286800500043 
7.91000E-06      5.068      0.422                                 3286800500044 
8.76000E-06      4.841      0.108                                 3286800500045 
9.71000E-06      4.644      0.150                                 3286800500046 
1.04000E-05      4.455      0.339                                 3286800500047 
1.09000E-05      3.969      0.297                                 3286800500048 
1.18000E-05      4.449      0.129                                 3286800500049 
1.30000E-05      4.196      0.136                                 3286800500050 
1.43000E-05      3.967      0.134                                 3286800500051 
1.59000E-05      3.767      0.156                                 3286800500052 
1.76000E-05      3.744      0.140                                 3286800500053 
1.96000E-05      3.573      0.104                                 3286800500054 
2.16000E-05      3.455      0.162                                 3286800500055 
2.38000E-05      3.247      0.122                                 3286800500056 
2.61000E-05      3.313      0.134                                 3286800500057 
2.87000E-05      2.979      0.171                                 3286800500058 
3.17000E-05      2.952      0.125                                 3286800500059 
3.52000E-05      2.883      0.089                                 3286800500060 
3.91000E-05      2.885      0.135                                 3286800500061 
4.30000E-05      2.607      0.124                                 3286800500062 
4.71000E-05      2.612      0.132                                 3286800500063 
5.16000E-05      2.515      0.088                                 3286800500064 
5.71000E-05      2.483      0.077                                 3286800500065 
6.31000E-05      2.414      0.142                                 3286800500066 
6.99000E-05      2.363      0.100                                 3286800500067 
7.79000E-05      2.117      0.112                                 3286800500068 
8.66000E-05      2.191      0.107                                 3286800500069 
9.71000E-05      2.302      0.119                                 3286800500070 
1.07000E-04      1.962      0.146                                 3286800500071 
1.16000E-04      2.033      0.130                                 3286800500072 
1.26000E-04      1.895      0.120                                 3286800500073 
1.37000E-04      2.073      0.150                                 3286800500074 
1.50000E-04      1.833      0.135                                 3286800500075 
1.63000E-04      1.833      0.126                                 3286800500076 
1.80000E-04      1.958      0.121                                 3286800500077 
1.97000E-04      1.987      0.142                                 3286800500078 
2.13000E-04      1.805      0.131                                 3286800500079 
2.32000E-04      1.678      0.121                                 3286800500080 
2.51000E-04      1.516      0.139                                 3286800500081 
2.72000E-04      1.677      0.105                                 3286800500082 
2.98000E-04      1.550      0.136                                 3286800500083 
3.26000E-04      1.584      0.159                                 3286800500084 
3.58000E-04      1.490      0.166                                 3286800500085 
3.92000E-04      1.332      0.168                                 3286800500086 
4.26000E-04      1.534      0.137                                 3286800500087 
4.63000E-04      1.616      0.128                                 3286800500088 
5.02000E-04      1.721      0.122                                 3286800500089 
5.44000E-04      1.679      0.134                                 3286800500090 
5.94000E-04      1.510      0.118                                 3286800500091 
6.48000E-04      1.393      0.142                                 3286800500092 
7.13000E-04      1.429      0.127                                 3286800500093 
7.83000E-04      1.457      0.140                                 3286800500094 
8.46000E-04      1.507      0.177                                 3286800500095 
9.07000E-04      1.593      0.140                                 3286800500096 
9.69000E-04      1.549      0.206                                 3286800500097 
1.07000E-03      1.460      0.131                                 3286800500098 
1.21000E-03      1.357      0.117                                 3286800500099 
1.35000E-03      1.370      0.127                                 3286800500100 
1.50000E-03      1.320      0.138                                 3286800500101 
1.71000E-03      1.323      0.111                                 3286800500102 
1.95000E-03      1.524      0.117                                 3286800500103 
2.21000E-03      1.452      0.138                                 3286800500104 
2.55000E-03      1.165      0.120                                 3286800500105 
2.93000E-03      1.220      0.125                                 3286800500106 
3.38000E-03      1.253      0.114                                 3286800500107 
3.90000E-03      1.277      0.128                                 3286800500108 
4.43000E-03      1.185      0.126                                 3286800500109 
5.10000E-03      1.349      0.116                                 3286800500110 
5.86000E-03      1.110      0.130                                 3286800500111 
6.77000E-03      1.289      0.119                                 3286800500112 
7.77000E-03      1.165      0.147                                 3286800500113 
8.73000E-03      1.093      0.147                                 3286800500114 
9.62000E-03      1.139      0.161                                 3286800500115 
1.05400E-02      1.114      0.148                                 3286800500116 
1.13800E-02      1.344      0.189                                 3286800500117 
1.23900E-02      0.864      0.176                                 3286800500118 
1.33100E-02      1.106      0.171                                 3286800500119 
1.43000E-02      1.310      0.163                                 3286800500120 
1.54400E-02      1.177      0.167                                 3286800500121 
1.65800E-02      1.129      0.200                                 3286800500122 
1.77800E-02      1.169      0.169                                 3286800500123 
1.93300E-02      1.048      0.152                                 3286800500124 
2.11700E-02      0.984      0.141                                 3286800500125 
2.29900E-02      1.104      0.146                                 3286800500126 
2.47700E-02      1.143      0.128                                 3286800500127 
2.66100E-02      1.155      0.132                                 3286800500128 
3.08800E-02      0.962      0.153                                 3286800500129 
3.31700E-02      0.907      0.173                                 3286800500130 
3.55600E-02      1.350      0.176                                 3286800500131 
3.87300E-02      1.064      0.138                                 3286800500132 
4.18800E-02      0.919      0.147                                 3286800500133 
4.49100E-02      0.985      0.128                                 3286800500134 
4.85000E-02      1.015      0.122                                 3286800500135 
5.12500E-02      1.023      0.185                                 3286800500136 
5.33400E-02      1.000      0.163                                 3286800500137 
5.65800E-02      0.899      0.119                                 3286800500138 
6.05100E-02      0.942      0.122                                 3286800500139 
6.47900E-02      1.075      0.109                                 3286800500140 
7.06800E-02      0.867      0.092                                 3286800500141 
7.75500E-02      1.209      0.107                                 3286800500142 
8.37800E-02      1.000      0.113                                 3286800500143 
9.04600E-02      0.941      0.118                                 3286800500144 
9.73500E-02      0.981      0.111                                 3286800500145 
1.01420E-01      0.938      0.230                                 3286800500146 
1.07000E-01      0.858      0.087                                 3286800500147 
1.15930E-01      1.130      0.096                                 3286800500148 
1.25450E-01      1.024      0.088                                 3286800500149 
1.35030E-01      1.153      0.086                                 3286800500150 
1.45490E-01      1.012      0.101                                 3286800500151 
1.55570E-01      1.027      0.094                                 3286800500152 
1.68110E-01      1.351      0.083                                 3286800500153 
1.77550E-01      1.049      0.130                                 3286800500154 
1.90000E-01      1.540      0.071                                 3286800500155 
2.05000E-01      1.941      0.104                                 3286800500156 
2.12990E-01      2.337      0.134                                 3286800500157 
2.17990E-01      2.863      0.166                                 3286800500158 
2.25000E-01      3.654      0.122                                 3286800500159 
2.34990E-01      5.107      0.142                                 3286800500160 
2.40350E-01      6.934      0.414                                 3286800500161 
2.45360E-01      7.515      0.183                                 3286800500162 
2.55000E-01      8.992      0.208                                 3286800500163 
2.63280E-01      8.915      0.216                                 3286800500164 
2.68280E-01      8.728      0.254                                 3286800500165 
2.71290E-01      8.679      0.279                                 3286800500166 
2.75880E-01      7.679      0.203                                 3286800500167 
2.79590E-01      6.737      0.389                                 3286800500168 
2.82130E-01      6.433      0.202                                 3286800500169 
2.87130E-01      5.638      0.180                                 3286800500170 
2.91010E-01      5.378      0.262                                 3286800500171 
2.96010E-01      4.228      0.141                                 3286800500172 
3.02920E-01      3.239      0.145                                 3286800500173 
3.07920E-01      2.958      0.173                                 3286800500174 
3.10520E-01      2.985      0.332                                 3286800500175 
3.14320E-01      2.914      0.141                                 3286800500176 
3.18800E-01      2.564      0.210                                 3286800500177 
3.21010E-01      2.692      0.226                                 3286800500178 
3.24540E-01      2.436      0.147                                 3286800500179 
3.28540E-01      2.250      0.196                                 3286800500180 
3.32390E-01      2.298      0.154                                 3286800500181 
3.37390E-01      2.089      0.141                                 3286800500182 
3.40830E-01      2.123      0.241                                 3286800500183 
3.44950E-01      1.842      0.128                                 3286800500184 
3.49120E-01      2.290      0.250                                 3286800500185 
3.54200E-01      2.084      0.119                                 3286800500186 
3.63220E-01      1.453      0.126                                 3286800500187 
3.71820E-01      1.637      0.103                                 3286800500188 
3.78600E-01      1.638      0.197                                 3286800500189 
3.84100E-01      1.337      0.115                                 3286800500190 
3.94100E-01      1.532      0.097                                 3286800500191 
4.08560E-01      1.347      0.087                                 3286800500192 
4.28340E-01      1.268      0.075                                 3286800500193 
4.44780E-01      1.126      0.115                                 3286800500194 
4.53700E-01      1.135      0.130                                 3286800500195 
4.68650E-01      1.192      0.078                                 3286800500196 
4.89950E-01      1.074      0.083                                 3286800500197 
5.07360E-01      0.764      0.092                                 3286800500198 
5.25410E-01      1.005      0.079                                 3286800500199 
5.48140E-01      1.153      0.187                                 3286800500200 
5.70240E-01      1.126      0.072                                 3286800500201 
5.92120E-01      1.137      0.090                                 3286800500202 
6.25000E-01      1.029      0.055                                 3286800500203 
6.52290E-01      0.712      0.158                                 3286800500204 
6.75410E-01      1.010      0.064                                 3286800500205 
6.98120E-01      0.811      0.199                                 3286800500206 
7.25000E-01      1.139      0.059                                 3286800500207 
7.63510E-01      1.004      0.084                                 3286800500208 
7.88510E-01      1.436      0.086                                 3286800500209 
8.05640E-01      1.261      0.133                                 3286800500210 
8.30640E-01      1.033      0.074                                 3286800500211 
8.54300E-01      1.193      0.153                                 3286800500212 
8.60300E-01      1.009      0.244                                 3286800500213 
8.80990E-01      1.399      0.078                                 3286800500214 
9.03170E-01      0.912      0.183                                 3286800500215 
9.14850E-01      1.159      0.114                                 3286800500216 
9.36680E-01      1.275      0.090                                 3286800500217 
9.75000E-01      1.450      0.074                                 3286800500218 
1.02500E+00      1.449      0.073                                 3286800500219 
1.07500E+00      1.498      0.071                                 3286800500220 
1.12500E+00      1.508      0.077                                 3286800500221 
1.15406E+00      1.379      0.190                                 3286800500222 
1.17905E+00      1.535      0.088                                 3286800500223 
1.20846E+00      1.609      0.129                                 3286800500224 
1.25521E+00      1.810      0.063                                 3286800500225 
1.30592E+00      1.576      0.123                                 3286800500226 
1.35917E+00      1.712      0.071                                 3286800500227 
1.46058E+00      1.900      0.062                                 3286800500228 
1.57759E+00      1.654      0.066                                 3286800500229 
1.67130E+00      1.611      0.087                                 3286800500230 
1.75000E+00      1.534      0.067                                 3286800500231 
1.85000E+00      1.512      0.071                                 3286800500232 
1.90670E+00      1.402      0.180                                 3286800500233 
1.98511E+00      1.594      0.061                                 3286800500234 
2.07842E+00      1.710      0.109                                 3286800500235 
2.13013E+00      1.701      0.092                                 3286800500236 
2.18013E+00      1.376      0.108                                 3286800500237 
2.25000E+00      1.718      0.077                                 3286800500238 
2.35000E+00      1.844      0.082                                 3286800500239 
2.45882E+00      1.753      0.080                                 3286800500240 
2.56799E+00      2.115      0.086                                 3286800500241 
2.67821E+00      2.167      0.070                                 3286800500242 
2.74674E+00      1.994      0.188                                 3286800500243 
2.77769E+00      1.786      0.127                                 3286800500244 
2.84065E+00      1.760      0.103                                 3286800500245 
2.89065E+00      2.218      0.211                                 3286800500246 
2.95000E+00      1.883      0.097                                 3286800500247 
3.01058E+00      2.273      0.201                                 3286800500248 
3.06058E+00      2.064      0.108                                 3286800500249 
3.12270E+00      1.983      0.136                                 3286800500250 
3.17270E+00      2.361      0.127                                 3286800500251 
3.25000E+00      2.704      0.099                                 3286800500252 
3.31578E+00      2.572      0.153                                 3286800500253 
3.36578E+00      2.180      0.109                                 3286800500254 
3.41199E+00      1.887      0.179                                 3286800500255 
3.46199E+00      1.706      0.110                                 3286800500256 
3.51234E+00      2.066      0.204                                 3286800500257 
3.56235E+00      1.860      0.125                                 3286800500258 
3.61269E+00      1.901      0.214                                 3286800500259 
3.66270E+00      2.097      0.131                                 3286800500260 
3.70860E+00      2.009      0.265                                 3286800500261 
3.75860E+00      2.156      0.128                                 3286800500262 
3.85000E+00      2.111      0.119                                 3286800500263 
3.91376E+00      2.212      0.215                                 3286800500264 
3.96375E+00      2.134      0.135                                 3286800500265 
4.05000E+00      2.073      0.120                                 3286800500266 
4.11446E+00      2.229      0.214                                 3286800500267 
4.16446E+00      2.352      0.136                                 3286800500268 
4.24455E+00      2.484      0.113                                 3286800500269 
4.29455E+00      2.327      0.268                                 3286800500270 
4.31025E+00      2.373      0.192                                 3286800500271 
4.36025E+00      2.270      0.098                                 3286800500272 
4.41552E+00      2.215      0.148                                 3286800500273 
4.46552E+00      2.471      0.115                                 3286800500274 
4.55000E+00      2.287      0.111                                 3286800500275 
4.65000E+00      2.199      0.125                                 3286800500276 
4.75000E+00      2.158      0.134                                 3286800500277 
4.83050E+00      2.098      0.171                                 3286800500278 
4.88050E+00      2.074      0.214                                 3286800500279 
4.91728E+00      2.330      0.229                                 3286800500280 
4.96729E+00      2.370      0.170                                 3286800500281 
5.05000E+00      2.175      0.140                                 3286800500282 
5.15000E+00      1.860      0.137                                 3286800500283 
5.24782E+00      2.022      0.139                                 3286800500284 
5.29673E+00      1.636      0.875                                 3286800500285 
5.32500E+00      1.883      0.186                                 3286800500286 
5.37500E+00      1.727      0.180                                 3286800500287 
5.41645E+00      1.834      0.218                                 3286800500288 
5.44145E+00      1.709      0.296                                 3286800500289 
5.47500E+00      1.819      0.172                                 3286800500290 
5.50539E+00      2.074      0.357                                 3286800500291 
5.53039E+00      2.009      0.188                                 3286800500292 
5.57500E+00      2.196      0.166                                 3286800500293 
5.65000E+00      2.561      0.126                                 3286800500294 
5.75000E+00      2.592      0.132                                 3286800500295 
5.85000E+00      2.787      0.139                                 3286800500296 
5.95000E+00      2.367      0.141                                 3286800500297 
6.00240E+00      2.730      0.611                                 3286800500298 
6.12740E+00      2.119      0.098                                 3286800500299 
6.37500E+00      2.097      0.098                                 3286800500300 
6.53835E+00      1.999      0.166                                 3286800500301 
6.59990E+00      1.783      0.211                                 3286800500302 
6.64311E+00      1.630      0.226                                 3286800500303 
6.70656E+00      1.960      0.158                                 3286800500304 
6.87500E+00      1.961      0.099                                 3286800500305 
7.07425E+00      2.107      0.124                                 3286800500306 
7.19925E+00      1.908      0.148                                 3286800500307 
7.37500E+00      1.974      0.103                                 3286800500308 
7.61020E+00      2.004      0.114                                 3286800500309 
7.73520E+00      2.035      0.300                                 3286800500310 
7.87500E+00      1.981      0.111                                 3286800500311 
8.12500E+00      1.790      0.112                                 3286800500312 
8.27115E+00      1.911      0.264                                 3286800500313 
8.39644E+00      2.052      0.124                                 3286800500314 
8.57050E+00      2.174      0.146                                 3286800500315 
8.69550E+00      2.050      0.160                                 3286800500316 
8.80710E+00      2.023      0.154                                 3286800500317 
8.86603E+00      1.343      0.822                                 3286800500318 
8.93393E+00      1.842      0.142                                 3286800500319 
9.12500E+00      1.837      0.108                                 3286800500320 
9.34305E+00      1.833      0.128                                 3286800500321 
9.46805E+00      1.944      0.216                                 3286800500322 
9.53350E+00      1.784      0.211                                 3286800500323 
9.65850E+00      1.758      0.133                                 3286800500324 
9.86411E+00      1.813      0.124                                 3286800500325 
9.98911E+00      1.352      0.389                                 3286800500326 
1.00040E+01      0.942      0.643                                 3286800500327 
1.00346E+01      1.600      0.251                                 3286800500328 
1.00885E+01      1.255      0.254                                 3286800500329 
1.01321E+01      1.810      0.315                                 3286800500330 
1.01558E+01      1.387      0.508                                 3286800500331 
1.01832E+01      1.803      0.289                                 3286800500332 
1.02223E+01      1.157      0.182                                 3286800500333 
1.02665E+01      1.502      0.336                                 3286800500334 
1.02986E+01      0.955      0.344                                 3286800500335 
1.03263E+01      1.745      0.521                                 3286800500336 
1.03714E+01      1.631      0.150                                 3286800500337 
1.04137E+01      1.450      0.245                                 3286800500338 
1.04412E+01      2.108      1.034                                 3286800500339 
1.04693E+01      2.056      0.267                                 3286800500340 
1.04970E+01      2.053      0.772                                 3286800500341 
1.05306E+01      2.040      0.245                                 3286800500342 
1.05706E+01      1.520      0.332                                 3286800500343 
1.05824E+01      2.238      1.305                                 3286800500344 
1.06134E+01      1.606      0.185                                 3286800500345 
1.06556E+01      0.765      0.176                                 3286800500346 
1.07018E+01      1.549      0.493                                 3286800500347 
1.07426E+01      1.713      0.517                                 3286800500348 
1.07715E+01      1.674      0.300                                 3286800500349 
1.08024E+01      1.440      0.380                                 3286800500350 
1.08491E+01      1.528      0.249                                 3286800500351 
1.08958E+01      1.697      0.494                                 3286800500352 
1.09252E+01      1.740      0.336                                 3286800500353 
1.09722E+01      1.727      0.270                                 3286800500354 
1.10196E+01      1.103      0.209                                 3286800500355 
1.10690E+01      1.711      0.412                                 3286800500356 
1.11254E+01      1.258      0.208                                 3286800500357 
1.11996E+01      1.756      0.297                                 3286800500358 
1.12824E+01      1.789      1.517                                 3286800500359 
1.13617E+01      1.278      0.149                                 3286800500360 
1.14415E+01      1.871      0.424                                 3286800500361 
1.14844E+01      1.232      0.254                                 3286800500362 
1.15376E+01      1.306      0.264                                 3286800500363 
1.15991E+01      1.016      0.243                                 3286800500364 
1.16426E+01      1.522      0.519                                 3286800500365 
1.16892E+01      1.394      0.271                                 3286800500366 
1.17201E+01      1.230      0.688                                 3286800500367 
1.17312E+01      1.369      0.636                                 3286800500368 
1.17827E+01      0.977      0.166                                 3286800500369 
1.18420E+01      1.917      0.784                                 3286800500370 
1.18806E+01      1.460      0.246                                 3286800500371 
1.19489E+01      1.319      0.213                                 3286800500372 
1.20360E+01      1.809      0.654                                 3286800500373 
1.20976E+01      1.931      0.337                                 3286800500374 
1.21430E+01      1.165      0.215                                 3286800500375 
1.21895E+01      1.614      0.424                                 3286800500376 
1.22293E+01      1.373      0.376                                 3286800500377 
1.22687E+01      1.522      0.341                                 3286800500378 
1.23163E+01      1.347      0.307                                 3286800500379 
1.23475E+01      1.560      0.584                                 3286800500380 
1.24129E+01      1.335      0.185                                 3286800500381 
1.24842E+01      1.928      0.581                                 3286800500382 
1.25058E+01      1.589      0.538                                 3286800500383 
1.25172E+01      2.176      0.928                                 3286800500384 
1.25835E+01      1.304      0.126                                 3286800500385 
1.26663E+01      1.021      0.268                                 3286800500386 
1.27179E+01      1.592      0.465                                 3286800500387 
1.27852E+01      1.567      0.261                                 3286800500388 
1.28449E+01      0.843      0.186                                 3286800500389 
1.28672E+01      1.607      0.477                                 3286800500390 
1.29337E+01      1.151      0.144                                 3286800500391 
1.30244E+01      1.706      0.493                                 3286800500392 
1.31161E+01      1.522      0.179                                 3286800500393 
1.32081E+01      2.147      0.461                                 3286800500394 
1.32402E+01      1.062      0.305                                 3286800500395 
1.33085E+01      1.543      0.310                                 3286800500396 
1.33945E+01      1.660      0.353                                 3286800500397 
1.34293E+01      1.406      0.453                                 3286800500398 
1.34695E+01      1.411      0.305                                 3286800500399 
1.35544E+01      1.384      0.226                                 3286800500400 
1.36497E+01      1.624      0.310                                 3286800500401 
1.37457E+01      1.458      0.205                                 3286800500402 
1.38422E+01      1.580      0.289                                 3286800500403 
1.39396E+01      1.709      0.250                                 3286800500404 
1.39978E+01      1.048      0.702                                 3286800500405 
1.40055E+01      1.029      0.720                                 3286800500406 
1.41020E+01      1.570      0.277                                 3286800500407 
1.42009E+01      0.586      0.232                                 3286800500408 
1.43010E+01      1.241      0.387                                 3286800500409 
1.44012E+01      2.323      1.165                                 3286800500410 
1.44546E+01      1.444      0.166                                 3286800500411 
1.45415E+01      1.613      0.310                                 3286800500412 
1.45897E+01      1.613      0.691                                 3286800500413 
1.46044E+01      2.227      0.878                                 3286800500414 
1.47073E+01      1.485      0.127                                 3286800500415 
1.48104E+01      1.614      0.691                                 3286800500416 
1.49093E+01      1.376      0.166                                 3286800500417 
1.50055E+01      0.880      0.504                                 3286800500418 
1.50831E+01      1.315      0.325                                 3286800500419 
1.51833E+01      1.516      0.404                                 3286800500420 
1.52172E+01      1.763      0.922                                 3286800500421 
1.53245E+01      1.294      0.140                                 3286800500422 
1.54320E+01      2.474      1.529                                 3286800500423 
1.54688E+01      1.077      0.150                                 3286800500424 
1.55720E+01      1.177      0.249                                 3286800500425 
1.56497E+01      1.484      1.016                                 3286800500426 
1.56913E+01      1.216      0.268                                 3286800500427 
1.57958E+01      1.343      0.262                                 3286800500428 
1.58705E+01     -0.112      0.067                                 3286800500429 
1.59382E+01      1.598      0.429                                 3286800500430 
1.60442E+01      1.251      0.237                                 3286800500431 
1.61570E+01      1.561      0.304                                 3286800500432 
1.62623E+01      1.586      0.336                                 3286800500433 
1.63072E+01      1.774      0.793                                 3286800500434 
1.63850E+01      1.198      0.167                                 3286800500435 
1.64773E+01      1.265      0.457                                 3286800500436 
1.65228E+01      1.114      0.380                                 3286800500437 
1.66162E+01      1.535      0.341                                 3286800500438 
1.67329E+01      1.549      0.310                                 3286800500439 
1.68250E+01      1.111      0.223                                 3286800500440 
1.68966E+01      0.908      0.340                                 3286800500441 
1.69611E+01      1.335      0.500                                 3286800500442 
1.70805E+01      0.998      0.180                                 3286800500443 
1.72004E+01      1.686      0.583                                 3286800500444 
1.73214E+01      1.275      0.184                                 3286800500445 
1.74226E+01      1.589      0.611                                 3286800500446 
1.74626E+01      1.577      0.474                                 3286800500447 
1.74916E+01      1.743      0.829                                 3286800500448 
1.75743E+01      1.527      0.225                                 3286800500449 
1.76891E+01      1.083      0.246                                 3286800500450 
1.78137E+01      1.248      0.280                                 3286800500451 
1.79387E+01      1.091      0.308                                 3286800500452 
1.79900E+01      1.482      0.954                                 3286800500453 
1.80070E+01      1.396      0.822                                 3286800500454 
1.80820E+01      0.930      0.183                                 3286800500455 
1.82091E+01      1.145      0.365                                 3286800500456 
1.83371E+01      1.598      0.384                                 3286800500457 
1.84530E+01      1.364      0.288                                 3286800500458 
1.85130E+01      0.975      0.456                                 3286800500459 
1.85559E+01      1.198      0.519                                 3286800500460 
1.86259E+01      0.811      0.249                                 3286800500461 
1.87265E+01      1.027      0.379                                 3286800500462 
1.88582E+01      1.311      0.354                                 3286800500463 
1.89646E+01      1.496      0.453                                 3286800500464 
1.90262E+01      1.133      0.356                                 3286800500465 
1.91052E+01      0.399      0.116                                 3286800500466 
1.91771E+01      1.097      0.366                                 3286800500467 
1.93122E+01      1.064      0.217                                 3286800500468 
1.94476E+01      0.628      0.325                                 3286800500469 
1.94835E+01      2.069      1.955                                 3286800500470 
1.96012E+01      1.104      0.130                                 3286800500471 
1.97162E+01      1.672      0.995                                 3286800500472 
1.97358E+01      2.390      1.428                                 3286800500473 
1.98610E+01      1.217      0.117                                 3286800500474 
1.99901E+01      0.406      0.259                                 3286800500475 
ENDDATA            465          0                                 3286800500476 
ENDSUBENT          475          0                                 3286800599999 
ENDENTRY             5          0                                 3286899999999 
