ENTRY            40087   20111014                             41544008700000001 
SUBENT        40087001   20111014                             41544008700100001 
BIB                  9         30                                 4008700100002 
INSTITUTE  (4RUSITE)                                              4008700100003 
REFERENCE  (C,70HELSINKI,1,339,197006)                            4008700100004 
            Preprint IAEA-CN-26/89.                               4008700100005 
AUTHOR     (F.N.Belyaev,K.G.Ignat'ev,S.I.Sukhoruchkin,            4008700100006 
           S.P.Borovlev,V.V.Pavlov,M.B.Polozov,A.N.Soldatov)      4008700100007 
TITLE      Measurement of ALPHA values for U-235 and Pu-239.      4008700100008 
FACILITY   (CYCLO,4RUSITE)    Cyclotron                           4008700100009 
SAMPLE     Metallic Pu-239 sample with thickness of 2.2E-3        4008700100010 
           atom/barn included 1.8 percent of Pu-240 admixture     4008700100011 
METHOD     (TOF)      Time of flight. Flight path 14.56 m.        4008700100012 
           Fission and capture effects from metallic foil were    4008700100013 
           measured independently by two methods using different  4008700100014 
           kinds of detectors.                                    4008700100015 
           ALPHA was determined by experimental counts ratio of   4008700100016 
           capture effect to fission effect.                      4008700100017 
           Background was determined by means of Mn,Na,Ag         4008700100018 
           resonance filters.                                     4008700100019 
           For verification and for mastering of method the       4008700100020 
           ALPHA value for U-235 was also measured.               4008700100021 
HISTORY    (19731129C)       Compiled at the centre               4008700100022 
           (20111014A) M.M. F -> ABS in REACTION of Subent 002.   4008700100023 
            Upper -> lower case correction.                       4008700100024 
            Dates were corrected for 4-digits year.               4008700100025 
            BIB information was added.                            4008700100026 
           Data ( were marked as "ALL POINTS ELIMINATED FROM SET",4008700100027 
           a reason was not explained) of                         4008700100028 
           - Subents 2, 6-8 are restored from the article or      4008700100029 
            from trans 4017.                                      4008700100030 
            Subent 009 was added.                                 4008700100031 
CORRECTION Correction on background was introduced                4008700100032 
ENDBIB              30          0                                 4008700100033 
NOCOMMON             0          0                                 4008700100034 
ENDSUBENT           33          0                                 4008700199999 
SUBENT        40087002   20111014                             41544008700200001 
BIB                  5          6                                 4008700200002 
REACTION   (94-PU-239(N,ABS),,ALF,,RES)                           4008700200003 
COMMENT    In data section alpha values for completely resolved   4008700200004 
           resonances are given                                   4008700200005 
ERR-ANALYS (DATA-ERR)         No information available            4008700200006 
STATUS     (TABLE) Table 3 of C,70HELSINKI,I,339,1970.            4008700200007 
HISTORY    (20111014S) M.M. Data were restored from the article.  4008700200008 
ENDBIB               6          0                                 4008700200009 
NOCOMMON             0          0                                 4008700200010 
DATA                 3          5                                 4008700200011 
EN-RES     DATA       DATA-ERR                                    4008700200012 
EV         NO-DIM     NO-DIM                                      4008700200013 
7.85       0.86       0.03                                        4008700200014 
17.7       1.14       0.05                                        4008700200015 
22.3       0.60       0.04                                        4008700200016 
26.3       0.99       0.06                                        4008700200017 
44.5       9.60       0.60                                        4008700200018 
ENDDATA              7          0                                 4008700200019 
ENDSUBENT           18          0                                 4008700299999 
SUBENT        40087003   20111014                             41544008700300001 
BIB                  8         17                                 4008700300002 
REACTION   (94-PU-239(N,ABS),,ALF,,AV)                            4008700300003 
DETECTOR   (SCIN)     In first method the fission effect was      4008700300004 
           measured on secondary fast neutron yield from          4008700300005 
           metallic foil by counters. Counters were paraffin and  4008700300006 
           zinc sulphide covering two photoelectric multipliers.  4008700300007 
           Capture gammas and fission gammas were counted         4008700300008 
           by NaI crystal.                                        4008700300009 
MONITOR    (94-PU-239(N,ABS),,ETA)                                4008700300010 
            At 0.03 resonance for normalization                   4008700300011 
MONIT-REF  (40087009,F.N.Belyaev+,C,70HELSINKI,I,339,1970)        4008700300012 
            Value was measured in additional experiment,          4008700300013 
           see SUBENT 009.                                        4008700300014 
PART-DET   (N)        Neutrons                                    4008700300015 
           (G)        Gammas                                      4008700300016 
COMMENT    Data were averaged on standard energy interval         4008700300017 
ERR-ANALYS (ERR-S)           Statistical errors are given         4008700300018 
STATUS     (TABLE) Table 4 of C,70HELSINKI,I,339,1970.            4008700300019 
ENDBIB              17          0                                 4008700300020 
COMMON               3          3                                 4008700300021 
EN-NRM     MONIT      MONIT-ERR                                   4008700300022 
EV         NO-DIM     NO-DIM                                      4008700300023 
 3.0000E-02 1.7280E+00 2.6000E-02                                 4008700300024 
ENDCOMMON            3          0                                 4008700300025 
DATA                 4         15                                 4008700300026 
EN-MIN     EN-MAX     DATA       ERR-S                            4008700300027 
KEV        KEV        NO-DIM     NO-DIM                           4008700300028 
 1.0000E-01 2.0000E-01 8.7000E-01 3.0000E-02                      4008700300029 
 2.0000E-01 3.0000E-01 1.0900E+00 4.0000E-02                      4008700300030 
 3.0000E-01 4.0000E-01 1.2400E+00 6.0000E-02                      4008700300031 
 4.0000E-01 5.0000E-01 4.7000E-01 5.0000E-02                      4008700300032 
 5.0000E-01 6.0000E-01 7.6000E-01 6.0000E-02                      4008700300033 
 6.0000E-01 7.0000E-01 1.7100E+00 1.5000E-01                      4008700300034 
 7.0000E-01 8.0000E-01 9.2000E-01 1.0000E-01                      4008700300035 
 8.0000E-01 9.0000E-01 8.7000E-01 1.1000E-01                      4008700300036 
 9.0000E-01 1.0000E+00 7.5000E-01 9.0000E-02                      4008700300037 
 1.0000E+00 2.0000E+00 1.0600E+00 7.0000E-02                      4008700300038 
 1.0000E+00 1.0000E+01 8.3000E-01 4.0000E-02                      4008700300039 
 2.0000E+00 3.0000E+00 1.2300E+00 9.0000E-02                      4008700300040 
 3.0000E+00 4.0000E+00 9.8000E-01 1.3000E-01                      4008700300041 
 4.0000E+00 5.0000E+00 8.7000E-01 1.1000E-01                      4008700300042 
 5.0000E+00 1.0000E+01 6.7000E-01 8.0000E-02                      4008700300043 
ENDDATA             17          0                                 4008700300044 
ENDSUBENT           43          0                                 4008700399999 
SUBENT        40087004   20111014                             41544008700400001 
BIB                  7         11                                 4008700400002 
REACTION   (94-PU-239(N,ABS),,ALF,,AV)                            4008700400003 
DETECTOR   (SCIN)     In second method capture effect and fission 4008700400004 
           effect were measured by means of detector with stilbene4008700400005 
           crystal                                                4008700400006 
MONITOR    (94-PU-239(N,ABS),,ETA)                                4008700400007 
            At thermal energy for normalization                   4008700400008 
PART-DET   (G)        Gammas                                      4008700400009 
           (N)        Neutrons                                    4008700400010 
COMMENT    Data were averaged on standard energy interval         4008700400011 
ERR-ANALYS (ERR-S)          Statistical errors are given          4008700400012 
STATUS     (TABLE) Table 4 of C,70HELSINKI,I,339,1970.            4008700400013 
ENDBIB              11          0                                 4008700400014 
COMMON               2          3                                 4008700400015 
EN-NRM     MONIT                                                  4008700400016 
EV         NO-DIM                                                 4008700400017 
 2.5300E-02 2.1100E+00                                            4008700400018 
ENDCOMMON            3          0                                 4008700400019 
DATA                 4         15                                 4008700400020 
EN-MIN     EN-MAX     DATA       ERR-S                            4008700400021 
KEV        KEV        NO-DIM     NO-DIM                           4008700400022 
 1.0000E-01 2.0000E-01 9.2000E-01 7.0000E-02                      4008700400023 
 2.0000E-01 3.0000E-01 1.0300E+00 7.0000E-02                      4008700400024 
 3.0000E-01 4.0000E-01 1.2000E+00 1.0000E-01                      4008700400025 
 4.0000E-01 5.0000E-01 4.2000E-01 1.0000E-01                      4008700400026 
 5.0000E-01 6.0000E-01 7.3000E-01 1.0000E-01                      4008700400027 
 6.0000E-01 7.0000E-01 1.7400E+00 2.4000E-01                      4008700400028 
 7.0000E-01 8.0000E-01 9.9000E-01 2.0000E-01                      4008700400029 
 8.0000E-01 9.0000E-01 6.3000E-01 1.7000E-01                      4008700400030 
 9.0000E-01 1.0000E+00 6.3000E-01 1.7000E-01                      4008700400031 
 1.0000E+00 2.0000E+00 9.6000E-01 1.0000E-01                      4008700400032 
 1.0000E+00 1.0000E+01 8.0000E-01 6.0000E-02                      4008700400033 
 2.0000E+00 3.0000E+00 1.2300E+00 1.7000E-01                      4008700400034 
 3.0000E+00 4.0000E+00 9.2000E-01 2.0000E-01                      4008700400035 
 4.0000E+00 5.0000E+00 7.6000E-01 2.0000E-01                      4008700400036 
 5.0000E+00 1.0000E+01 6.6000E-01 1.4000E-01                      4008700400037 
ENDDATA             17          0                                 4008700400038 
ENDSUBENT           37          0                                 4008700499999 
SUBENT        40087005   20111014                             41544008700500001 
BIB                  5         10                                 4008700500002 
REACTION   (94-PU-239(N,ABS),,ALF,,AV)                            4008700500003 
PART-DET   (N)        Neutrons                                    4008700500004 
           (G)        Gammas                                      4008700500005 
COMMENT    Data were averaged on standard energy interval and     4008700500006 
           on measurements by different detectors                 4008700500007 
ERR-ANALYS (ERR-S)           Statistical errors are given         4008700500008 
           Alpha value in interval of energies from 1.0 keV up to 4008700500009 
           10.0 keV taking into account statistical errors and    4008700500010 
           errors of normalization was equal to 0.82+-0.07        4008700500011 
STATUS     (TABLE) Table 4 of C,70HELSINKI,I,339,1970.            4008700500012 
ENDBIB              10          0                                 4008700500013 
NOCOMMON             0          0                                 4008700500014 
DATA                 4         15                                 4008700500015 
EN-MIN     EN-MAX     DATA       ERR-S                            4008700500016 
KEV        KEV        NO-DIM     NO-DIM                           4008700500017 
 1.0000E-01 2.0000E-01 8.8000E-01 3.0000E-02                      4008700500018 
 2.0000E-01 3.0000E-01 1.0700E+00 4.0000E-02                      4008700500019 
 3.0000E-01 4.0000E-01 1.2300E+00 5.0000E-02                      4008700500020 
 4.0000E-01 5.0000E-01 4.5000E-01 5.0000E-02                      4008700500021 
 5.0000E-01 6.0000E-01 7.5000E-01 5.0000E-02                      4008700500022 
 6.0000E-01 7.0000E-01 1.7200E+00 1.3000E-01                      4008700500023 
 7.0000E-01 8.0000E-01 9.4000E-01 9.0000E-02                      4008700500024 
 8.0000E-01 9.0000E-01 7.8000E-01 9.0000E-02                      4008700500025 
 9.0000E-01 1.0000E+00 7.1000E-01 8.0000E-02                      4008700500026 
 1.0000E+00 2.0000E+00 1.0200E+00 6.0000E-02                      4008700500027 
 1.0000E+00 1.0000E+01 8.2000E-01 3.0000E-02                      4008700500028 
 2.0000E+00 3.0000E+00 1.2300E+00 8.0000E-02                      4008700500029 
 3.0000E+00 4.0000E+00 9.6000E-01 1.1000E-01                      4008700500030 
 4.0000E+00 5.0000E+00 8.3000E-01 1.0000E-01                      4008700500031 
 5.0000E+00 1.0000E+01 6.7000E-01 7.0000E-02                      4008700500032 
ENDDATA             17          0                                 4008700500033 
ENDSUBENT           32          0                                 4008700599999 
SUBENT        40087006   20111014                             41544008700600001 
BIB                  5          8                                 4008700600002 
REACTION   (94-PU-239(N,G)94-PU-240,,SIG)                         4008700600003 
DETECTOR   (NAICR) Sodium-iodide crystal used for gamma detection 4008700600004 
ERR-ANALYS      No information available                          4008700600005 
STATUS     (TABLE) From authors.                                  4008700600006 
HISTORY    (19731129R) Data were received from authors.           4008700600007 
           (19850329D) "ALL POINTS ELIMINATED FROM SET"           4008700600008 
           (20111014S) M.M. Data were restored from trans 4017,   4008700600009 
            a reason to delete data had not given.                4008700600010 
ENDBIB               8          0                                 4008700600011 
NOCOMMON             0          0                                 4008700600012 
DATA                 2         96                                 4008700600013 
EN         DATA                                                   4008700600014 
EV         B                                                      4008700600015 
 9862.738      1.4799                                             4008700600016 
 8235.562      1.8199                                             4008700600017 
 6980.204      1.3299                                             4008700600018 
 5991.443      2.0499                                             4008700600019 
 5198.805      1.7899                                             4008700600020 
 4553.654      2.2799                                             4008700600021 
 4021.546      2.6499                                             4008700600022 
 3577.535      2.8599                                             4008700600023 
 3203.194      2.9399                                             4008700600024 
 2884.676      3.8899                                             4008700600025 
 2611.408      3.3099                                             4008700600026 
 2375.676      4.6399                                             4008700600027 
 2169.663      5.2299                                             4008700600028 
 1989.689      4.6299                                             4008700600029 
 1831.213      5.6799                                             4008700600030 
 1690.944      4.6699                                             4008700600031 
 1566.195      3.6399                                             4008700600032 
 1454.759      4.4499                                             4008700600033 
 1354.806      3.6299                                             4008700600034 
 1264.811      4.4299                                             4008700600035 
 1183.494      4.3999                                             4008700600036 
 1109.775      4.7500                                             4008700600037 
 1042.735      3.9699                                             4008700600038 
  981.591      4.9299                                             4008700600039 
  925.671      4.6999                                             4008700600040 
  874.398      4.1999                                             4008700600041 
  827.269      4.5799                                             4008700600042 
  783.851      3.6399                                             4008700600043 
  743.763      4.4299                                             4008700600044 
  706.673      5.9399                                             4008700600045 
  672.290      6.3999                                             4008700600046 
  640.357      9.8099                                             4008700600047 
  610.646     12.0599                                             4008700600048 
  582.956     14.8799                                             4008700600049 
  557.108     14.3699                                             4008700600050 
  532.941     13.3699                                             4008700600051 
  510.313      7.3899                                             4008700600052 
  489.097      4.4699                                             4008700600053 
  469.176      3.5799                                             4008700600054 
  450.449      3.1899                                             4008700600055 
  432.820      4.1199                                             4008700600056 
  416.207      5.4099                                             4008700600057 
  400.532      5.8699                                             4008700600058 
  385.726      4.6899                                             4008700600059 
  371.726      3.2399                                             4008700600060 
  358.475      6.5099                                             4008700600061 
  345.920     10.3699                                             4008700600062 
  334.013     13.7599                                             4008700600063 
  322.711     17.4399                                             4008700600064 
  311.972     16.8499                                             4008700600065 
  301.761     14.9199                                             4008700600066 
  292.043     18.4599                                             4008700600067 
  282.787     17.4499                                             4008700600068 
  273.964     14.5599                                             4008700600069 
  265.548     17.1499                                             4008700600070 
  257.514     17.9299                                             4008700600071 
  249.839     18.2999                                             4008700600072 
  242.502     21.2699                                             4008700600073 
  235.483     23.8499                                             4008700600074 
  228.765     22.4299                                             4008700600075 
  222.330     20.0599                                             4008700600076 
  216.163     18.1299                                             4008700600077 
  210.249     15.5999                                             4008700600078 
  204.575     13.7299                                             4008700600079 
  199.127      9.4899                                             4008700600080 
  193.894      4.9399                                             4008700600081 
  188.865      5.9399                                             4008700600082 
  184.028      7.0099                                             4008700600083 
  179.375      8.6499                                             4008700600084 
  174.897      7.7599                                             4008700600085 
  170.584     17.5399                                             4008700600086 
  166.428     18.6699                                             4008700600087 
  162.423     17.6499                                             4008700600088 
  158.561     10.7599                                             4008700600089 
  154.834      7.3299                                             4008700600090 
  151.238     11.6499                                             4008700600091 
  147.765     16.0599                                             4008700600092 
  144.411     19.8599                                             4008700600093 
  141.169     15.0399                                             4008700600094 
  138.036     17.5799                                             4008700600095 
  135.005     15.3999                                             4008700600096 
  132.074     13.3999                                             4008700600097 
  129.237     10.2699                                             4008700600098 
  126.490     10.1699                                             4008700600099 
  123.830     14.4099                                             4008700600100 
  121.253     20.9699                                             4008700600101 
  118.755     25.3699                                             4008700600102 
  116.334     18.6199                                             4008700600103 
  113.987     14.1999                                             4008700600104 
  111.709     13.9699                                             4008700600105 
  109.499     25.7399                                             4008700600106 
  107.354     39.3099                                             4008700600107 
  105.272     38.4899                                             4008700600108 
  103.249     32.8399                                             4008700600109 
  101.285     16.7199                                             4008700600110 
   99.375     11.1899                                             4008700600111 
ENDDATA             98          0                                 4008700600112 
ENDSUBENT          111          0                                 4008700699999 
SUBENT        40087007   20111014                             41544008700700001 
BIB                  5          8                                 4008700700002 
REACTION   (94-PU-239(N,F),,SIG)                                  4008700700003 
DETECTOR   (NAICR) Sodium-iodide crystal used for gamma detection 4008700700004 
ERR-ANALYS  No information available                              4008700700005 
STATUS     (TABLE) From authors.                                  4008700700006 
HISTORY    (19731129R) Data were received from authors.           4008700700007 
           (19850329D) "ALL POINTS ELIMINATED FROM SET"           4008700700008 
           (20111014S) M.M. Data were restored from trans 4017,   4008700700009 
            a reason to delete data was not given.                4008700700010 
ENDBIB               8          0                                 4008700700011 
NOCOMMON             0          0                                 4008700700012 
DATA                 2         96                                 4008700700013 
EN         DATA                                                   4008700700014 
EV         B                                                      4008700700015 
 9862.738      2.2799                                             4008700700016 
 8235.562      2.4199                                             4008700700017 
 6980.204      2.6099                                             4008700700018 
 5991.443      2.5599                                             4008700700019 
 5198.805      2.5899                                             4008700700020 
 4553.654      2.5599                                             4008700700021 
 4021.546      2.9099                                             4008700700022 
 3577.535      2.8899                                             4008700700023 
 3203.194      2.9699                                             4008700700024 
 2884.676      3.2699                                             4008700700025 
 2611.408      3.9899                                             4008700700026 
 2375.208      3.3599                                             4008700700027 
 2169.663      3.0599                                             4008700700028 
 1989.689      3.1899                                             4008700700029 
 1831.213      3.1199                                             4008700700030 
 1690.944      3.2899                                             4008700700031 
 1566.195      3.7899                                             4008700700032 
 1454.759      4.4099                                             4008700700033 
 1354.806      4.9099                                             4008700700034 
 1264.811      4.9799                                             4008700700035 
 1183.494      4.9399                                             4008700700036 
 1109.775      5.7199                                             4008700700037 
 1042.735      6.5000                                             4008700700038 
  981.591      6.6599                                             4008700700039 
  925.671      6.1099                                             4008700700040 
  874.398      5.8399                                             4008700700041 
  827.269      5.5899                                             4008700700042 
  783.851      5.8699                                             4008700700043 
  743.763      5.2699                                             4008700700044 
  706.673      4.8699                                             4008700700045 
  672.290      4.8099                                             4008700700046 
  640.357      4.7399                                             4008700700047 
  610.646      5.6899                                             4008700700048 
  582.956      8.5999                                             4008700700049 
  557.108     12.3899                                             4008700700050 
  532.941     14.5299                                             4008700700051 
  510.313     16.0599                                             4008700700052 
  489.097     13.5399                                             4008700700053 
  469.176     11.1899                                             4008700700054 
  450.449      8.6099                                             4008700700055 
  432.820      8.2399                                             4008700700056 
  416.207      8.5899                                             4008700700057 
  400.532      8.5099                                             4008700700058 
  385.726      9.0099                                             4008700700059 
  371.726      8.7699                                             4008700700060 
  358.475      8.3499                                             4008700700061 
  345.920      8.5699                                             4008700700062 
  334.013      8.7099                                             4008700700063 
  322.711      8.8099                                             4008700700064 
  311.972      9.9099                                             4008700700065 
  301.761     12.1299                                             4008700700066 
  292.043     16.6299                                             4008700700067 
  282.787     21.2799                                             4008700700068 
  273.964     24.6799                                             4008700700069 
  265.548     24.1599                                             4008700700070 
  257.514     20.6099                                             4008700700071 
  249.839     15.9099                                             4008700700072 
  242.502     12.5099                                             4008700700073 
  235.483     10.5999                                             4008700700074 
  228.765     10.5299                                             4008700700075 
  222.330     10.0799                                             4008700700076 
  216.163     11.1899                                             4008700700077 
  210.249     15.9199                                             4008700700078 
  204.575     22.8899                                             4008700700079 
  199.127     26.3599                                             4008700700080 
  193.894     26.0099                                             4008700700081 
  188.865     19.8099                                             4008700700082 
  184.028     12.7399                                             4008700700083 
  179.375      9.5099                                             4008700700084 
  174.897      9.0199                                             4008700700085 
  170.584      9.0399                                             4008700700086 
  166.428     10.0899                                             4008700700087 
  162.423     14.4699                                             4008700700088 
  158.561     17.3499                                             4008700700089 
  154.834     17.0499                                             4008700700090 
  151.238     14.2099                                             4008700700091 
  147.765     13.3799                                             4008700700092 
  144.411     12.2599                                             4008700700093 
  141.169     15.5099                                             4008700700094 
  138.036     16.7399                                             4008700700095 
  135.005     22.9799                                             4008700700096 
  132.074     23.9299                                             4008700700097 
  129.237     23.8799                                             4008700700098 
  126.490     17.5299                                             4008700700099 
  123.830     18.7099                                             4008700700100 
  121.253     22.7899                                             4008700700101 
  118.755     26.6999                                             4008700700102 
  116.334     25.8599                                             4008700700103 
  113.987     17.5299                                             4008700700104 
  111.709     12.5899                                             4008700700105 
  109.499     12.6199                                             4008700700106 
  107.354     13.8399                                             4008700700107 
  105.272     17.3399                                             4008700700108 
  103.249     17.5599                                             4008700700109 
  101.285     18.7899                                             4008700700110 
   99.375     24.3199                                             4008700700111 
ENDDATA             98          0                                 4008700700112 
ENDSUBENT          111          0                                 4008700799999 
SUBENT        40087008   20111014                             41544008700800001 
BIB                  4          7                                 4008700800002 
REACTION   (94-PU-239(N,ABS),,ALF)                                4008700800003 
ERR-ANALYS            No information available                    4008700800004 
STATUS     (TABLE) From authors.                                  4008700800005 
HISTORY    (19731129R) Data were received from authors.           4008700800006 
           (19850329D) "ALL POINTS ELIMINATED FROM SET"           4008700800007 
           (20111014S) M.M. Data were restored from trans 4017,   4008700800008 
            a reason to delete data was not given.                4008700800009 
ENDBIB               7          0                                 4008700800010 
NOCOMMON             0          0                                 4008700800011 
DATA                 2         96                                 4008700800012 
EN         DATA                                                   4008700800013 
EV         NO-DIM                                                 4008700800014 
 9862.738      0.6499                                             4008700800015 
 8235.562      0.7500                                             4008700800016 
 6980.204      0.5099                                             4008700800017 
 5991.443      0.7999                                             4008700800018 
 5198.805      0.6899                                             4008700800019 
 4553.654      0.8899                                             4008700800020 
 4021.546      0.9099                                             4008700800021 
 3577.535      0.9899                                             4008700800022 
 3203.194      0.9899                                             4008700800023 
 2884.676      1.1899                                             4008700800024 
 2611.408      0.8299                                             4008700800025 
 2375.208      1.3799                                             4008700800026 
 2169.663      1.7099                                             4008700800027 
 1989.689      1.4499                                             4008700800028 
 1831.213      1.8199                                             4008700800029 
 1690.944      1.4199                                             4008700800030 
 1566.195      0.9599                                             4008700800031 
 1454.759      1.0099                                             4008700800032 
 1354.806      0.7399                                             4008700800033 
 1264.811      0.8899                                             4008700800034 
 1183.494      0.8899                                             4008700800035 
 1109.775      0.8299                                             4008700800036 
 1042.735      0.6099                                             4008700800037 
  981.591      0.7399                                             4008700800038 
  925.671      0.7699                                             4008700800039 
  874.398      0.7199                                             4008700800040 
  827.269      0.8199                                             4008700800041 
  783.851      0.6199                                             4008700800042 
  743.763      0.8399                                             4008700800043 
  706.673      1.2199                                             4008700800044 
  672.290      1.3299                                             4008700800045 
  640.357      2.0699                                             4008700800046 
  610.646      2.1199                                             4008700800047 
  582.956      1.7299                                             4008700800048 
  557.108      1.1599                                             4008700800049 
  532.941      0.9199                                             4008700800050 
  510.313      0.4599                                             4008700800051 
  489.097      0.3299                                             4008700800052 
  469.176      0.3199                                             4008700800053 
  450.449      0.3699                                             4008700800054 
  432.820      0.5000                                             4008700800055 
  416.207      0.6299                                             4008700800056 
  400.532      0.6899                                             4008700800057 
  385.726      0.5199                                             4008700800058 
  371.726      0.3699                                             4008700800059 
  358.475      0.7799                                             4008700800060 
  345.920      1.2099                                             4008700800061 
  334.013      1.5799                                             4008700800062 
  322.711      1.9799                                             4008700800063 
  311.972      1.6999                                             4008700800064 
  301.761      1.2299                                             4008700800065 
  292.043      1.1099                                             4008700800066 
  282.787      0.8199                                             4008700800067 
  273.964      0.5899                                             4008700800068 
  265.548      0.7099                                             4008700800069 
  257.514      0.8699                                             4008700800070 
  249.839      1.1499                                             4008700800071 
  242.502      1.6999                                             4008700800072 
  235.483      2.2500                                             4008700800073 
  228.765      2.1299                                             4008700800074 
  222.330      1.9899                                             4008700800075 
  216.163      1.6199                                             4008700800076 
  210.249      0.9799                                             4008700800077 
  204.575      0.5999                                             4008700800078 
  199.127      0.3599                                             4008700800079 
  193.894      0.1899                                             4008700800080 
  188.865      0.2999                                             4008700800081 
  184.028      0.5499                                             4008700800082 
  179.375      0.9099                                             4008700800083 
  174.897      0.8599                                             4008700800084 
  170.584      1.9399                                             4008700800085 
  166.428      1.8499                                             4008700800086 
  162.423      1.2219                                             4008700800087 
  158.561      0.6199                                             4008700800088 
  154.834      0.4299                                             4008700800089 
  151.238      0.8199                                             4008700800090 
  147.765      1.1999                                             4008700800091 
  144.411      1.6199                                             4008700800092 
  141.169      0.9699                                             4008700800093 
  138.036      1.0499                                             4008700800094 
  135.005      0.6699                                             4008700800095 
  132.074      0.5599                                             4008700800096 
  129.237      0.4299                                             4008700800097 
  126.490      0.5799                                             4008700800098 
  123.830      0.7699                                             4008700800099 
  121.253      0.9199                                             4008700800100 
  118.755      0.9499                                             4008700800101 
  116.334      0.7199                                             4008700800102 
  113.987      0.8099                                             4008700800103 
  111.709      1.1099                                             4008700800104 
  109.499      2.0399                                             4008700800105 
  107.354      2.8399                                             4008700800106 
  105.272      2.2199                                             4008700800107 
  103.249      1.8699                                             4008700800108 
  101.285      0.8899                                             4008700800109 
   99.375      0.4599                                             4008700800110 
ENDDATA             98          0                                 4008700800111 
ENDSUBENT          110          0                                 4008700899999 
SUBENT        40087009   20111014                             41544008700900001 
BIB                  5          9                                 4008700900002 
REACTION  1(94-PU-239(N,ABS),,ALF)                                4008700900003 
          2(94-PU-239(N,ABS),,ETA)                                4008700900004 
            Obtained in additional measurement.                   4008700900005 
MONITOR    ((MONIT1)94-PU-239(N,F),,NU)                           4008700900006 
           ((MONIT2)94-PU-239(N,ABS),,ALF)                        4008700900007 
           ((MONIT3)94-PU-239(N,ABS),,ETA)                        4008700900008 
MONIT-REF  (,G.C.Hanna+,J,REA,7,(4),3,1969)                       4008700900009 
ERR-ANALYS (DATA-ERR) Not specified.                              4008700900010 
STATUS     (TABLE) Table 2 of C,70HELSINKI,I,339,1970.            4008700900011 
ENDBIB               9          0                                 4008700900012 
COMMON               4          3                                 4008700900013 
EN-NRM     MONIT1     MONIT2     MONIT3                           4008700900014 
EV         PRT/FIS    NO-DIM     NO-DIM                           4008700900015 
0.025       2.88       0.36      2.11                             4008700900016 
ENDCOMMON            3          0                                 4008700900017 
DATA                 6          1                                 4008700900018 
EN         DATA      1+DATA-ERR 1-DATA-ERR 1DATA      2DATA-ERR  24008700900019 
EV         NO-DIM     NO-DIM     NO-DIM     NO-DIM     NO-DIM     4008700900020 
0.30       0.66       0.03       0.02        1.728      0.026     4008700900021 
ENDDATA              3          0                                 4008700900022 
ENDSUBENT           21          0                                 4008700999999 
ENDENTRY             9          0                                 4008799999999 
