ENTRY            40087   20230621                             421340087  0    1 
SUBENT        40087001   20230621                             421340087  1    1 
BIB                  9         31                                 40087  1    2 
TITLE      Measurement of ALPHA values for U-235 and Pu-239       40087  1    3 
AUTHOR     (F.N.Belyaev,K.G.Ignat'ev,S.I.Sukhoruchkin,            40087  1    4 
           S.P.Borovlev,V.V.Pavlov,M.B.Polozov,A.N.Soldatov)      40087  1    5 
REFERENCE  (C,70HELSINKI,1,339,1970)                              40087  1    6 
            Preprint IAEA-CN-26/89.                               40087  1    7 
INSTITUTE  (4RUSITE)                                              40087  1    8 
FACILITY   (CYCLO,4RUSITE)                                        40087  1    9 
SAMPLE     Metallic Pu-239 sample with thickness of 2.2E-3        40087  1   10 
           atom/barn included 1.8 percent of Pu-240 admixture     40087  1   11 
METHOD     (TOF)      Time of flight. Flight path 14.56 m.        40087  1   12 
           Fission and capture effects from metallic foil were    40087  1   13 
           measured independently by two methods using different  40087  1   14 
           kinds of detectors.                                    40087  1   15 
           ALPHA was determined by experimental counts ratio of   40087  1   16 
           capture effect to fission effect.                      40087  1   17 
           Background was determined by means of Mn,Na,Ag         40087  1   18 
           resonance filters.                                     40087  1   19 
           For verification and for mastering of method the       40087  1   20 
           ALPHA value for U-235 was also measured.               40087  1   21 
CORRECTION Correction on background was introduced                40087  1   22 
HISTORY    (19731129C)       Compiled at the centre               40087  1   23 
           (20111014A) M.M. F -> ABS in REACTION of Subent 002.   40087  1   24 
            Upper -> lower case correction.                       40087  1   25 
            Dates were corrected for 4-digits year.               40087  1   26 
            BIB information was added.                            40087  1   27 
           Data ( were marked as "ALL POINTS ELIMINATED FROM SET",40087  1   28 
           a reason was not explained) of                         40087  1   29 
           - Subents 2, 6-8 are restored from the article or      40087  1   30 
            from trans 4017.                                      40087  1   31 
            Subent 009 was added.                                 40087  1   32 
           (20230621A) Subent 009 was corrected.                  40087  1   33 
ENDBIB              31          0                                 40087  1   34 
NOCOMMON             0          0                                 40087  1   35 
ENDSUBENT           34          0                                 40087  199999 
SUBENT        40087002   20230621                             421340087  2    1 
BIB                  5          6                                 40087  2    2 
REACTION   (94-PU-239(N,ABS),,ALF,,RES)                           40087  2    3 
COMMENT    In data section alpha values for completely resolved   40087  2    4 
           resonances are given                                   40087  2    5 
ERR-ANALYS (DATA-ERR)         No information available            40087  2    6 
STATUS     (TABLE,,F.N.Belyaev+,C,70HELSINKI,I,339,1970) Table 3  40087  2    7 
HISTORY    (20111014S) M.M. Data were restored from the article.  40087  2    8 
ENDBIB               6          0                                 40087  2    9 
NOCOMMON             0          0                                 40087  2   10 
DATA                 3          5                                 40087  2   11 
EN-RES     DATA       DATA-ERR                                    40087  2   12 
EV         NO-DIM     NO-DIM                                      40087  2   13 
7.85       0.86       0.03                                        40087  2   14 
17.7       1.14       0.05                                        40087  2   15 
22.3       0.60       0.04                                        40087  2   16 
26.3       0.99       0.06                                        40087  2   17 
44.5       9.60       0.60                                        40087  2   18 
ENDDATA              7          0                                 40087  2   19 
ENDSUBENT           18          0                                 40087  299999 
SUBENT        40087003   20230621                             421340087  3    1 
BIB                  9         19                                 40087  3    2 
REACTION   (94-PU-239(N,ABS),,ALF,,AV)                            40087  3    3 
DETECTOR   (SCIN)     In first method the fission effect was      40087  3    4 
           measured on secondary fast neutron yield from          40087  3    5 
           metallic foil by counters. Counters were paraffin and  40087  3    6 
           zinc sulphide covering two photoelectric multipliers.  40087  3    7 
           Capture gammas and fission gammas were counted         40087  3    8 
           by NaI crystal.                                        40087  3    9 
MONITOR    (94-PU-239(N,ABS),,ETA)                                40087  3   10 
            At 0.03 resonance for normalization                   40087  3   11 
MONIT-REF  (40087009,F.N.Belyaev+,C,70HELSINKI,I,339,1970)        40087  3   12 
            Value was measured in additional experiment,          40087  3   13 
           see SUBENT 009.                                        40087  3   14 
PART-DET   (N,G)                                                  40087  3   15 
COMMENT    Data were averaged on standard energy interval         40087  3   16 
ERR-ANALYS (ERR-S)           Statistical errors are given         40087  3   17 
STATUS     (TABLE,,F.N.Belyaev+,C,70HELSINKI,I,339,1970) Table 4  40087  3   18 
           (COREL,40087004) Data normalized to ETA at thermal     40087  3   19 
           energy                                                 40087  3   20 
HISTORY    (20230621A) Units of ETA : NO-DIM -> PRT/REAC          40087  3   21 
ENDBIB              19          0                                 40087  3   22 
COMMON               3          3                                 40087  3   23 
EN-NRM     MONIT      MONIT-ERR                                   40087  3   24 
EV         PRT/REAC   PRT/REAC                                    40087  3   25 
 3.0000E-02 1.7280E+00 2.6000E-02                                 40087  3   26 
ENDCOMMON            3          0                                 40087  3   27 
DATA                 4         15                                 40087  3   28 
EN-MIN     EN-MAX     DATA       ERR-S                            40087  3   29 
KEV        KEV        NO-DIM     NO-DIM                           40087  3   30 
 1.0000E-01 2.0000E-01 8.7000E-01 3.0000E-02                      40087  3   31 
 2.0000E-01 3.0000E-01 1.0900E+00 4.0000E-02                      40087  3   32 
 3.0000E-01 4.0000E-01 1.2400E+00 6.0000E-02                      40087  3   33 
 4.0000E-01 5.0000E-01 4.7000E-01 5.0000E-02                      40087  3   34 
 5.0000E-01 6.0000E-01 7.6000E-01 6.0000E-02                      40087  3   35 
 6.0000E-01 7.0000E-01 1.7100E+00 1.5000E-01                      40087  3   36 
 7.0000E-01 8.0000E-01 9.2000E-01 1.0000E-01                      40087  3   37 
 8.0000E-01 9.0000E-01 8.7000E-01 1.1000E-01                      40087  3   38 
 9.0000E-01 1.0000E+00 7.5000E-01 9.0000E-02                      40087  3   39 
 1.0000E+00 2.0000E+00 1.0600E+00 7.0000E-02                      40087  3   40 
 1.0000E+00 1.0000E+01 8.3000E-01 4.0000E-02                      40087  3   41 
 2.0000E+00 3.0000E+00 1.2300E+00 9.0000E-02                      40087  3   42 
 3.0000E+00 4.0000E+00 9.8000E-01 1.3000E-01                      40087  3   43 
 4.0000E+00 5.0000E+00 8.7000E-01 1.1000E-01                      40087  3   44 
 5.0000E+00 1.0000E+01 6.7000E-01 8.0000E-02                      40087  3   45 
ENDDATA             17          0                                 40087  3   46 
ENDSUBENT           45          0                                 40087  399999 
SUBENT        40087004   20230621                             421340087  4    1 
BIB                  8         13                                 40087  4    2 
REACTION   (94-PU-239(N,ABS),,ALF,,AV)                            40087  4    3 
DETECTOR   (SCIN)     In second method capture effect and fission 40087  4    4 
           effect were measured by means of detector with stilbene40087  4    5 
           crystal                                                40087  4    6 
MONITOR    (94-PU-239(N,ABS),,ETA)                                40087  4    7 
            At thermal energy for normalization                   40087  4    8 
PART-DET   (G,N)                                                  40087  4    9 
COMMENT    Data were averaged on standard energy interval         40087  4   10 
ERR-ANALYS (ERR-S)          Statistical errors are given          40087  4   11 
STATUS     (TABLE,,F.N.Belyaev+,C,70HELSINKI,I,339,1970) Table 4  40087  4   12 
           (COREL,40087003) Data normalized to ETA at 0.3 eV      40087  4   13 
           resonance                                              40087  4   14 
HISTORY    (20230621A) Units of ETA : NO-DIM -> PRT/REAC          40087  4   15 
ENDBIB              13          0                                 40087  4   16 
COMMON               2          3                                 40087  4   17 
EN-NRM     MONIT                                                  40087  4   18 
EV         PRT/REAC                                               40087  4   19 
 2.5300E-02 2.1100E+00                                            40087  4   20 
ENDCOMMON            3          0                                 40087  4   21 
DATA                 4         15                                 40087  4   22 
EN-MIN     EN-MAX     DATA       ERR-S                            40087  4   23 
KEV        KEV        NO-DIM     NO-DIM                           40087  4   24 
 1.0000E-01 2.0000E-01 9.2000E-01 7.0000E-02                      40087  4   25 
 2.0000E-01 3.0000E-01 1.0300E+00 7.0000E-02                      40087  4   26 
 3.0000E-01 4.0000E-01 1.2000E+00 1.0000E-01                      40087  4   27 
 4.0000E-01 5.0000E-01 4.2000E-01 1.0000E-01                      40087  4   28 
 5.0000E-01 6.0000E-01 7.3000E-01 1.0000E-01                      40087  4   29 
 6.0000E-01 7.0000E-01 1.7400E+00 2.4000E-01                      40087  4   30 
 7.0000E-01 8.0000E-01 9.9000E-01 2.0000E-01                      40087  4   31 
 8.0000E-01 9.0000E-01 6.3000E-01 1.7000E-01                      40087  4   32 
 9.0000E-01 1.0000E+00 6.3000E-01 1.7000E-01                      40087  4   33 
 1.0000E+00 2.0000E+00 9.6000E-01 1.0000E-01                      40087  4   34 
 1.0000E+00 1.0000E+01 8.0000E-01 6.0000E-02                      40087  4   35 
 2.0000E+00 3.0000E+00 1.2300E+00 1.7000E-01                      40087  4   36 
 3.0000E+00 4.0000E+00 9.2000E-01 2.0000E-01                      40087  4   37 
 4.0000E+00 5.0000E+00 7.6000E-01 2.0000E-01                      40087  4   38 
 5.0000E+00 1.0000E+01 6.6000E-01 1.4000E-01                      40087  4   39 
ENDDATA             17          0                                 40087  4   40 
ENDSUBENT           39          0                                 40087  499999 
SUBENT        40087005   20230621                             421340087  5    1 
BIB                  5         11                                 40087  5    2 
REACTION   (94-PU-239(N,ABS),,ALF,,AV)                            40087  5    3 
PART-DET   (N,G)                                                  40087  5    4 
COMMENT    Data were averaged on standard energy interval and     40087  5    5 
           on measurements by different detectors                 40087  5    6 
ERR-ANALYS (ERR-S)           Statistical errors are given         40087  5    7 
           Alpha value in interval of energies from 1.0 keV up to 40087  5    8 
           10.0 keV taking into account statistical errors and    40087  5    9 
           errors of normalization was equal to 0.82+-0.07        40087  5   10 
STATUS     (TABLE,,F.N.Belyaev+,C,70HELSINKI,I,339,1970) Table 4  40087  5   11 
           (DEP,40087003) Measurement by NaI crystal and ZnS      40087  5   12 
           (DEP,40087004) Measurement by stilbene crystal.        40087  5   13 
ENDBIB              11          0                                 40087  5   14 
NOCOMMON             0          0                                 40087  5   15 
DATA                 4         15                                 40087  5   16 
EN-MIN     EN-MAX     DATA       ERR-S                            40087  5   17 
KEV        KEV        NO-DIM     NO-DIM                           40087  5   18 
 1.0000E-01 2.0000E-01 8.8000E-01 3.0000E-02                      40087  5   19 
 2.0000E-01 3.0000E-01 1.0700E+00 4.0000E-02                      40087  5   20 
 3.0000E-01 4.0000E-01 1.2300E+00 5.0000E-02                      40087  5   21 
 4.0000E-01 5.0000E-01 4.5000E-01 5.0000E-02                      40087  5   22 
 5.0000E-01 6.0000E-01 7.5000E-01 5.0000E-02                      40087  5   23 
 6.0000E-01 7.0000E-01 1.7200E+00 1.3000E-01                      40087  5   24 
 7.0000E-01 8.0000E-01 9.4000E-01 9.0000E-02                      40087  5   25 
 8.0000E-01 9.0000E-01 7.8000E-01 9.0000E-02                      40087  5   26 
 9.0000E-01 1.0000E+00 7.1000E-01 8.0000E-02                      40087  5   27 
 1.0000E+00 2.0000E+00 1.0200E+00 6.0000E-02                      40087  5   28 
 1.0000E+00 1.0000E+01 8.2000E-01 3.0000E-02                      40087  5   29 
 2.0000E+00 3.0000E+00 1.2300E+00 8.0000E-02                      40087  5   30 
 3.0000E+00 4.0000E+00 9.6000E-01 1.1000E-01                      40087  5   31 
 4.0000E+00 5.0000E+00 8.3000E-01 1.0000E-01                      40087  5   32 
 5.0000E+00 1.0000E+01 6.7000E-01 7.0000E-02                      40087  5   33 
ENDDATA             17          0                                 40087  5   34 
ENDSUBENT           33          0                                 40087  599999 
SUBENT        40087006   20230621                             421340087  6    1 
BIB                  5          8                                 40087  6    2 
REACTION   (94-PU-239(N,G)94-PU-240,,SIG)                         40087  6    3 
DETECTOR   (NAICR) Sodium-iodide crystal used for gamma detection 40087  6    4 
ERR-ANALYS      No information available                          40087  6    5 
STATUS     (TABLE) From authors.                                  40087  6    6 
HISTORY    (19731129R) Data were received from authors.           40087  6    7 
           (19850329D) "ALL POINTS ELIMINATED FROM SET"           40087  6    8 
           (20111014S) M.M. Data were restored from trans 4017,   40087  6    9 
            a reason to delete data was not given.                40087  6   10 
ENDBIB               8          0                                 40087  6   11 
NOCOMMON             0          0                                 40087  6   12 
DATA                 2         96                                 40087  6   13 
EN         DATA                                                   40087  6   14 
EV         B                                                      40087  6   15 
 9862.738      1.4799                                             40087  6   16 
 8235.562      1.8199                                             40087  6   17 
 6980.204      1.3299                                             40087  6   18 
 5991.443      2.0499                                             40087  6   19 
 5198.805      1.7899                                             40087  6   20 
 4553.654      2.2799                                             40087  6   21 
 4021.546      2.6499                                             40087  6   22 
 3577.535      2.8599                                             40087  6   23 
 3203.194      2.9399                                             40087  6   24 
 2884.676      3.8899                                             40087  6   25 
 2611.408      3.3099                                             40087  6   26 
 2375.676      4.6399                                             40087  6   27 
 2169.663      5.2299                                             40087  6   28 
 1989.689      4.6299                                             40087  6   29 
 1831.213      5.6799                                             40087  6   30 
 1690.944      4.6699                                             40087  6   31 
 1566.195      3.6399                                             40087  6   32 
 1454.759      4.4499                                             40087  6   33 
 1354.806      3.6299                                             40087  6   34 
 1264.811      4.4299                                             40087  6   35 
 1183.494      4.3999                                             40087  6   36 
 1109.775      4.7500                                             40087  6   37 
 1042.735      3.9699                                             40087  6   38 
  981.591      4.9299                                             40087  6   39 
  925.671      4.6999                                             40087  6   40 
  874.398      4.1999                                             40087  6   41 
  827.269      4.5799                                             40087  6   42 
  783.851      3.6399                                             40087  6   43 
  743.763      4.4299                                             40087  6   44 
  706.673      5.9399                                             40087  6   45 
  672.290      6.3999                                             40087  6   46 
  640.357      9.8099                                             40087  6   47 
  610.646     12.0599                                             40087  6   48 
  582.956     14.8799                                             40087  6   49 
  557.108     14.3699                                             40087  6   50 
  532.941     13.3699                                             40087  6   51 
  510.313      7.3899                                             40087  6   52 
  489.097      4.4699                                             40087  6   53 
  469.176      3.5799                                             40087  6   54 
  450.449      3.1899                                             40087  6   55 
  432.820      4.1199                                             40087  6   56 
  416.207      5.4099                                             40087  6   57 
  400.532      5.8699                                             40087  6   58 
  385.726      4.6899                                             40087  6   59 
  371.726      3.2399                                             40087  6   60 
  358.475      6.5099                                             40087  6   61 
  345.920     10.3699                                             40087  6   62 
  334.013     13.7599                                             40087  6   63 
  322.711     17.4399                                             40087  6   64 
  311.972     16.8499                                             40087  6   65 
  301.761     14.9199                                             40087  6   66 
  292.043     18.4599                                             40087  6   67 
  282.787     17.4499                                             40087  6   68 
  273.964     14.5599                                             40087  6   69 
  265.548     17.1499                                             40087  6   70 
  257.514     17.9299                                             40087  6   71 
  249.839     18.2999                                             40087  6   72 
  242.502     21.2699                                             40087  6   73 
  235.483     23.8499                                             40087  6   74 
  228.765     22.4299                                             40087  6   75 
  222.330     20.0599                                             40087  6   76 
  216.163     18.1299                                             40087  6   77 
  210.249     15.5999                                             40087  6   78 
  204.575     13.7299                                             40087  6   79 
  199.127      9.4899                                             40087  6   80 
  193.894      4.9399                                             40087  6   81 
  188.865      5.9399                                             40087  6   82 
  184.028      7.0099                                             40087  6   83 
  179.375      8.6499                                             40087  6   84 
  174.897      7.7599                                             40087  6   85 
  170.584     17.5399                                             40087  6   86 
  166.428     18.6699                                             40087  6   87 
  162.423     17.6499                                             40087  6   88 
  158.561     10.7599                                             40087  6   89 
  154.834      7.3299                                             40087  6   90 
  151.238     11.6499                                             40087  6   91 
  147.765     16.0599                                             40087  6   92 
  144.411     19.8599                                             40087  6   93 
  141.169     15.0399                                             40087  6   94 
  138.036     17.5799                                             40087  6   95 
  135.005     15.3999                                             40087  6   96 
  132.074     13.3999                                             40087  6   97 
  129.237     10.2699                                             40087  6   98 
  126.490     10.1699                                             40087  6   99 
  123.830     14.4099                                             40087  6  100 
  121.253     20.9699                                             40087  6  101 
  118.755     25.3699                                             40087  6  102 
  116.334     18.6199                                             40087  6  103 
  113.987     14.1999                                             40087  6  104 
  111.709     13.9699                                             40087  6  105 
  109.499     25.7399                                             40087  6  106 
  107.354     39.3099                                             40087  6  107 
  105.272     38.4899                                             40087  6  108 
  103.249     32.8399                                             40087  6  109 
  101.285     16.7199                                             40087  6  110 
   99.375     11.1899                                             40087  6  111 
ENDDATA             98          0                                 40087  6  112 
ENDSUBENT          111          0                                 40087  699999 
SUBENT        40087007   20230621                             421340087  7    1 
BIB                  5          8                                 40087  7    2 
REACTION   (94-PU-239(N,F),,SIG)                                  40087  7    3 
DETECTOR   (NAICR) Sodium-iodide crystal used for gamma detection 40087  7    4 
ERR-ANALYS  No information available                              40087  7    5 
STATUS     (TABLE) From authors.                                  40087  7    6 
HISTORY    (19731129R) Data were received from authors.           40087  7    7 
           (19850329D) "ALL POINTS ELIMINATED FROM SET"           40087  7    8 
           (20111014S) M.M. Data were restored from trans 4017,   40087  7    9 
            a reason to delete data was not given.                40087  7   10 
ENDBIB               8          0                                 40087  7   11 
NOCOMMON             0          0                                 40087  7   12 
DATA                 2         96                                 40087  7   13 
EN         DATA                                                   40087  7   14 
EV         B                                                      40087  7   15 
 9862.738      2.2799                                             40087  7   16 
 8235.562      2.4199                                             40087  7   17 
 6980.204      2.6099                                             40087  7   18 
 5991.443      2.5599                                             40087  7   19 
 5198.805      2.5899                                             40087  7   20 
 4553.654      2.5599                                             40087  7   21 
 4021.546      2.9099                                             40087  7   22 
 3577.535      2.8899                                             40087  7   23 
 3203.194      2.9699                                             40087  7   24 
 2884.676      3.2699                                             40087  7   25 
 2611.408      3.9899                                             40087  7   26 
 2375.208      3.3599                                             40087  7   27 
 2169.663      3.0599                                             40087  7   28 
 1989.689      3.1899                                             40087  7   29 
 1831.213      3.1199                                             40087  7   30 
 1690.944      3.2899                                             40087  7   31 
 1566.195      3.7899                                             40087  7   32 
 1454.759      4.4099                                             40087  7   33 
 1354.806      4.9099                                             40087  7   34 
 1264.811      4.9799                                             40087  7   35 
 1183.494      4.9399                                             40087  7   36 
 1109.775      5.7199                                             40087  7   37 
 1042.735      6.5000                                             40087  7   38 
  981.591      6.6599                                             40087  7   39 
  925.671      6.1099                                             40087  7   40 
  874.398      5.8399                                             40087  7   41 
  827.269      5.5899                                             40087  7   42 
  783.851      5.8699                                             40087  7   43 
  743.763      5.2699                                             40087  7   44 
  706.673      4.8699                                             40087  7   45 
  672.290      4.8099                                             40087  7   46 
  640.357      4.7399                                             40087  7   47 
  610.646      5.6899                                             40087  7   48 
  582.956      8.5999                                             40087  7   49 
  557.108     12.3899                                             40087  7   50 
  532.941     14.5299                                             40087  7   51 
  510.313     16.0599                                             40087  7   52 
  489.097     13.5399                                             40087  7   53 
  469.176     11.1899                                             40087  7   54 
  450.449      8.6099                                             40087  7   55 
  432.820      8.2399                                             40087  7   56 
  416.207      8.5899                                             40087  7   57 
  400.532      8.5099                                             40087  7   58 
  385.726      9.0099                                             40087  7   59 
  371.726      8.7699                                             40087  7   60 
  358.475      8.3499                                             40087  7   61 
  345.920      8.5699                                             40087  7   62 
  334.013      8.7099                                             40087  7   63 
  322.711      8.8099                                             40087  7   64 
  311.972      9.9099                                             40087  7   65 
  301.761     12.1299                                             40087  7   66 
  292.043     16.6299                                             40087  7   67 
  282.787     21.2799                                             40087  7   68 
  273.964     24.6799                                             40087  7   69 
  265.548     24.1599                                             40087  7   70 
  257.514     20.6099                                             40087  7   71 
  249.839     15.9099                                             40087  7   72 
  242.502     12.5099                                             40087  7   73 
  235.483     10.5999                                             40087  7   74 
  228.765     10.5299                                             40087  7   75 
  222.330     10.0799                                             40087  7   76 
  216.163     11.1899                                             40087  7   77 
  210.249     15.9199                                             40087  7   78 
  204.575     22.8899                                             40087  7   79 
  199.127     26.3599                                             40087  7   80 
  193.894     26.0099                                             40087  7   81 
  188.865     19.8099                                             40087  7   82 
  184.028     12.7399                                             40087  7   83 
  179.375      9.5099                                             40087  7   84 
  174.897      9.0199                                             40087  7   85 
  170.584      9.0399                                             40087  7   86 
  166.428     10.0899                                             40087  7   87 
  162.423     14.4699                                             40087  7   88 
  158.561     17.3499                                             40087  7   89 
  154.834     17.0499                                             40087  7   90 
  151.238     14.2099                                             40087  7   91 
  147.765     13.3799                                             40087  7   92 
  144.411     12.2599                                             40087  7   93 
  141.169     15.5099                                             40087  7   94 
  138.036     16.7399                                             40087  7   95 
  135.005     22.9799                                             40087  7   96 
  132.074     23.9299                                             40087  7   97 
  129.237     23.8799                                             40087  7   98 
  126.490     17.5299                                             40087  7   99 
  123.830     18.7099                                             40087  7  100 
  121.253     22.7899                                             40087  7  101 
  118.755     26.6999                                             40087  7  102 
  116.334     25.8599                                             40087  7  103 
  113.987     17.5299                                             40087  7  104 
  111.709     12.5899                                             40087  7  105 
  109.499     12.6199                                             40087  7  106 
  107.354     13.8399                                             40087  7  107 
  105.272     17.3399                                             40087  7  108 
  103.249     17.5599                                             40087  7  109 
  101.285     18.7899                                             40087  7  110 
   99.375     24.3199                                             40087  7  111 
ENDDATA             98          0                                 40087  7  112 
ENDSUBENT          111          0                                 40087  799999 
SUBENT        40087008   20230621                             421340087  8    1 
BIB                  4          9                                 40087  8    2 
REACTION   (94-PU-239(N,ABS),,ALF)                                40087  8    3 
ERR-ANALYS            No information available                    40087  8    4 
STATUS     (TABLE) From authors.                                  40087  8    5 
           (DEP,40087006) Capture C-S                             40087  8    6 
           (DEP,40087007) Fission C-S                             40087  8    7 
HISTORY    (19731129R) Data were received from authors.           40087  8    8 
           (19850329D) "ALL POINTS ELIMINATED FROM SET"           40087  8    9 
           (20111014S) M.M. Data were restored from trans 4017,   40087  8   10 
            a reason to delete data was not given.                40087  8   11 
ENDBIB               9          0                                 40087  8   12 
NOCOMMON             0          0                                 40087  8   13 
DATA                 2         96                                 40087  8   14 
EN         DATA                                                   40087  8   15 
EV         NO-DIM                                                 40087  8   16 
 9862.738      0.6499                                             40087  8   17 
 8235.562      0.7500                                             40087  8   18 
 6980.204      0.5099                                             40087  8   19 
 5991.443      0.7999                                             40087  8   20 
 5198.805      0.6899                                             40087  8   21 
 4553.654      0.8899                                             40087  8   22 
 4021.546      0.9099                                             40087  8   23 
 3577.535      0.9899                                             40087  8   24 
 3203.194      0.9899                                             40087  8   25 
 2884.676      1.1899                                             40087  8   26 
 2611.408      0.8299                                             40087  8   27 
 2375.208      1.3799                                             40087  8   28 
 2169.663      1.7099                                             40087  8   29 
 1989.689      1.4499                                             40087  8   30 
 1831.213      1.8199                                             40087  8   31 
 1690.944      1.4199                                             40087  8   32 
 1566.195      0.9599                                             40087  8   33 
 1454.759      1.0099                                             40087  8   34 
 1354.806      0.7399                                             40087  8   35 
 1264.811      0.8899                                             40087  8   36 
 1183.494      0.8899                                             40087  8   37 
 1109.775      0.8299                                             40087  8   38 
 1042.735      0.6099                                             40087  8   39 
  981.591      0.7399                                             40087  8   40 
  925.671      0.7699                                             40087  8   41 
  874.398      0.7199                                             40087  8   42 
  827.269      0.8199                                             40087  8   43 
  783.851      0.6199                                             40087  8   44 
  743.763      0.8399                                             40087  8   45 
  706.673      1.2199                                             40087  8   46 
  672.290      1.3299                                             40087  8   47 
  640.357      2.0699                                             40087  8   48 
  610.646      2.1199                                             40087  8   49 
  582.956      1.7299                                             40087  8   50 
  557.108      1.1599                                             40087  8   51 
  532.941      0.9199                                             40087  8   52 
  510.313      0.4599                                             40087  8   53 
  489.097      0.3299                                             40087  8   54 
  469.176      0.3199                                             40087  8   55 
  450.449      0.3699                                             40087  8   56 
  432.820      0.5000                                             40087  8   57 
  416.207      0.6299                                             40087  8   58 
  400.532      0.6899                                             40087  8   59 
  385.726      0.5199                                             40087  8   60 
  371.726      0.3699                                             40087  8   61 
  358.475      0.7799                                             40087  8   62 
  345.920      1.2099                                             40087  8   63 
  334.013      1.5799                                             40087  8   64 
  322.711      1.9799                                             40087  8   65 
  311.972      1.6999                                             40087  8   66 
  301.761      1.2299                                             40087  8   67 
  292.043      1.1099                                             40087  8   68 
  282.787      0.8199                                             40087  8   69 
  273.964      0.5899                                             40087  8   70 
  265.548      0.7099                                             40087  8   71 
  257.514      0.8699                                             40087  8   72 
  249.839      1.1499                                             40087  8   73 
  242.502      1.6999                                             40087  8   74 
  235.483      2.2500                                             40087  8   75 
  228.765      2.1299                                             40087  8   76 
  222.330      1.9899                                             40087  8   77 
  216.163      1.6199                                             40087  8   78 
  210.249      0.9799                                             40087  8   79 
  204.575      0.5999                                             40087  8   80 
  199.127      0.3599                                             40087  8   81 
  193.894      0.1899                                             40087  8   82 
  188.865      0.2999                                             40087  8   83 
  184.028      0.5499                                             40087  8   84 
  179.375      0.9099                                             40087  8   85 
  174.897      0.8599                                             40087  8   86 
  170.584      1.9399                                             40087  8   87 
  166.428      1.8499                                             40087  8   88 
  162.423      1.2219                                             40087  8   89 
  158.561      0.6199                                             40087  8   90 
  154.834      0.4299                                             40087  8   91 
  151.238      0.8199                                             40087  8   92 
  147.765      1.1999                                             40087  8   93 
  144.411      1.6199                                             40087  8   94 
  141.169      0.9699                                             40087  8   95 
  138.036      1.0499                                             40087  8   96 
  135.005      0.6699                                             40087  8   97 
  132.074      0.5599                                             40087  8   98 
  129.237      0.4299                                             40087  8   99 
  126.490      0.5799                                             40087  8  100 
  123.830      0.7699                                             40087  8  101 
  121.253      0.9199                                             40087  8  102 
  118.755      0.9499                                             40087  8  103 
  116.334      0.7199                                             40087  8  104 
  113.987      0.8099                                             40087  8  105 
  111.709      1.1099                                             40087  8  106 
  109.499      2.0399                                             40087  8  107 
  107.354      2.8399                                             40087  8  108 
  105.272      2.2199                                             40087  8  109 
  103.249      1.8699                                             40087  8  110 
  101.285      0.8899                                             40087  8  111 
   99.375      0.4599                                             40087  8  112 
ENDDATA             98          0                                 40087  8  113 
ENDSUBENT          112          0                                 40087  899999 
SUBENT        40087009   20230621                             421340087  9    1 
BIB                  6          9                                 40087  9    2 
REACTION   (94-PU-239(N,ABS),,ALF)                                40087  9    3 
            Obtained in additional measurement.                   40087  9    4 
MONITOR    ((MONIT1)94-PU-239(N,F),,NU)                           40087  9    5 
           ((MONIT2)94-PU-239(N,ABS),,ALF)                        40087  9    6 
MONIT-REF  (,G.C.Hanna+,J,REA,7,(4),3,1969)                       40087  9    7 
ERR-ANALYS (DATA-ERR) Not specified.                              40087  9    8 
STATUS     (TABLE,,F.N.Belyaev+,C,70HELSINKI,I,339,1970) Table 2  40087  9    9 
HISTORY    (20230621A) DATA 2 were moved in Subent 010 according  40087  9   10 
           to a comment of N.Otsuka (NDS,IAEA)                    40087  9   11 
ENDBIB               9          0                                 40087  9   12 
COMMON               3          3                                 40087  9   13 
EN-NRM     MONIT1     MONIT2                                      40087  9   14 
EV         PRT/FIS    NO-DIM                                      40087  9   15 
0.025       2.88       0.36                                       40087  9   16 
ENDCOMMON            3          0                                 40087  9   17 
DATA                 4          1                                 40087  9   18 
EN         DATA       +DATA-ERR  -DATA-ERR                        40087  9   19 
EV         NO-DIM     NO-DIM     NO-DIM                           40087  9   20 
0.30       0.66       0.03       0.02                             40087  9   21 
ENDDATA              3          0                                 40087  9   22 
ENDSUBENT           21          0                                 40087  999999 
SUBENT        40087010   20230621                             421340087 10    1 
BIB                  6         10                                 40087 10    2 
REACTION   (94-PU-239(N,ABS),,ETA)                                40087 10    3 
            Obtained in additional measurement.                   40087 10    4 
MONITOR    ((MONIT1)94-PU-239(N,F),,NU)                           40087 10    5 
           ((MONIT3)94-PU-239(N,ABS),,ETA)                        40087 10    6 
MONIT-REF  (,G.C.Hanna+,J,REA,7,(4),3,1969)                       40087 10    7 
ERR-ANALYS (DATA-ERR) Not specified.                              40087 10    8 
STATUS     (TABLE,,F.N.Belyaev+,C,70HELSINKI,I,339,1970) Table 2  40087 10    9 
HISTORY    (20230621T) Units of ETA : NO-DIM -> PRT/REAC.         40087 10   10 
            DATA were moved from Subent 009 according             40087 10   11 
           to a comment of N.Otsuka (NDS,IAEA)                    40087 10   12 
ENDBIB              10          0                                 40087 10   13 
COMMON               3          3                                 40087 10   14 
EN-NRM     MONIT1     MONIT3                                      40087 10   15 
EV         PRT/FIS    PRT/REAC                                    40087 10   16 
0.025       2.88      2.11                                        40087 10   17 
ENDCOMMON            3          0                                 40087 10   18 
DATA                 3          1                                 40087 10   19 
EN         DATA       DATA-ERR                                    40087 10   20 
EV         PRT/REAC   PRT/REAC                                    40087 10   21 
0.30        1.728      0.026                                      40087 10   22 
ENDDATA              3          0                                 40087 10   23 
ENDSUBENT           22          0                                 40087 1099999 
ENDENTRY            10          0                                 4008799999999 
