ENTRY            40272   19871026                             00004027200000001 
SUBENT        40272001   19871026                             00004027200100001 
BIB                 10         13                                 4027200100002 
TITLE       U-235 FISSION CROSS-SECTION IN ENERGY REGION          4027200100003 
            0.8-168.6 EV.                                         4027200100004 
AUTHOR     (T.A.MOSTOVAYA,O.G.BESPALOV)                           4027200100005 
INSTITUTE  (4CCPKUR)                                              4027200100006 
REFERENCE  (R,ICD-3,10,66)                                        4027200100007 
METHOD     (TOF)  TIME OF FLIGHT                                  4027200100008 
FACILITY   (LINAC) ELECTRON LINEAR ACCELERATOR                    4027200100009 
DETECTOR   (FISCH)    FISSION CHAMBER                             4027200100010 
PART-DET   (FF)    FISSION FRAGMENTS                              4027200100011 
STATUS              DATA FROM DASTAR 00056                        4027200100012 
HISTORY    (750227T) PREVIOUSLY DASTAR 00056                      4027200100013 
           (871026U)  ISO-QUANT CODE INTO REACTION ONE CONVERTED  4027200100014 
                      AND DATA-ERR VALUES CORRECTED               4027200100015 
ENDBIB              13          0                                 4027200100016 
NOCOMMON             0          0                                 4027200100017 
ENDSUBENT           16          0                                 4027200199999 
SUBENT        40272002   19890505                             00004027200200001 
BIB                  3          5                                 4027200200002 
REACTION   (92-U-235(N,F),,SIG)                                   4027200200003 
MONITOR    (92-U-235(N,F),,SIG)   FISSION CROSS-SECTION OF U-235  4027200200004 
                 FROM BNL-325,(1965) IN ENERGY REGION 0.8-0.9 EV  4027200200005 
                 WAS USED AS A STANDARD                           4027200200006 
ERR-ANALYS (DATA-ERR) RELATIVE ERRORS DELTA SIGMA/SIGMA ARE GIVEN 4027200200007 
ENDBIB               5          0                                 4027200200008 
COMMON               2          3                                 4027200200009 
EN-NRM-MIN EN-NRM-MAX                                             4027200200010 
EV         EV                                                     4027200200011 
 0.8        0.9                                                   4027200200012 
ENDCOMMON            3          0                                 4027200200013 
DATA                 3       1860                                 4027200200014 
EN         DATA       DATA-ERR                                    4027200200015 
EV         B          PER-CENT                                    4027200200016 
 0.8243E+00 0.5691E+02 5.6999E+00                                 4027200200017 
 0.8452E+00 0.5696E+02 5.5999E+00                                 4027200200018 
 0.8645E+00 0.5724E+02 5.8999E+00                                 4027200200019 
 0.8895E+00 0.5860E+02 5.7999E+00                                 4027200200020 
 0.9050E+00 0.5934E+02 5.3999E+00                                 4027200200021 
 0.9210E+00 0.6113E+02 5.2999E+00                                 4027200200022 
 0.9291E+00 0.6332E+02 5.1999E+00                                 4027200200023 
 0.9542E+00 0.6347E+02 5.1999E+00                                 4027200200024 
 0.9715E+00 0.6683E+02 5.1999E+00                                 4027200200025 
 0.9803E+00 0.6879E+02 4.8999E+00                                 4027200200026 
 0.9892E+00 0.7184E+02 4.7999E+00                                 4027200200027 
 0.9983E+00 0.7484E+02 4.7999E+00                                 4027200200028 
 0.1007E+01 0.7679E+02 4.5999E+00                                 4027200200029 
 0.1017E+01 0.7710E+02 4.5999E+00                                 4027200200030 
 0.1026E+01 0.8009E+02 4.4999E+00                                 4027200200031 
 0.1036E+01 0.8437E+02 4.2999E+00                                 4027200200032 
 0.1045E+01 0.8742E+02 4.2999E+00                                 4027200200033 
 0.1055E+01 0.9197E+02 3.9999E+00                                 4027200200034 
 0.1065E+01 0.9789E+02 3.9999E+00                                 4027200200035 
 0.1075E+01 0.1022E+03 3.9999E+00                                 4027200200036 
 0.1086E+01 0.1096E+03 3.9999E+00                                 4027200200037 
 0.1096E+01 0.1126E+03 3.6999E+00                                 4027200200038 
 0.1117E+01 0.1149E+03 3.6999E+00                                 4027200200039 
 0.1139E+01 0.1153E+03 3.5999E+00                                 4027200200040 
 0.1151E+01 0.1065E+03 3.7999E+00                                 4027200200041 
 0.1162E+01 0.9636E+02 3.9999E+00                                 4027200200042 
 0.1173E+01 0.8652E+02 3.9999E+00                                 4027200200043 
 0.1181E+01 0.7651E+02 4.2999E+00                                 4027200200044 
 0.1197E+01 0.6488E+02 4.5999E+00                                 4027200200045 
 0.1209E+01 0.5649E+02 4.9999E+00                                 4027200200046 
 0.1221E+01 0.4752E+02 5.5999E+00                                 4027200200047 
 0.1234E+01 0.4067E+02 6.1999E+00                                 4027200200048 
 0.1246E+01 0.3676E+02 6.4999E+00                                 4027200200049 
 0.1259E+01 0.3326E+02 6.3999E+00                                 4027200200050 
 0.1272E+01 0.2808E+02 6.9999E+00                                 4027200200051 
 0.1285E+01 0.2727E+02 6.8999E+00                                 4027200200052 
 0.1299E+01 0.2460E+02 8.1999E+00                                 4027200200053 
 0.1313E+01 0.2463E+02 7.0999E+00                                 4027200200054 
 0.1326E+01 0.2205E+02 9.0999E+00                                 4027200200055 
 0.1345E+01 0.2360E+02 8.0999E+00                                 4027200200056 
 0.1355E+01 0.2339E+02 8.3999E+00                                 4027200200057 
 0.1369E+01 0.2234E+02 8.3999E+00                                 4027200200058 
 0.1384E+01 0.1965E+02 8.3999E+00                                 4027200200059 
 0.1399E+01 0.1990E+02 8.9999E+00                                 4027200200060 
 0.1414E+01 0.1943E+02 8.5999E+00                                 4027200200061 
 0.1430E+01 0.1728E+02 9.3999E+00                                 4027200200062 
 0.1446E+01 0.1826E+02 8.8999E+00                                 4027200200063 
 0.1462E+01 0.1695E+02 9.1999E+00                                 4027200200064 
 0.1478E+01 0.1693E+02 9.6999E+00                                 4027200200065 
 0.1494E+01 0.1635E+02 9.7999E+00                                 4027200200066 
 0.1511E+01 0.1581E+02 9.5999E+00                                 4027200200067 
 0.1523E+01 0.1703E+02 8.8999E+00                                 4027200200068 
 0.1546E+01 0.1436E+02 1.0299E+01                                 4027200200069 
 0.1564E+01 0.1472E+02 9.6999E+00                                 4027200200070 
 0.1582E+01 0.1457E+02 1.0299E+01                                 4027200200071 
 0.1600E+01 0.1447E+02 1.0199E+01                                 4027200200072 
 0.1619E+01 0.1520E+02 9.6999E+00                                 4027200200073 
 0.1638E+01 0.1418E+02 1.0799E+01                                 4027200200074 
 0.1657E+01 0.1416E+02 9.8999E+00                                 4027200200075 
 0.1677E+01 0.1467E+02 1.0499E+01                                 4027200200076 
 0.1697E+01 0.1606E+02 9.7999E+00                                 4027200200077 
 0.1717E+01 0.1390E+02 9.7999E+00                                 4027200200078 
 0.1738E+01 0.1384E+02 9.9999E+00                                 4027200200079 
 0.1755E+01 0.1250E+02 1.1099E+01                                 4027200200080 
 0.1766E+01 0.1314E+02 9.9999E+00                                 4027200200081 
 0.1777E+01 0.1386E+02 9.5999E+00                                 4027200200082 
 0.1788E+01 0.1336E+02 1.0799E+01                                 4027200200083 
 0.1799E+01 0.1294E+02 1.0299E+01                                 4027200200084 
 0.1810E+01 0.1257E+02 9.9999E+00                                 4027200200085 
 0.1821E+01 0.1331E+02 1.0199E+01                                 4027200200086 
 0.1834E+01 0.1374E+02 9.8999E+00                                 4027200200087 
 0.1844E+01 0.1266E+02 1.0199E+01                                 4027200200088 
 0.1867E+01 0.1282E+02 1.0799E+01                                 4027200200089 
 0.1878E+01 0.1272E+02 1.0699E+01                                 4027200200090 
 0.1890E+01 0.1278E+02 1.0399E+01                                 4027200200091 
 0.1902E+01 0.1285E+02 9.5999E+00                                 4027200200092 
 0.1914E+01 0.1305E+02 1.0499E+01                                 4027200200093 
 0.1926E+01 0.1272E+02 1.0199E+01                                 4027200200094 
 0.1939E+01 0.1393E+02 9.4999E+00                                 4027200200095 
 0.1951E+01 0.1363E+02 9.0999E+00                                 4027200200096 
 0.1964E+01 0.1425E+02 9.3999E+00                                 4027200200097 
 0.1976E+01 0.1491E+02 8.9999E+00                                 4027200200098 
 0.1989E+01 0.1812E+02 8.0999E+00                                 4027200200099 
 0.2002E+01 0.1880E+02 1.3899E+01                                 4027200200100 
 0.2006E+01 0.1971E+02 1.3199E+01                                 4027200200101 
 0.2011E+01 0.2074E+02 1.2799E+01                                 4027200200102 
 0.2019E+01 0.2233E+02 1.2199E+01                                 4027200200103 
 0.2024E+01 0.2533E+02 1.1299E+01                                 4027200200104 
 0.2028E+01 0.2864E+02 1.2199E+01                                 4027200200105 
 0.2046E+01 0.2889E+02 1.0499E+01                                 4027200200106 
 0.2059E+01 0.2658E+02 1.0499E+01                                 4027200200107 
 0.2064E+01 0.2551E+02 1.0899E+01                                 4027200200108 
 0.2068E+01 0.2421E+02 1.1199E+01                                 4027200200109 
 0.2073E+01 0.2325E+02 1.1499E+01                                 4027200200110 
 0.2077E+01 0.2219E+02 1.1799E+01                                 4027200200111 
 0.2082E+01 0.2009E+02 1.2099E+01                                 4027200200112 
 0.2087E+01 0.1835E+02 1.2899E+01                                 4027200200113 
 0.2091E+01 0.1764E+02 1.3599E+01                                 4027200200114 
 0.2096E+01 0.1807E+02 1.3899E+01                                 4027200200115 
 0.2100E+01 0.1473E+02 1.3699E+01                                 4027200200116 
 0.2105E+01 0.1460E+02 1.5699E+01                                 4027200200117 
 0.2114E+01 0.1456E+02 8.3999E+00                                 4027200200118 
 0.2124E+01 0.1350E+02 9.0999E+00                                 4027200200119 
 0.2138E+01 0.1341E+02 9.9999E+00                                 4027200200120 
 0.2152E+01 0.1238E+02 1.0299E+01                                 4027200200121 
 0.2167E+01 0.1237E+02 9.6999E+00                                 4027200200122 
 0.2182E+01 0.1187E+02 1.0499E+01                                 4027200200123 
 0.2196E+01 0.1167E+02 1.0199E+01                                 4027200200124 
 0.2211E+01 0.1188E+02 9.9999E+00                                 4027200200125 
 0.2226E+01 0.1095E+02 1.1399E+01                                 4027200200126 
 0.2242E+01 0.1163E+02 1.0099E+01                                 4027200200127 
 0.2257E+01 0.1089E+02 1.1099E+01                                 4027200200128 
 0.2273E+01 0.1124E+02 1.0099E+01                                 4027200200129 
 0.2283E+01 0.1193E+02 9.9999E+00                                 4027200200130 
 0.2304E+01 0.1021E+02 1.1499E+01                                 4027200200131 
 0.2320E+01 0.1059E+02 1.0799E+01                                 4027200200132 
 0.2337E+01 0.1051E+02 1.0699E+01                                 4027200200133 
 0.2353E+01 0.9680E+01 1.1799E+01                                 4027200200134 
 0.2370E+01 0.1009E+02 1.1299E+01                                 4027200200135 
 0.2386E+01 0.1005E+02 1.1499E+01                                 4027200200136 
 0.2403E+01 0.1105E+02 1.0699E+01                                 4027200200137 
 0.2420E+01 0.9014E+01 1.1999E+01                                 4027200200138 
 0.2438E+01 0.9911E+01 1.1299E+01                                 4027200200139 
 0.2455E+01 0.9308E+01 1.3299E+01                                 4027200200140 
 0.2467E+01 0.8969E+01 1.0999E+01                                 4027200200141 
 0.2491E+01 0.8397E+01 1.1399E+01                                 4027200200142 
 0.2509E+01 0.8861E+01 1.2599E+01                                 4027200200143 
 0.2527E+01 0.7675E+01 1.2399E+01                                 4027200200144 
 0.2546E+01 0.8429E+01 1.2899E+01                                 4027200200145 
 0.2564E+01 0.7794E+01 1.2599E+01                                 4027200200146 
 0.2583E+01 0.9211E+01 1.2599E+01                                 4027200200147 
 0.2602E+01 0.9094E+01 1.1099E+01                                 4027200200148 
 0.2622E+01 0.7836E+01 1.2799E+01                                 4027200200149 
 0.2641E+01 0.8167E+01 1.1999E+01                                 4027200200150 
 0.2661E+01 0.7285E+01 1.3399E+01                                 4027200200151 
 0.2681E+01 0.6983E+01 1.3399E+01                                 4027200200152 
 0.2701E+01 0.6255E+01 1.3299E+01                                 4027200200153 
 0.2721E+01 0.6255E+01 1.3899E+01                                 4027200200154 
 0.2742E+01 0.7232E+01 1.3599E+01                                 4027200200155 
 0.2763E+01 0.8652E+01 1.0599E+01                                 4027200200156 
 0.2784E+01 0.1009E+02 1.1099E+01                                 4027200200157 
 0.2805E+01 0.1267E+02 9.2999E+00                                 4027200200158 
 0.2827E+01 0.1500E+02 7.8999E+00                                 4027200200159 
 0.2849E+01 0.1664E+02 7.4999E+00                                 4027200200160 
 0.2871E+01 0.1833E+02 6.9999E+00                                 4027200200161 
 0.2893E+01 0.1846E+02 7.3999E+00                                 4027200200162 
 0.2916E+01 0.1912E+02 6.7999E+00                                 4027200200163 
 0.2939E+01 0.2018E+02 6.5999E+00                                 4027200200164 
 0.2962E+01 0.2076E+02 6.4999E+00                                 4027200200165 
 0.2985E+01 0.2368E+02 5.7999E+00                                 4027200200166 
 0.3009E+01 0.2599E+02 5.3999E+00                                 4027200200167 
 0.3025E+01 0.2833E+02 5.4999E+00                                 4027200200168 
 0.3057E+01 0.3322E+02 4.8999E+00                                 4027200200169 
 0.3074E+01 0.3555E+02 8.1999E+00                                 4027200200170 
 0.3082E+01 0.3830E+02 7.7999E+00                                 4027200200171 
 0.3090E+01 0.4123E+02 7.5999E+00                                 4027200200172 
 0.3099E+01 0.4090E+02 7.5999E+00                                 4027200200173 
 0.3107E+01 0.4273E+02 7.3999E+00                                 4027200200174 
 0.3115E+01 0.4762E+02 6.9999E+00                                 4027200200175 
 0.3124E+01 0.4881E+02 6.8999E+00                                 4027200200176 
 0.3132E+01 0.4883E+02 6.8999E+00                                 4027200200177 
 0.3141E+01 0.5306E+02 6.5999E+00                                 4027200200178 
 0.3149E+01 0.5217E+02 6.6999E+00                                 4027200200179 
 0.3158E+01 0.5612E+02 6.4999E+00                                 4027200200180 
 0.3166E+01 0.5559E+02 6.4999E+00                                 4027200200181 
 0.3175E+01 0.5238E+02 6.6999E+00                                 4027200200182 
 0.3183E+01 0.5381E+02 6.5999E+00                                 4027200200183 
 0.3192E+01 0.4919E+02 6.8999E+00                                 4027200200184 
 0.3201E+01 0.4592E+02 7.0999E+00                                 4027200200185 
 0.3210E+01 0.4266E+02 7.3999E+00                                 4027200200186 
 0.3218E+01 0.3675E+02 7.8999E+00                                 4027200200187 
 0.3227E+01 0.3784E+02 7.7999E+00                                 4027200200188 
 0.3236E+01 0.3311E+02 8.3999E+00                                 4027200200189 
 0.3245E+01 0.3173E+02 8.5999E+00                                 4027200200190 
 0.3254E+01 0.2957E+02 8.8999E+00                                 4027200200191 
 0.3263E+01 0.2742E+02 9.1999E+00                                 4027200200192 
 0.3272E+01 0.2510E+02 9.5999E+00                                 4027200200193 
 0.3281E+01 0.2401E+02 9.8999E+00                                 4027200200194 
 0.3290E+01 0.2485E+02 9.6999E+00                                 4027200200195 
 0.3299E+01 0.2167E+02 1.0399E+01                                 4027200200196 
 0.3308E+01 0.2268E+02 1.0199E+01                                 4027200200197 
 0.3317E+01 0.2012E+02 1.0899E+01                                 4027200200198 
 0.3327E+01 0.1992E+02 1.0899E+01                                 4027200200199 
 0.3336E+01 0.1937E+02 1.1099E+01                                 4027200200200 
 0.3345E+01 0.2064E+02 1.0699E+01                                 4027200200201 
 0.3354E+01 0.1853E+02 1.1399E+01                                 4027200200202 
 0.3364E+01 0.1807E+02 1.1499E+01                                 4027200200203 
 0.3373E+01 0.1899E+02 1.1199E+01                                 4027200200204 
 0.3383E+01 0.1948E+02 1.0999E+01                                 4027200200205 
 0.3392E+01 0.1980E+02 1.0899E+01                                 4027200200206 
 0.3402E+01 0.1986E+02 1.0899E+01                                 4027200200207 
 0.3411E+01 0.2034E+02 1.0699E+01                                 4027200200208 
 0.3421E+01 0.2151E+02 1.0399E+01                                 4027200200209 
 0.3431E+01 0.2294E+02 9.9999E+00                                 4027200200210 
 0.3440E+01 0.2393E+02 9.6999E+00                                 4027200200211 
 0.3450E+01 0.2381E+02 9.7999E+00                                 4027200200212 
 0.3460E+01 0.2437E+02 9.5999E+00                                 4027200200213 
 0.3470E+01 0.2893E+02 8.7999E+00                                 4027200200214 
 0.3480E+01 0.2855E+02 8.7999E+00                                 4027200200215 
 0.3489E+01 0.3165E+02 8.2999E+00                                 4027200200216 
 0.3499E+01 0.3296E+02 8.1999E+00                                 4027200200217 
 0.3509E+01 0.3613E+02 7.7999E+00                                 4027200200218 
 0.3519E+01 0.3929E+02 7.4999E+00                                 4027200200219 
 0.3530E+01 0.4337E+02 7.0999E+00                                 4027200200220 
 0.3540E+01 0.4853E+02 6.6999E+00                                 4027200200221 
 0.3550E+01 0.5082E+02 6.5999E+00                                 4027200200222 
 0.3560E+01 0.5873E+02 6.1999E+00                                 4027200200223 
 0.3570E+01 0.6234E+02 5.9999E+00                                 4027200200224 
 0.3581E+01 0.7255E+02 5.5999E+00                                 4027200200225 
 0.3591E+01 0.8283E+02 5.2999E+00                                 4027200200226 
 0.3601E+01 0.8772E+02 5.1999E+00                                 4027200200227 
 0.3612E+01 0.9419E+02 4.9999E+00                                 4027200200228 
 0.3622E+01 0.9131E+02 5.0999E+00                                 4027200200229 
 0.3633E+01 0.8944E+02 5.0999E+00                                 4027200200230 
 0.3643E+01 0.8449E+02 5.1999E+00                                 4027200200231 
 0.3654E+01 0.7840E+02 5.3999E+00                                 4027200200232 
 0.3665E+01 0.6728E+02 5.7999E+00                                 4027200200233 
 0.3675E+01 0.5701E+02 6.1999E+00                                 4027200200234 
 0.3686E+01 0.5106E+02 6.4999E+00                                 4027200200235 
 0.3697E+01 0.3862E+02 7.3999E+00                                 4027200200236 
 0.3708E+01 0.3214E+02 8.1999E+00                                 4027200200237 
 0.3719E+01 0.2748E+02 8.8999E+00                                 4027200200238 
 0.3730E+01 0.2301E+02 9.7999E+00                                 4027200200239 
 0.3741E+01 0.1682E+02 1.1699E+01                                 4027200200240 
 0.3752E+01 0.1352E+02 1.3399E+01                                 4027200200241 
 0.3763E+01 0.1170E+02 1.4499E+01                                 4027200200242 
 0.3774E+01 0.1022E+02 1.5799E+01                                 4027200200243 
 0.3785E+01 0.8325E+01 1.8099E+01                                 4027200200244 
 0.3796E+01 0.6358E+01 2.1899E+01                                 4027200200245 
 0.3808E+01 0.7000E+01 2.0399E+01                                 4027200200246 
 0.3819E+01 0.6178E+01 2.2299E+01                                 4027200200247 
 0.3830E+01 0.5926E+01 2.2999E+01                                 4027200200248 
 0.3842E+01 0.5918E+01 2.2999E+01                                 4027200200249 
 0.3853E+01 0.5830E+01 2.3099E+01                                 4027200200250 
 0.3865E+01 0.5094E+01 2.5499E+01                                 4027200200251 
 0.3877E+01 0.5814E+01 2.2999E+01                                 4027200200252 
 0.3888E+01 0.4919E+01 2.5999E+01                                 4027200200253 
 0.3900E+01 0.4107E+01 2.9899E+01                                 4027200200254 
 0.3912E+01 0.4263E+01 2.8999E+01                                 4027200200255 
 0.3924E+01 0.3534E+01 3.3499E+01                                 4027200200256 
 0.3935E+01 0.4091E+01 2.9899E+01                                 4027200200257 
 0.3947E+01 0.3525E+01 3.3499E+01                                 4027200200258 
 0.3959E+01 0.4481E+01 2.7899E+01                                 4027200200259 
 0.3971E+01 0.4075E+01 2.9899E+01                                 4027200200260 
 0.3983E+01 0.3352E+01 3.4799E+01                                 4027200200261 
 0.3996E+01 0.3507E+01 3.3499E+01                                 4027200200262 
 0.4008E+01 0.2388E+01 4.4999E+01                                 4027200200263 
 0.4020E+01 0.4293E+01 2.8599E+01                                 4027200200264 
 0.4032E+01 0.3890E+01 3.0799E+01                                 4027200200265 
 0.4045E+01 0.3964E+01 3.0299E+01                                 4027200200266 
 0.4057E+01 0.3880E+01 3.0799E+01                                 4027200200267 
 0.4070E+01 0.2214E+01 4.8199E+01                                 4027200200268 
 0.4082E+01 0.3712E+01 3.1799E+01                                 4027200200269 
 0.4095E+01 0.2998E+01 3.7699E+01                                 4027200200270 
 0.4107E+01 0.3073E+01 3.6899E+01                                 4027200200271 
 0.4120E+01 0.2833E+01 3.9199E+01                                 4027200200272 
 0.4133E+01 0.2986E+01 3.7599E+01                                 4027200200273 
 0.4146E+01 0.2982E+01 3.7699E+01                                 4027200200274 
 0.4159E+01 0.2900E+01 3.8499E+01                                 4027200200275 
 0.4172E+01 0.3053E+01 3.6799E+01                                 4027200200276 
 0.4185E+01 0.3597E+01 3.2399E+01                                 4027200200277 
 0.4198E+01 0.4139E+01 2.9199E+01                                 4027200200278 
 0.4211E+01 0.3588E+01 3.2399E+01                                 4027200200279 
 0.4224E+01 0.3739E+01 3.1599E+01                                 4027200200280 
 0.4237E+01 0.2879E+01 3.8399E+01                                 4027200200281 
 0.4251E+01 0.3186E+01 3.5399E+01                                 4027200200282 
 0.4264E+01 0.4113E+01 2.9199E+01                                 4027200200283 
 0.4277E+01 0.3643E+01 3.1099E+01                                 4027200200284 
 0.4291E+01 0.2625E+01 4.1599E+01                                 4027200200285 
 0.4305E+01 0.2612E+01 4.0999E+01                                 4027200200286 
 0.4318E+01 0.2754E+01 3.9199E+01                                 4027200200287 
 0.4332E+01 0.2279E+01 4.6099E+01                                 4027200200288 
 0.4346E+01 0.2883E+01 3.8099E+01                                 4027200200289 
 0.4359E+01 0.2947E+01 3.7399E+01                                 4027200200290 
 0.4373E+01 0.3473E+01 3.3299E+01                                 4027200200291 
 0.4387E+01 0.2307E+01 3.9999E+01                                 4027200200292 
 0.4401E+01 0.2832E+01 3.9499E+01                                 4027200200293 
 0.4415E+01 0.3587E+01 3.2199E+01                                 4027200200294 
 0.4430E+01 0.2807E+01 3.9299E+01                                 4027200200295 
 0.4444E+01 0.2794E+01 3.9099E+01                                 4027200200296 
 0.4458E+01 0.3470E+01 3.3099E+01                                 4027200200297 
 0.4473E+01 0.3992E+01 3.0499E+01                                 4027200200298 
 0.4487E+01 0.3444E+01 3.3499E+01                                 4027200200299 
 0.4502E+01 0.2363E+01 4.5399E+01                                 4027200200300 
 0.4516E+01 0.2732E+01 4.0299E+01                                 4027200200301 
 0.4531E+01 0.2948E+01 3.7899E+01                                 4027200200302 
 0.4546E+01 0.2935E+01 3.8099E+01                                 4027200200303 
 0.4560E+01 0.2619E+01 4.1799E+01                                 4027200200304 
 0.4575E+01 0.3289E+01 3.4799E+01                                 4027200200305 
 0.4590E+01 0.3883E+01 3.0599E+01                                 4027200200306 
 0.4605E+01 0.3415E+01 2.6299E+01                                 4027200200307 
 0.4620E+01 0.3553E+01 3.2799E+01                                 4027200200308 
 0.4635E+01 0.3843E+01 3.0899E+01                                 4027200200309 
 0.4651E+01 0.2999E+01 3.7500E+01                                 4027200200310 
 0.4666E+01 0.3590E+01 3.2499E+01                                 4027200200311 
 0.4681E+01 0.3652E+01 3.2199E+01                                 4027200200312 
 0.4697E+01 0.4166E+01 2.9099E+01                                 4027200200313 
 0.4712E+01 0.3927E+01 3.0399E+01                                 4027200200314 
 0.4728E+01 0.5867E+01 2.2499E+01                                 4027200200315 
 0.4744E+01 0.5101E+01 2.3999E+01                                 4027200200316 
 0.4760E+01 0.7037E+01 1.9799E+01                                 4027200200317 
 0.4775E+01 0.7171E+01 1.9499E+01                                 4027200200318 
 0.4791E+01 0.1052E+02 1.5099E+01                                 4027200200319 
 0.4807E+01 0.1320E+02 1.3099E+01                                 4027200200320 
 0.4823E+01 0.1609E+02 1.1599E+01                                 4027200200321 
 0.4840E+01 0.1801E+02 1.0899E+01                                 4027200200322 
 0.4856E+01 0.2156E+02 9.7999E+00                                 4027200200323 
 0.4872E+01 0.2131E+02 9.8999E+00                                 4027200200324 
 0.4889E+01 0.2083E+02 9.9999E+00                                 4027200200325 
 0.4905E+01 0.1694E+02 1.1299E+01                                 4027200200326 
 0.4922E+01 0.1275E+02 1.7399E+01                                 4027200200327 
 0.4939E+01 0.1080E+02 1.4899E+01                                 4027200200328 
 0.4955E+01 0.8107E+01 1.7999E+01                                 4027200200329 
 0.4972E+01 0.4755E+01 1.6499E+01                                 4027200200330 
 0.4989E+01 0.6074E+01 2.2099E+01                                 4027200200331 
 0.5006E+01 0.5023E+01 2.4499E+01                                 4027200200332 
 0.5023E+01 0.4492E+01 2.7599E+01                                 4027200200333 
 0.5040E+01 0.4700E+01 2.6699E+01                                 4027200200334 
 0.5058E+01 0.5277E+01 2.4499E+01                                 4027200200335 
 0.5075E+01 0.5651E+01 2.3799E+01                                 4027200200336 
 0.5093E+01 0.6519E+01 2.1999E+01                                 4027200200337 
 0.5110E+01 0.4215E+01 3.0299E+01                                 4027200200338 
 0.5128E+01 0.6195E+01 2.2699E+01                                 4027200200339 
 0.5145E+01 0.5921E+01 2.3399E+01                                 4027200200340 
 0.5163E+01 0.6798E+01 2.0999E+01                                 4027200200341 
 0.5181E+01 0.6981E+01 2.0699E+01                                 4027200200342 
 0.5199E+01 0.7996E+01 1.8699E+01                                 4027200200343 
 0.5217E+01 0.9075E+01 1.7099E+01                                 4027200200344 
 0.5236E+01 0.8719E+01 1.7499E+01                                 4027200200345 
 0.5254E+01 0.8441E+01 1.7799E+01                                 4027200200346 
 0.5272E+01 0.8537E+01 1.7599E+01                                 4027200200347 
 0.5291E+01 0.1122E+02 1.4699E+01                                 4027200200348 
 0.5309E+01 0.1255E+02 1.3599E+01                                 4027200200349 
 0.5328E+01 0.9918E+01 1.5899E+01                                 4027200200350 
 0.5347E+01 0.1226E+02 1.3799E+01                                 4027200200351 
 0.5366E+01 0.1270E+02 1.3399E+01                                 4027200200352 
 0.5385E+01 0.1371E+02 1.2799E+01                                 4027200200353 
 0.5404E+01 0.1471E+02 1.2199E+01                                 4027200200354 
 0.5423E+01 0.1599E+02 1.1599E+01                                 4027200200355 
 0.5442E+01 0.1541E+02 1.1799E+01                                 4027200200356 
 0.5462E+01 0.1837E+02 1.0599E+01                                 4027200200357 
 0.5481E+01 0.1807E+02 1.0699E+01                                 4027200200358 
 0.5501E+01 0.1819E+02 1.0599E+01                                 4027200200359 
 0.5521E+01 0.1705E+02 1.0999E+01                                 4027200200360 
 0.5540E+01 0.1828E+02 1.0599E+01                                 4027200200361 
 0.5560E+01 0.1723E+02 1.0899E+01                                 4027200200362 
 0.5580E+01 0.1817E+02 1.0599E+01                                 4027200200363 
 0.5600E+01 0.1767E+02 1.0699E+01                                 4027200200364 
 0.5621E+01 0.1786E+02 1.0599E+01                                 4027200200365 
 0.5641E+01 0.1635E+02 1.1199E+01                                 4027200200366 
 0.5662E+01 0.1857E+02 9.8999E+00                                 4027200200367 
 0.5682E+01 0.1775E+02 1.0599E+01                                 4027200200368 
 0.5703E+01 0.1605E+02 1.1199E+01                                 4027200200369 
 0.5724E+01 0.1598E+02 1.1199E+01                                 4027200200370 
 0.5745E+01 0.1644E+02 1.0999E+01                                 4027200200371 
 0.5766E+01 0.1650E+02 1.0999E+01                                 4027200200372 
 0.5787E+01 0.1517E+02 1.1499E+01                                 4027200200373 
 0.5808E+01 0.1628E+02 1.0999E+01                                 4027200200374 
 0.5829E+01 0.1693E+02 1.0699E+01                                 4027200200375 
 0.5851E+01 0.1712E+02 1.0699E+01                                 4027200200376 
 0.5873E+01 0.1666E+02 1.0799E+01                                 4027200200377 
 0.5894E+01 0.1853E+02 1.0099E+01                                 4027200200378 
 0.5916E+01 0.1851E+02 1.0199E+01                                 4027200200379 
 0.5938E+01 0.1863E+02 1.0099E+01                                 4027200200380 
 0.5960E+01 0.2182E+02 9.1999E+00                                 4027200200381 
 0.5983E+01 0.2103E+02 9.3999E+00                                 4027200200382 
 0.6005E+01 0.2266E+02 8.9999E+00                                 4027200200383 
 0.6027E+01 0.2479E+02 8.1999E+00                                 4027200200384 
 0.6050E+01 0.2861E+02 7.8999E+00                                 4027200200385 
 0.6073E+01 0.2932E+02 7.7999E+00                                 4027200200386 
 0.6096E+01 0.3328E+02 7.3999E+00                                 4027200200387 
 0.6119E+01 0.3641E+02 6.9999E+00                                 4027200200388 
 0.6142E+01 0.4095E+02 6.7999E+00                                 4027200200389 
 0.6165E+01 0.4440E+02 6.2999E+00                                 4027200200390 
 0.6188E+01 0.4709E+02 6.0999E+00                                 4027200200391 
 0.6212E+01 0.4933E+02 5.9999E+00                                 4027200200392 
 0.6236E+01 0.5346E+02 5.7999E+00                                 4027200200393 
 0.6259E+01 0.5616E+02 5.5999E+00                                 4027200200394 
 0.6283E+01 0.5500E+02 5.6999E+00                                 4027200200395 
 0.6307E+01 0.5841E+02 5.4999E+00                                 4027200200396 
 0.6332E+01 0.7156E+02 5.0999E+00                                 4027200200397 
 0.6356E+01 0.9274E+02 4.5999E+00                                 4027200200398 
 0.6380E+01 0.1096E+03 4.2999E+00                                 4027200200399 
 0.6405E+01 0.1188E+03 4.1999E+00                                 4027200200400 
 0.6430E+01 0.1140E+03 4.9999E+00                                 4027200200401 
 0.6455E+01 0.9488E+02 4.4999E+00                                 4027200200402 
 0.6480E+01 0.6749E+02 5.1999E+00                                 4027200200403 
 0.6505E+01 0.4334E+02 6.2999E+00                                 4027200200404 
 0.6530E+01 0.2757E+02 7.8999E+00                                 4027200200405 
 0.6556E+01 0.1810E+02 9.8999E+00                                 4027200200406 
 0.6581E+01 0.1427E+02 1.1399E+01                                 4027200200407 
 0.6607E+01 0.1023E+02 1.3899E+01                                 4027200200408 
 0.6633E+01 0.9608E+01 1.4499E+01                                 4027200200409 
 0.6659E+01 0.8932E+01 1.5299E+01                                 4027200200410 
 0.6686E+01 0.8726E+01 1.5399E+01                                 4027200200411 
 0.6712E+01 0.8463E+01 1.5699E+01                                 4027200200412 
 0.6739E+01 0.7622E+01 1.6899E+01                                 4027200200413 
 0.6765E+01 0.8404E+01 1.4899E+01                                 4027200200414 
 0.6792E+01 0.8432E+01 1.5799E+01                                 4027200200415 
 0.6819E+01 0.8404E+01 1.5799E+01                                 4027200200416 
 0.6847E+01 0.1055E+02 1.3499E+01                                 4027200200417 
 0.6874E+01 0.9950E+01 1.4099E+01                                 4027200200418 
 0.6895E+01 0.2908E+02 7.5999E+00                                 4027200200419 
 0.6901E+01 0.3157E+02 7.2999E+00                                 4027200200420 
 0.6908E+01 0.2961E+02 7.5999E+00                                 4027200200421 
 0.6915E+01 0.3718E+02 6.7999E+00                                 4027200200422 
 0.6922E+01 0.3580E+02 6.8999E+00                                 4027200200423 
 0.6929E+01 0.3991E+02 6.4999E+00                                 4027200200424 
 0.6936E+01 0.4651E+02 6.0999E+00                                 4027200200425 
 0.6943E+01 0.4996E+02 5.8999E+00                                 4027200200426 
 0.6950E+01 0.5235E+02 5.7999E+00                                 4027200200427 
 0.6957E+01 0.5945E+02 5.4999E+00                                 4027200200428 
 0.6964E+01 0.6242E+02 5.2999E+00                                 4027200200429 
 0.6971E+01 0.6636E+02 5.1999E+00                                 4027200200430 
 0.6978E+01 0.6717E+02 5.1999E+00                                 4027200200431 
 0.6985E+01 0.7602E+02 4.8999E+00                                 4027200200432 
 0.6992E+01 0.7700E+02 4.8999E+00                                 4027200200433 
 0.6999E+01 0.8091E+02 4.7999E+00                                 4027200200434 
 0.7006E+01 0.8967E+02 4.5999E+00                                 4027200200435 
 0.7013E+01 0.9473E+02 4.4999E+00                                 4027200200436 
 0.7020E+01 0.8802E+02 4.5999E+00                                 4027200200437 
 0.7027E+01 0.9059E+02 4.5999E+00                                 4027200200438 
 0.7035E+01 0.8671E+02 4.5999E+00                                 4027200200439 
 0.7042E+01 0.8542E+02 4.6999E+00                                 4027200200440 
 0.7049E+01 0.8230E+02 4.6999E+00                                 4027200200441 
 0.7056E+01 0.7448E+02 4.9999E+00                                 4027200200442 
 0.7063E+01 0.7309E+02 4.9999E+00                                 4027200200443 
 0.7070E+01 0.6575E+02 5.1999E+00                                 4027200200444 
 0.7077E+01 0.6329E+02 5.2999E+00                                 4027200200445 
 0.7085E+01 0.5557E+02 5.5999E+00                                 4027200200446 
 0.7092E+01 0.4901E+02 5.8999E+00                                 4027200200447 
 0.7099E+01 0.4816E+02 5.8999E+00                                 4027200200448 
 0.7106E+01 0.4253E+02 6.2999E+00                                 4027200200449 
 0.7113E+01 0.4670E+02 5.9999E+00                                 4027200200450 
 0.7121E+01 0.3448E+02 6.8999E+00                                 4027200200451 
 0.7128E+01 0.2757E+02 7.7999E+00                                 4027200200452 
 0.7135E+01 0.2816E+02 7.5999E+00                                 4027200200453 
 0.7142E+01 0.2502E+02 8.1999E+00                                 4027200200454 
 0.7150E+01 0.2017E+02 9.1999E+00                                 4027200200455 
 0.7157E+01 0.1511E+02 1.0799E+01                                 4027200200456 
 0.7164E+01 0.1668E+02 1.0199E+01                                 4027200200457 
 0.7172E+01 0.1587E+02 1.0499E+01                                 4027200200458 
 0.7179E+01 0.1212E+02 1.2399E+01                                 4027200200459 
 0.7186E+01 0.1318E+02 1.1699E+01                                 4027200200460 
 0.7194E+01 0.1232E+02 1.2199E+01                                 4027200200461 
 0.7201E+01 0.1068E+02 1.3299E+01                                 4027200200462 
 0.7208E+01 0.1021E+02 1.3799E+01                                 4027200200463 
 0.7216E+01 0.9189E+01 1.4799E+01                                 4027200200464 
 0.7223E+01 0.9292E+01 1.4599E+01                                 4027200200465 
 0.7231E+01 0.1052E+02 1.3499E+01                                 4027200200466 
 0.7238E+01 0.9271E+01 1.4699E+01                                 4027200200467 
 0.7245E+01 0.9037E+01 1.4899E+01                                 4027200200468 
 0.7253E+01 0.9475E+01 1.4399E+01                                 4027200200469 
 0.7260E+01 0.8681E+01 1.5299E+01                                 4027200200470 
 0.7268E+01 0.7218E+01 1.7299E+01                                 4027200200471 
 0.7275E+01 0.7768E+01 1.6399E+01                                 4027200200472 
 0.7283E+01 0.7089E+01 1.7499E+01                                 4027200200473 
 0.7290E+01 0.8419E+01 1.5699E+01                                 4027200200474 
 0.7298E+01 0.7073E+01 1.7499E+01                                 4027200200475 
 0.7305E+01 0.7732E+01 1.4699E+01                                 4027200200476 
 0.7313E+01 0.7668E+01 1.6499E+01                                 4027200200477 
 0.7320E+01 0.7714E+01 1.6499E+01                                 4027200200478 
 0.7328E+01 0.5153E+01 2.1899E+01                                 4027200200479 
 0.7335E+01 0.5645E+01 2.0499E+01                                 4027200200480 
 0.7343E+01 0.6081E+01 1.9399E+01                                 4027200200481 
 0.7350E+01 0.6129E+01 1.9299E+01                                 4027200200482 
 0.7358E+01 0.7283E+01 1.7099E+01                                 4027200200483 
 0.7366E+01 0.5949E+01 1.9699E+01                                 4027200200484 
 0.7373E+01 0.7045E+01 1.7499E+01                                 4027200200485 
 0.7381E+01 0.6761E+01 1.7999E+01                                 4027200200486 
 0.7389E+01 0.5596E+01 2.0599E+01                                 4027200200487 
 0.7396E+01 0.7075E+01 1.7399E+01                                 4027200200488 
 0.7404E+01 0.5967E+01 1.9699E+01                                 4027200200489 
 0.7412E+01 0.7882E+01 1.6199E+01                                 4027200200490 
 0.7419E+01 0.5952E+01 1.9699E+01                                 4027200200491 
 0.7427E+01 0.4684E+01 2.3099E+01                                 4027200200492 
 0.7435E+01 0.6704E+01 1.8099E+01                                 4027200200493 
 0.7442E+01 0.5164E+01 2.1699E+01                                 4027200200494 
 0.7450E+01 0.5978E+01 1.9499E+01                                 4027200200495 
 0.7458E+01 0.5588E+01 2.0599E+01                                 4027200200496 
 0.7466E+01 0.5144E+01 2.1699E+01                                 4027200200497 
 0.7473E+01 0.4920E+01 2.2399E+01                                 4027200200498 
 0.7481E+01 0.4641E+01 2.3399E+01                                 4027200200499 
 0.7489E+01 0.5016E+01 2.1999E+01                                 4027200200500 
 0.7497E+01 0.5824E+01 1.9799E+01                                 4027200200501 
 0.7505E+01 0.5329E+01 2.1199E+01                                 4027200200502 
 0.7513E+01 0.5430E+01 2.0799E+01                                 4027200200503 
 0.7520E+01 0.5640E+01 2.0299E+01                                 4027200200504 
 0.7528E+01 0.6607E+01 1.8099E+01                                 4027200200505 
 0.7536E+01 0.6221E+01 1.8899E+01                                 4027200200506 
 0.7544E+01 0.5024E+01 2.1999E+01                                 4027200200507 
 0.7552E+01 0.8151E+01 2.5199E+01                                 4027200200508 
 0.7560E+01 0.5173E+01 2.1599E+01                                 4027200200509 
 0.7568E+01 0.4143E+01 2.5399E+01                                 4027200200510 
 0.7576E+01 0.4137E+01 2.5399E+01                                 4027200200511 
 0.7584E+01 0.4454E+01 2.3999E+01                                 4027200200512 
 0.7592E+01 0.4985E+01 2.1999E+01                                 4027200200513 
 0.7600E+01 0.3798E+01 2.6999E+01                                 4027200200514 
 0.7608E+01 0.5347E+01 2.0899E+01                                 4027200200515 
 0.7616E+01 0.5555E+01 2.0399E+01                                 4027200200516 
 0.7624E+01 0.6511E+01 1.8099E+01                                 4027200200517 
 0.7632E+01 0.6129E+01 1.8899E+01                                 4027200200518 
 0.7640E+01 0.4946E+01 2.2099E+01                                 4027200200519 
 0.7648E+01 0.8055E+01 2.0999E+01                                 4027200200520 
 0.7656E+01 0.5093E+01 2.1599E+01                                 4027200200521 
 0.7664E+01 0.4074E+01 2.5599E+01                                 4027200200522 
 0.7672E+01 0.4068E+01 2.5599E+01                                 4027200200523 
 0.7680E+01 0.4382E+01 2.4099E+01                                 4027200200524 
 0.7688E+01 0.4907E+01 2.2199E+01                                 4027200200525 
 0.7696E+01 0.3733E+01 2.7299E+01                                 4027200200526 
 0.7704E+01 0.3993E+01 2.5899E+01                                 4027200200527 
 0.7713E+01 0.4940E+01 2.1999E+01                                 4027200200528 
 0.7721E+01 0.3188E+01 3.0799E+01                                 4027200200529 
 0.7729E+01 0.5191E+01 2.1199E+01                                 4027200200530 
 0.7737E+01 0.3759E+01 2.6999E+01                                 4027200200531 
 0.7745E+01 0.4070E+01 2.5399E+01                                 4027200200532 
 0.7754E+01 0.4064E+01 2.5399E+01                                 4027200200533 
 0.7762E+01 0.3532E+01 2.8299E+01                                 4027200200534 
 0.7770E+01 0.4789E+01 2.1399E+01                                 4027200200535 
 0.7778E+01 0.4363E+01 2.6799E+01                                 4027200200536 
 0.7787E+01 0.3832E+01 2.3099E+01                                 4027200200537 
 0.7795E+01 0.2830E+01 2.5099E+01                                 4027200200538 
 0.7803E+01 0.2930E+01 2.5999E+01                                 4027200200539 
 0.7811E+01 0.3606E+01 2.3099E+01                                 4027200200540 
 0.7820E+01 0.3601E+01 2.4199E+01                                 4027200200541 
 0.7828E+01 0.3334E+01 2.5299E+01                                 4027200200542 
 0.7836E+01 0.3590E+01 2.7799E+01                                 4027200200543 
 0.7845E+01 0.4106E+01 2.5119E+01                                 4027200200544 
 0.7853E+01 0.3892E+01 2.6159E+01                                 4027200200545 
 0.7862E+01 0.3575E+01 2.7799E+01                                 4027200200546 
 0.7870E+01 0.2530E+01 3.6799E+01                                 4027200200547 
 0.7878E+01 0.4758E+01 2.2399E+01                                 4027200200548 
 0.7887E+01 0.4181E+01 2.4699E+01                                 4027200200549 
 0.7895E+01 0.4072E+01 2.5199E+01                                 4027200200550 
 0.7904E+01 0.4532E+01 2.3099E+01                                 4027200200551 
 0.7912E+01 0.4267E+01 2.4299E+01                                 4027200200552 
 0.7921E+01 0.4261E+01 2.4299E+01                                 4027200200553 
 0.7929E+01 0.5183E+01 2.0999E+01                                 4027200200554 
 0.7938E+01 0.3218E+01 3.0099E+01                                 4027200200555 
 0.7946E+01 0.4655E+01 2.2699E+01                                 4027200200556 
 0.7955E+01 0.5369E+01 2.0399E+01                                 4027200200557 
 0.7963E+01 0.5875E+01 1.9099E+01                                 4027200200558 
 0.7972E+01 0.6381E+01 1.8599E+01                                 4027200200559 
 0.7980E+01 0.3809E+01 2.6299E+01                                 4027200200560 
 0.7989E+01 0.5135E+01 2.0999E+01                                 4027200200561 
 0.7998E+01 0.3286E+01 1.9999E+01                                 4027200200562 
 0.8006E+01 0.6093E+01 1.8599E+01                                 4027200200563 
 0.8015E+01 0.5983E+01 1.8799E+01                                 4027200200564 
 0.8024E+01 0.6230E+01 1.8299E+01                                 4027200200565 
 0.8032E+01 0.6630E+01 1.7499E+01                                 4027200200566 
 0.8041E+01 0.5603E+01 1.9599E+01                                 4027200200567 
 0.8050E+01 0.6054E+01 1.8599E+01                                 4027200200568 
 0.8058E+01 0.5792E+01 1.9099E+01                                 4027200200569 
 0.8067E+01 0.6596E+01 1.7499E+01                                 4027200200570 
 0.8076E+01 0.7653E+01 1.5799E+01                                 4027200200571 
 0.8085E+01 0.6377E+01 1.7899E+01                                 4027200200572 
 0.8093E+01 0.6470E+01 1.7699E+01                                 4027200200573 
 0.8102E+01 0.9191E+01 1.3999E+01                                 4027200200574 
 0.8111E+01 0.7564E+01 1.5899E+01                                 4027200200575 
 0.8120E+01 0.6495E+01 1.7599E+01                                 4027200200576 
 0.8129E+01 0.7394E+01 1.6099E+01                                 4027200200577 
 0.8137E+01 0.6982E+01 1.6699E+01                                 4027200200578 
 0.8146E+01 0.9789E+01 1.3299E+01                                 4027200200579 
 0.8155E+01 0.8924E+01 1.4199E+01                                 4027200200580 
 0.8164E+01 0.9214E+01 1.3899E+01                                 4027200200581 
 0.8173E+01 0.9453E+01 1.3599E+01                                 4027200200582 
 0.8182E+01 0.7939E+01 1.5299E+01                                 4027200200583 
 0.8191E+01 0.6679E+01 1.4199E+01                                 4027200200584 
 0.8200E+01 0.9069E+01 1.3999E+01                                 4027200200585 
 0.8209E+01 0.9358E+01 1.3699E+01                                 4027200200586 
 0.8218E+01 0.9396E+01 1.3599E+01                                 4027200200587 
 0.8227E+01 0.9136E+01 1.3899E+01                                 4027200200588 
 0.8236E+01 0.1092E+02 1.2399E+01                                 4027200200589 
 0.8245E+01 0.9859E+01 1.3099E+01                                 4027200200590 
 0.8254E+01 0.9847E+01 1.3199E+01                                 4027200200591 
 0.8263E+01 0.1108E+02 1.2199E+01                                 4027200200592 
 0.8272E+01 0.1181E+02 1.1799E+01                                 4027200200593 
 0.8281E+01 0.1258E+02 1.1299E+01                                 4027200200594 
 0.8290E+01 0.1361E+02 1.0799E+01                                 4027200200595 
 0.8299E+01 0.1428E+02 1.0499E+01                                 4027200200596 
 0.8308E+01 0.1476E+02 1.0199E+01                                 4027200200597 
 0.8317E+01 0.1647E+02 9.5999E+00                                 4027200200598 
 0.8326E+01 0.1359E+02 1.0699E+01                                 4027200200599 
 0.8335E+01 0.1490E+02 1.0099E+01                                 4027200200600 
 0.8345E+01 0.1671E+02 9.4999E+00                                 4027200200601 
 0.8354E+01 0.1894E+02 6.4999E+00                                 4027200200602 
 0.8363E+01 0.1686E+02 9.3999E+00                                 4027200200603 
 0.8372E+01 0.2081E+02 8.3999E+00                                 4027200200604 
 0.8381E+01 0.2407E+02 7.7999E+00                                 4027200200605 
 0.8391E+01 0.2277E+02 7.9999E+00                                 4027200200606 
 0.8400E+01 0.2289E+02 7.9999E+00                                 4027200200607 
 0.8409E+01 0.2418E+02 7.6999E+00                                 4027200200608 
 0.8419E+01 0.2600E+02 7.3999E+00                                 4027200200609 
 0.8428E+01 0.3021E+02 6.8999E+00                                 4027200200610 
 0.8437E+01 0.2872E+02 6.9999E+00                                 4027200200611 
 0.8447E+01 0.3242E+02 6.5999E+00                                 4027200200612 
 0.8456E+01 0.3243E+02 6.5999E+00                                 4027200200613 
 0.8465E+01 0.3613E+02 6.2999E+00                                 4027200200614 
 0.8475E+01 0.3740E+02 6.1999E+00                                 4027200200615 
 0.8484E+01 0.4016E+02 5.9999E+00                                 4027200200616 
 0.8494E+01 0.4461E+02 5.6999E+00                                 4027200200617 
 0.8503E+01 0.4543E+02 5.5999E+00                                 4027200200618 
 0.8512E+01 0.5044E+02 5.3999E+00                                 4027200200619 
 0.8522E+01 0.5857E+02 4.9999E+00                                 4027200200620 
 0.8531E+01 0.6119E+02 4.9999E+00                                 4027200200621 
 0.8541E+01 0.6396E+02 4.8999E+00                                 4027200200622 
 0.8550E+01 0.7066E+02 4.6999E+00                                 4027200200623 
 0.8560E+01 0.7508E+02 4.5999E+00                                 4027200200624 
 0.8569E+01 0.8606E+02 4.2999E+00                                 4027200200625 
 0.8579E+01 0.9286E+02 4.1999E+00                                 4027200200626 
 0.8589E+01 0.7413E+02 3.5999E+00                                 4027200200627 
 0.8598E+01 0.1456E+03 3.7999E+00                                 4027200200628 
 0.8608E+01 0.1245E+03 3.7999E+00                                 4027200200629 
 0.8617E+01 0.1360E+03 3.5999E+00                                 4027200200630 
 0.8627E+01 0.1541E+03 3.4999E+00                                 4027200200631 
 0.8637E+01 0.1678E+03 3.3999E+00                                 4027200200632 
 0.8646E+01 0.1881E+03 3.2999E+00                                 4027200200633 
 0.8656E+01 0.2056E+03 3.1999E+00                                 4027200200634 
 0.8666E+01 0.2357E+03 3.0999E+00                                 4027200200635 
 0.8676E+01 0.2625E+03 2.9999E+00                                 4027200200636 
 0.8685E+01 0.2890E+03 2.8999E+00                                 4027200200637 
 0.8695E+01 0.3126E+03 2.8999E+00                                 4027200200638 
 0.8705E+01 0.3466E+03 2.7999E+00                                 4027200200639 
 0.8715E+01 0.3803E+03 2.6999E+00                                 4027200200640 
 0.8724E+01 0.4131E+03 2.6999E+00                                 4027200200641 
 0.8734E+01 0.4300E+03 2.6999E+00                                 4027200200642 
 0.8744E+01 0.4703E+03 2.5999E+00                                 4027200200643 
 0.8754E+01 0.5135E+03 2.5999E+00                                 4027200200644 
 0.8764E+01 0.5300E+03 2.4999E+00                                 4027200200645 
 0.8774E+01 0.5545E+03 2.4999E+00                                 4027200200646 
 0.8784E+01 0.5862E+03 2.4999E+00                                 4027200200647 
 0.8794E+01 0.5880E+03 2.4999E+00                                 4027200200648 
 0.8804E+01 0.5918E+03 2.4999E+00                                 4027200200649 
 0.8813E+01 0.5802E+03 2.4999E+00                                 4027200200650 
 0.8823E+01 0.5781E+03 2.4999E+00                                 4027200200651 
 0.8833E+01 0.5627E+03 2.4999E+00                                 4027200200652 
 0.8843E+01 0.5512E+03 2.4999E+00                                 4027200200653 
 0.8853E+01 0.5314E+03 2.4999E+00                                 4027200200654 
 0.8864E+01 0.4922E+03 2.4999E+00                                 4027200200655 
 0.8874E+01 0.4581E+03 2.5999E+00                                 4027200200656 
 0.8884E+01 0.4236E+03 2.5999E+00                                 4027200200657 
 0.8894E+01 0.3954E+03 2.6999E+00                                 4027200200658 
 0.8904E+01 0.3544E+03 2.7999E+00                                 4027200200659 
 0.8914E+01 0.3245E+03 2.7999E+00                                 4027200200660 
 0.8924E+01 0.3019E+03 2.7999E+01                                 4027200200661 
 0.8934E+01 0.2778E+03 2.8999E+00                                 4027200200662 
 0.8945E+01 0.2433E+03 2.9999E+00                                 4027200200663 
 0.8955E+01 0.2322E+03 2.9999E+00                                 4027200200664 
 0.8965E+01 0.2099E+03 3.0999E+00                                 4027200200665 
 0.8975E+01 0.1937E+03 3.1999E+00                                 4027200200666 
 0.8985E+01 0.1786E+03 3.2999E+00                                 4027200200667 
 0.8996E+01 0.1623E+03 3.3999E+00                                 4027200200668 
 0.9006E+01 0.1574E+03 3.3999E+00                                 4027200200669 
 0.9016E+01 0.1527E+03 3.4999E+00                                 4027200200670 
 0.9141E+01 0.9786E+02 2.3999E+00                                 4027200200671 
 0.9162E+01 0.9431E+02 2.3999E+00                                 4027200200672 
 0.9194E+01 0.9595E+02 2.2999E+00                                 4027200200673 
 0.9226E+01 0.9982E+02 2.2999E+00                                 4027200200674 
 0.9258E+01 0.1075E+03 2.2999E+00                                 4027200200675 
 0.9291E+01 0.1134E+03 2.1999E+00                                 4027200200676 
 0.9323E+01 0.1154E+03 2.1999E+00                                 4027200200677 
 0.9356E+01 0.1093E+03 2.1999E+00                                 4027200200678 
 0.9388E+01 0.8971E+02 2.3999E+00                                 4027200200679 
 0.9421E+01 0.7745E+02 2.5999E+00                                 4027200200680 
 0.9455E+01 0.6341E+02 2.7999E+00                                 4027200200681 
 0.9488E+01 0.5431E+02 2.9999E+00                                 4027200200682 
 0.9521E+01 0.5119E+02 2.9999E+00                                 4027200200683 
 0.9555E+01 0.4710E+02 3.1999E+00                                 4027200200684 
 0.9589E+01 0.4608E+02 3.1999E+00                                 4027200200685 
 0.9623E+01 0.4453E+02 3.1999E+00                                 4027200200686 
 0.9657E+01 0.4193E+02 3.1999E+00                                 4027200200687 
 0.9691E+01 0.4167E+02 3.1999E+00                                 4027200200688 
 0.9726E+01 0.4111E+02 3.1999E+00                                 4027200200689 
 0.9761E+01 0.3958E+02 3.3999E+00                                 4027200200690 
 0.9796E+01 0.3676E+02 3.4999E+00                                 4027200200691 
 0.9831E+01 0.3539E+02 3.5999E+00                                 4027200200692 
 0.9866E+01 0.3174E+02 3.6999E+00                                 4027200200693 
 0.9902E+01 0.3031E+02 3.7999E+00                                 4027200200694 
 0.9937E+01 0.2716E+02 3.9999E+00                                 4027200200695 
 0.9973E+01 0.2571E+02 3.9999E+00                                 4027200200696 
 0.1001E+02 0.2456E+02 4.1999E+00                                 4027200200697 
 0.1005E+02 0.2479E+02 4.0999E+00                                 4027200200698 
 0.1008E+02 0.3054E+02 3.6999E+00                                 4027200200699 
 0.1012E+02 0.3292E+02 3.6999E+00                                 4027200200700 
 0.1016E+02 0.3783E+02 3.2999E+00                                 4027200200701 
 0.1019E+02 0.4140E+02 3.1999E+00                                 4027200200702 
 0.1023E+02 0.4271E+02 3.2999E+00                                 4027200200703 
 0.1027E+02 0.3807E+02 3.2999E+00                                 4027200200704 
 0.1031E+02 0.3225E+02 3.5999E+00                                 4027200200705 
 0.1034E+02 0.2673E+02 3.9999E+00                                 4027200200706 
 0.1038E+02 0.2389E+02 4.1999E+00                                 4027200200707 
 0.1042E+02 0.2042E+02 4.8999E+00                                 4027200200708 
 0.1046E+02 0.1821E+02 4.7999E+00                                 4027200200709 
 0.1050E+02 0.1911E+02 4.6999E+00                                 4027200200710 
 0.1054E+02 0.1796E+02 4.9999E+00                                 4027200200711 
 0.1058E+02 0.1752E+02 4.9999E+00                                 4027200200712 
 0.1061E+02 0.1696E+02 4.9999E+00                                 4027200200713 
 0.1065E+02 0.1540E+02 5.4999E+00                                 4027200200714 
 0.1069E+02 0.1557E+02 5.7999E+00                                 4027200200715 
 0.1073E+02 0.1619E+02 5.0999E+00                                 4027200200716 
 0.1077E+02 0.1690E+02 4.9999E+00                                 4027200200717 
 0.1082E+02 0.1679E+02 5.0999E+00                                 4027200200718 
 0.1086E+02 0.1542E+02 5.1999E+00                                 4027200200719 
 0.1090E+02 0.1571E+02 5.3999E+00                                 4027200200720 
 0.1094E+02 0.1578E+02 5.0999E+00                                 4027200200721 
 0.1098E+02 0.1560E+02 5.1999E+00                                 4027200200722 
 0.1102E+02 0.1424E+02 5.1999E+00                                 4027200200723 
 0.1106E+02 0.1446E+02 5.3999E+00                                 4027200200724 
 0.1111E+02 0.1401E+02 5.3999E+00                                 4027200200725 
 0.1115E+02 0.1405E+02 5.4999E+00                                 4027200200726 
 0.1119E+02 0.1526E+02 5.3999E+00                                 4027200200727 
 0.1123E+02 0.1451E+02 5.3999E+00                                 4027200200728 
 0.1128E+02 0.1434E+02 5.4999E+00                                 4027200200729 
 0.1132E+02 0.1489E+02 5.3999E+00                                 4027200200730 
 0.1136E+02 0.1610E+02 5.0999E+00                                 4027200200731 
 0.1141E+02 0.1728E+02 4.7999E+00                                 4027200200732 
 0.1145E+02 0.2032E+02 4.3999E+00                                 4027200200733 
 0.1150E+02 0.2458E+02 3.9999E+00                                 4027200200734 
 0.1154E+02 0.3225E+02 6.0999E+00                                 4027200200735 
 0.1156E+02 0.3533E+02 5.8999E+00                                 4027200200736 
 0.1157E+02 0.1778E+02 5.7999E+00                                 4027200200737 
 0.1159E+02 0.3651E+02 5.6999E+00                                 4027200200738 
 0.1160E+02 0.4163E+02 5.3999E+00                                 4027200200739 
 0.1162E+02 0.4555E+02 5.1999E+00                                 4027200200740 
 0.1163E+02 0.4903E+02 4.9999E+00                                 4027200200741 
 0.1165E+02 0.5092E+02 4.8999E+00                                 4027200200742 
 0.1166E+02 0.5648E+02 4.6999E+00                                 4027200200743 
 0.1168E+02 0.6134E+02 4.5999E+00                                 4027200200744 
 0.1169E+02 0.5755E+02 4.6999E+00                                 4027200200745 
 0.1171E+02 0.6020E+02 4.5999E+00                                 4027200200746 
 0.1172E+02 0.6076E+02 4.5999E+00                                 4027200200747 
 0.1174E+02 0.5690E+02 4.6999E+00                                 4027200200748 
 0.1175E+02 0.5513E+02 4.7999E+00                                 4027200200749 
 0.1177E+02 0.4828E+02 4.9999E+00                                 4027200200750 
 0.1178E+02 0.4175E+02 5.3999E+00                                 4027200200751 
 0.1180E+02 0.3339E+02 5.8999E+00                                 4027200200752 
 0.1181E+02 0.3072E+02 6.1999E+00                                 4027200200753 
 0.1183E+02 0.2518E+02 6.7999E+00                                 4027200200754 
 0.1185E+02 0.2202E+02 7.2999E+00                                 4027200200755 
 0.1186E+02 0.1921E+02 7.7999E+00                                 4027200200756 
 0.1188E+02 0.1878E+02 7.8999E+00                                 4027200200757 
 0.1189E+02 0.1822E+02 7.9999E+00                                 4027200200758 
 0.1191E+02 0.1691E+02 8.3999E+00                                 4027200200759 
 0.1192E+02 0.1652E+02 8.4999E+00                                 4027200200760 
 0.1194E+02 0.1612E+02 8.5999E+00                                 4027200200761 
 0.1195E+02 0.1721E+02 8.1999E+00                                 4027200200762 
 0.1197E+02 0.1738E+02 8.1999E+00                                 4027200200763 
 0.1199E+02 0.1744E+02 8.1999E+00                                 4027200200764 
 0.1200E+02 0.1758E+02 8.0999E+00                                 4027200200765 
 0.1202E+02 0.2265E+02 7.1999E+00                                 4027200200766 
 0.1203E+02 0.2240E+02 7.1999E+00                                 4027200200767 
 0.1205E+02 0.2344E+02 6.9999E+00                                 4027200200768 
 0.1207E+02 0.2516E+02 6.7999E+00                                 4027200200769 
 0.1208E+02 0.2669E+02 6.5999E+00                                 4027200200770 
 0.1210E+02 0.2889E+02 6.2999E+00                                 4027200200771 
 0.1211E+02 0.3208E+02 5.9999E+00                                 4027200200772 
 0.1213E+02 0.3533E+02 5.6999E+00                                 4027200200773 
 0.1215E+02 0.3880E+02 5.4999E+00                                 4027200200774 
 0.1216E+02 0.4287E+02 5.1999E+00                                 4027200200775 
 0.1218E+02 0.4938E+02 4.8999E+00                                 4027200200776 
 0.1219E+02 0.5505E+02 4.6999E+00                                 4027200200777 
 0.1221E+02 0.6326E+02 4.4999E+00                                 4027200200778 
 0.1223E+02 0.6963E+02 4.2999E+00                                 4027200200779 
 0.1224E+02 0.8314E+02 3.9999E+00                                 4027200200780 
 0.1226E+02 0.9359E+02 3.7999E+00                                 4027200200781 
 0.1228E+02 0.1116E+03 3.5999E+00                                 4027200200782 
 0.1229E+02 0.1233E+03 3.4999E+00                                 4027200200783 
 0.1231E+02 0.1483E+03 3.2999E+00                                 4027200200784 
 0.1233E+02 0.1723E+03 3.0999E+00                                 4027200200785 
 0.1234E+02 0.2163E+03 2.8999E+00                                 4027200200786 
 0.1236E+02 0.2532E+03 2.7999E+00                                 4027200200787 
 0.1237E+02 0.2925E+03 2.6999E+00                                 4027200200788 
 0.1239E+02 0.2874E+03 2.6999E+00                                 4027200200789 
 0.1241E+02 0.3155E+03 2.6999E+00                                 4027200200790 
 0.1242E+02 0.3232E+03 2.6999E+00                                 4027200200791 
 0.1244E+02 0.3128E+03 2.6999E+00                                 4027200200792 
 0.1246E+02 0.2878E+03 2.7999E+00                                 4027200200793 
 0.1248E+02 0.2657E+03 2.7999E+00                                 4027200200794 
 0.1249E+02 0.2425E+03 2.7999E+00                                 4027200200795 
 0.1251E+02 0.2021E+03 2.9999E+00                                 4027200200796 
 0.1253E+02 0.1692E+03 3.0999E+00                                 4027200200797 
 0.1254E+02 0.1324E+03 3.3999E+00                                 4027200200798 
 0.1256E+02 0.1086E+03 3.5999E+00                                 4027200200799 
 0.1258E+02 0.8296E+02 3.9999E+00                                 4027200200800 
 0.1259E+02 0.6827E+02 4.2999E+00                                 4027200200801 
 0.1261E+02 0.5521E+02 4.6999E+00                                 4027200200802 
 0.1263E+02 0.4314E+02 5.1999E+00                                 4027200200803 
 0.1264E+02 0.3366E+02 5.7999E+00                                 4027200200804 
 0.1266E+02 0.3091E+02 5.9999E+00                                 4027200200805 
 0.1268E+02 0.2938E+02 6.1999E+00                                 4027200200806 
 0.1270E+02 0.3046E+02 6.0999E+00                                 4027200200807 
 0.1271E+02 0.2937E+02 6.1999E+00                                 4027200200808 
 0.1273E+02 0.2671E+02 6.3999E+00                                 4027200200809 
 0.1275E+02 0.3027E+02 6.0999E+00                                 4027200200810 
 0.1277E+02 0.2962E+02 6.0999E+00                                 4027200200811 
 0.1278E+02 0.2952E+02 6.0999E+00                                 4027200200812 
 0.1280E+02 0.2975E+02 6.0999E+00                                 4027200200813 
 0.1282E+02 0.3271E+02 5.8999E+00                                 4027200200814 
 0.1284E+02 0.3181E+02 5.8999E+00                                 4027200200815 
 0.1285E+02 0.3283E+02 5.8999E+00                                 4027200200816 
 0.1287E+02 0.3306E+02 5.7999E+00                                 4027200200817 
 0.1289E+02 0.3252E+02 5.8999E+00                                 4027200200818 
 0.1291E+02 0.3224E+02 5.8999E+00                                 4027200200819 
 0.1292E+02 0.3156E+02 5.8999E+00                                 4027200200820 
 0.1294E+02 0.3407E+02 5.6999E+00                                 4027200200821 
 0.1296E+02 0.3472E+02 5.6999E+00                                 4027200200822 
 0.1298E+02 0.3057E+02 5.9999E+00                                 4027200200823 
 0.1299E+02 0.2650E+02 6.3999E+00                                 4027200200824 
 0.1301E+02 0.2315E+02 6.8999E+00                                 4027200200825 
 0.1303E+02 0.2407E+02 6.7999E+00                                 4027200200826 
 0.1305E+02 0.2286E+02 6.8999E+00                                 4027200200827 
 0.1307E+02 0.2122E+02 7.1999E+00                                 4027200200828 
 0.1308E+02 0.2177E+02 7.0999E+00                                 4027200200829 
 0.1310E+02 0.2013E+02 7.3999E+00                                 4027200200830 
 0.1312E+02 0.2066E+02 7.2999E+00                                 4027200200831 
 0.1314E+02 0.2268E+02 6.9999E+00                                 4027200200832 
 0.1316E+02 0.2202E+02 7.0999E+00                                 4027200200833 
 0.1317E+02 0.1827E+02 7.7999E+00                                 4027200200834 
 0.1319E+02 0.2487E+02 6.6999E+00                                 4027200200835 
 0.1321E+02 0.2689E+02 6.3999E+00                                 4027200200836 
 0.1323E+02 0.2797E+02 6.2999E+00                                 4027200200837 
 0.1325E+02 0.2802E+02 6.2999E+00                                 4027200200838 
 0.1327E+02 0.2764E+02 6.2999E+00                                 4027200200839 
 0.1328E+02 0.2972E+02 5.9999E+00                                 4027200200840 
 0.1330E+02 0.2944E+02 6.1999E+00                                 4027200200841 
 0.1332E+02 0.3055E+02 6.0999E+00                                 4027200200842 
 0.1334E+02 0.3067E+02 5.9999E+00                                 4027200200843 
 0.1336E+02 0.2972E+02 6.0999E+00                                 4027200200844 
 0.1338E+02 0.2902E+02 4.8999E+00                                 4027200200845 
 0.1340E+02 0.2679E+02 6.3999E+00                                 4027200200846 
 0.1341E+02 0.3031E+02 5.9999E+00                                 4027200200847 
 0.1343E+02 0.2911E+02 6.0999E+00                                 4027200200848 
 0.1345E+02 0.2725E+02 6.2999E+00                                 4027200200849 
 0.1347E+02 0.2991E+02 5.9999E+00                                 4027200200850 
 0.1349E+02 0.2918E+02 6.0999E+00                                 4027200200851 
 0.1351E+02 0.3017E+02 5.9999E+00                                 4027200200852 
 0.1353E+02 0.3110E+02 5.8999E+00                                 4027200200853 
 0.1355E+02 0.3103E+02 5.8999E+00                                 4027200200854 
 0.1357E+02 0.3716E+02 5.4999E+00                                 4027200200855 
 0.1358E+02 0.3688E+02 5.1999E+00                                 4027200200856 
 0.1360E+02 0.4054E+02 5.1999E+00                                 4027200200857 
 0.1362E+02 0.4106E+02 4.9999E+00                                 4027200200858 
 0.1364E+02 0.4537E+02 4.7999E+00                                 4027200200859 
 0.1366E+02 0.4950E+02 4.6999E+00                                 4027200200860 
 0.1368E+02 0.5134E+02 4.5999E+00                                 4027200200861 
 0.1370E+02 0.5490E+02 4.5999E+00                                 4027200200862 
 0.1372E+02 0.5489E+02 4.5999E+00                                 4027200200863 
 0.1374E+02 0.5979E+02 4.4999E+00                                 4027200200864 
 0.1376E+02 0.6277E+02 4.3999E+00                                 4027200200865 
 0.1378E+02 0.6561E+02 4.2999E+00                                 4027200200866 
 0.1380E+02 0.7130E+02 4.1999E+00                                 4027200200867 
 0.1382E+02 0.7047E+02 4.1999E+00                                 4027200200868 
 0.1384E+02 0.7416E+02 4.0999E+00                                 4027200200869 
 0.1386E+02 0.7496E+02 4.0999E+00                                 4027200200870 
 0.1388E+02 0.7801E+02 3.9999E+00                                 4027200200871 
 0.1390E+02 0.7791E+02 3.9999E+00                                 4027200200872 
 0.1391E+02 0.8144E+02 3.9999E+00                                 4027200200873 
 0.1393E+02 0.8445E+02 3.8999E+00                                 4027200200874 
 0.1395E+02 0.8410E+02 3.8999E+00                                 4027200200875 
 0.1397E+02 0.8917E+02 3.8999E+00                                 4027200200876 
 0.1399E+02 0.8754E+02 3.8999E+00                                 4027200200877 
 0.1401E+02 0.9059E+02 3.7999E+00                                 4027200200878 
 0.1403E+02 0.8955E+02 3.7999E+00                                 4027200200879 
 0.1405E+02 0.8864E+02 3.8999E+00                                 4027200200880 
 0.1407E+02 0.8454E+02 3.8999E+00                                 4027200200881 
 0.1409E+02 0.8372E+02 3.9999E+00                                 4027200200882 
 0.1411E+02 0.8273E+02 3.9999E+00                                 4027200200883 
 0.1413E+02 0.8195E+02 3.9999E+00                                 4027200200884 
 0.1416E+02 0.7494E+02 4.0999E+00                                 4027200200885 
 0.1418E+02 0.7253E+02 4.1999E+00                                 4027200200886 
 0.1420E+02 0.7010E+02 4.1999E+00                                 4027200200887 
 0.1422E+02 0.6378E+02 4.2999E+00                                 4027200200888 
 0.1424E+02 0.6222E+02 4.3999E+00                                 4027200200889 
 0.1426E+02 0.6026E+02 4.3999E+00                                 4027200200890 
 0.1428E+02 0.5618E+02 4.4999E+00                                 4027200200891 
 0.1430E+02 0.4953E+02 4.7999E+00                                 4027200200892 
 0.1432E+02 0.5029E+02 4.6999E+00                                 4027200200893 
 0.1434E+02 0.4930E+02 4.7999E+00                                 4027200200894 
 0.1436E+02 0.4523E+02 4.9999E+00                                 4027200200895 
 0.1438E+02 0.4465E+02 4.9999E+00                                 4027200200896 
 0.1440E+02 0.4287E+02 5.0999E+00                                 4027200200897 
 0.1442E+02 0.4186E+02 4.9999E+00                                 4027200200898 
 0.1444E+02 0.2174E+02 3.0999E+00                                 4027200200899 
 0.1446E+02 0.2323E+02 2.9999E+00                                 4027200200900 
 0.1449E+02 0.4161E+02 5.0999E+00                                 4027200200901 
 0.1451E+02 0.4430E+02 4.9999E+00                                 4027200200902 
 0.1453E+02 0.4035E+02 5.1999E+00                                 4027200200903 
 0.1455E+02 0.4134E+02 5.0999E+00                                 4027200200904 
 0.1457E+02 0.3755E+02 5.2999E+00                                 4027200200905 
 0.1459E+02 0.3747E+02 5.3999E+00                                 4027200200906 
 0.1461E+02 0.3364E+02 5.5999E+00                                 4027200200907 
 0.1463E+02 0.3105E+02 5.7999E+00                                 4027200200908 
 0.1466E+02 0.2692E+02 6.1999E+00                                 4027200200909 
 0.1468E+02 0.2113E+02 6.9999E+00                                 4027200200910 
 0.1470E+02 0.1811E+02 7.5999E+00                                 4027200200911 
 0.1472E+02 0.1666E+02 7.8999E+00                                 4027200200912 
 0.1474E+02 0.1472E+02 8.4999E+00                                 4027200200913 
 0.1476E+02 0.1378E+02 8.7999E+00                                 4027200200914 
 0.1478E+02 0.1337E+02 8.9999E+00                                 4027200200915 
 0.1481E+02 0.1180E+02 9.6999E+00                                 4027200200916 
 0.1483E+02 0.1312E+02 9.0999E+00                                 4027200200917 
 0.1485E+02 0.1271E+02 9.2999E+00                                 4027200200918 
 0.1487E+02 0.1458E+02 8.5999E+00                                 4027200200919 
 0.1489E+02 0.1283E+02 9.1999E+00                                 4027200200920 
 0.1491E+02 0.1252E+02 9.3999E+00                                 4027200200921 
 0.1494E+02 0.1150E+02 9.8999E+00                                 4027200200922 
 0.1496E+02 0.1365E+02 8.9999E+00                                 4027200200923 
 0.1498E+02 0.1192E+02 9.6999E+00                                 4027200200924 
 0.1500E+02 0.1199E+02 9.5999E+00                                 4027200200925 
 0.1503E+02 0.1460E+02 8.5999E+00                                 4027200200926 
 0.1505E+02 0.1251E+02 9.3999E+00                                 4027200200927 
 0.1507E+02 0.1335E+02 9.0999E+00                                 4027200200928 
 0.1509E+02 0.1510E+02 8.3999E+00                                 4027200200929 
 0.1511E+02 0.1563E+02 8.2999E+00                                 4027200200930 
 0.1514E+02 0.1752E+02 7.7999E+00                                 4027200200931 
 0.1516E+02 0.1858E+02 7.4999E+00                                 4027200200932 
 0.1518E+02 0.2052E+02 7.0999E+00                                 4027200200933 
 0.1520E+02 0.2163E+02 6.8999E+00                                 4027200200934 
 0.1523E+02 0.2184E+02 6.8999E+00                                 4027200200935 
 0.1525E+02 0.2636E+02 6.1999E+00                                 4027200200936 
 0.1527E+02 0.3123E+02 5.7999E+00                                 4027200200937 
 0.1530E+02 0.3613E+02 5.3999E+00                                 4027200200938 
 0.1532E+02 0.3849E+02 5.1999E+00                                 4027200200939 
 0.1534E+02 0.4443E+02 4.8999E+00                                 4027200200940 
 0.1536E+02 0.4727E+02 5.6999E+00                                 4027200200941 
 0.1539E+02 0.5255E+02 4.5999E+00                                 4027200200942 
 0.1541E+02 0.5448E+02 4.4999E+00                                 4027200200943 
 0.1543E+02 0.5828E+02 4.3999E+00                                 4027200200944 
 0.1546E+02 0.5857E+02 4.3999E+00                                 4027200200945 
 0.1548E+02 0.5506E+02 4.4999E+00                                 4027200200946 
 0.1550E+02 0.4905E+02 4.6999E+00                                 4027200200947 
 0.1553E+02 0.4253E+02 4.9999E+00                                 4027200200948 
 0.1555E+02 0.3478E+02 5.4999E+00                                 4027200200949 
 0.1557E+02 0.2855E+02 5.9999E+00                                 4027200200950 
 0.1560E+02 0.2221E+02 6.7999E+00                                 4027200200951 
 0.1562E+02 0.1721E+02 7.7999E+00                                 4027200200952 
 0.1564E+02 0.1436E+02 8.5999E+00                                 4027200200953 
 0.1567E+02 0.1248E+02 9.2999E+00                                 4027200200954 
 0.1569E+02 0.1004E+02 1.0599E+01                                 4027200200955 
 0.1571E+02 0.1039E+02 1.0399E+01                                 4027200200956 
 0.1574E+02 0.9253E+01 1.1199E+01                                 4027200200957 
 0.1576E+02 0.9240E+01 1.1199E+01                                 4027200200958 
 0.1579E+02 0.1111E+02 9.3999E+00                                 4027200200959 
 0.1581E+02 0.1223E+02 9.3999E+00                                 4027200200960 
 0.1583E+02 0.1244E+02 9.2999E+00                                 4027200200961 
 0.1586E+02 0.1481E+02 8.4999E+00                                 4027200200962 
 0.1588E+02 0.1545E+02 8.1999E+00                                 4027200200963 
 0.1591E+02 0.1856E+02 7.4999E+00                                 4027200200964 
 0.1593E+02 0.2273E+02 6.7999E+00                                 4027200200965 
 0.1595E+02 0.2622E+02 6.2999E+00                                 4027200200966 
 0.1598E+02 0.3132E+02 5.7999E+00                                 4027200200967 
 0.1600E+02 0.3601E+02 5.4999E+00                                 4027200200968 
 0.1603E+02 0.4320E+02 4.9999E+00                                 4027200200969 
 0.1605E+02 0.4962E+02 4.7999E+00                                 4027200200970 
 0.1608E+02 0.5569E+02 4.4999E+00                                 4027200200971 
 0.1610E+02 0.6145E+02 4.3999E+00                                 4027200200972 
 0.1613E+02 0.5982E+02 4.3999E+00                                 4027200200973 
 0.1615E+02 0.5819E+02 4.4999E+00                                 4027200200974 
 0.1617E+02 0.5665E+02 4.5999E+00                                 4027200200975 
 0.1620E+02 0.4774E+02 4.8999E+00                                 4027200200976 
 0.1622E+02 0.3663E+02 5.4999E+00                                 4027200200977 
 0.1625E+02 0.3220E+02 5.7999E+00                                 4027200200978 
 0.1627E+02 0.2405E+02 6.6999E+00                                 4027200200979 
 0.1630E+02 0.1808E+02 7.6999E+00                                 4027200200980 
 0.1632E+02 0.1535E+02 8.3999E+00                                 4027200200981 
 0.1635E+02 0.1097E+02 1.0199E+01                                 4027200200982 
 0.1637E+02 0.1150E+02 9.8999E+00                                 4027200200983 
 0.1640E+02 0.1347E+02 8.8999E+00                                 4027200200984 
 0.1643E+02 0.1471E+02 8.4999E+00                                 4027200200985 
 0.1645E+02 0.1736E+02 7.7999E+00                                 4027200200986 
 0.1648E+02 0.2191E+02 6.7999E+00                                 4027200200987 
 0.1650E+02 0.2540E+02 6.2999E+00                                 4027200200988 
 0.1653E+02 0.3026E+02 5.7999E+00                                 4027200200989 
 0.1655E+02 0.3521E+02 5.4999E+00                                 4027200200990 
 0.1658E+02 0.4272E+02 4.9999E+00                                 4027200200991 
 0.1660E+02 0.5066E+02 4.6999E+00                                 4027200200992 
 0.1663E+02 0.5526E+02 4.4999E+00                                 4027200200993 
 0.1666E+02 0.6481E+02 4.1999E+00                                 4027200200994 
 0.1668E+02 0.6435E+02 4.1999E+00                                 4027200200995 
 0.1671E+02 0.6796E+02 4.1999E+00                                 4027200200996 
 0.1673E+02 0.6459E+02 4.1999E+00                                 4027200200997 
 0.1676E+02 0.6175E+02 4.2999E+00                                 4027200200998 
 0.1679E+02 0.5780E+02 4.3999E+00                                 4027200200999 
 0.1681E+02 0.5294E+02 4.5999E+00                                 4027200201000 
 0.1684E+02 0.4181E+02 5.0999E+00                                 4027200201001 
 0.1686E+02 0.3599E+02 5.3999E+00                                 4027200201002 
 0.1689E+02 0.3209E+02 5.6999E+00                                 4027200201003 
 0.1692E+02 0.2695E+02 6.0999E+00                                 4027200201004 
 0.1694E+02 0.2163E+02 6.8999E+00                                 4027200201005 
 0.1697E+02 0.1836E+02 7.4999E+00                                 4027200201006 
 0.1700E+02 0.1640E+02 7.8999E+00                                 4027200201007 
 0.1702E+02 0.1622E+02 7.9999E+00                                 4027200201008 
 0.1705E+02 0.1541E+02 8.1999E+00                                 4027200201009 
 0.1708E+02 0.1507E+02 8.0999E+00                                 4027200201010 
 0.1710E+02 0.1228E+02 9.2999E+00                                 4027200201011 
 0.1713E+02 0.1236E+02 9.1999E+00                                 4027200201012 
 0.1716E+02 0.1119E+02 9.7999E+00                                 4027200201013 
 0.1719E+02 0.1095E+02 9.8999E+00                                 4027200201014 
 0.1721E+02 0.9477E+01 1.0799E+01                                 4027200201015 
 0.1724E+02 0.9644E+01 1.0599E+01                                 4027200201016 
 0.1727E+02 0.9059E+01 1.1099E+01                                 4027200201017 
 0.1730E+02 0.8851E+01 1.1199E+01                                 4027200201018 
 0.1732E+02 0.8270E+01 1.1699E+01                                 4027200201019 
 0.1735E+02 0.8875E+01 1.1099E+01                                 4027200201020 
 0.1738E+02 0.8044E+01 1.1899E+01                                 4027200201021 
 0.1741E+02 0.7651E+01 1.2199E+01                                 4027200201022 
 0.1743E+02 0.8373E+01 1.1499E+01                                 4027200201023 
 0.1746E+02 0.9153E+01 1.0899E+01                                 4027200201024 
 0.1749E+02 0.8637E+01 1.1299E+01                                 4027200201025 
 0.1752E+02 0.8768E+01 1.1099E+01                                 4027200201026 
 0.1754E+02 0.8653E+01 1.1199E+01                                 4027200201027 
 0.1757E+02 0.9577E+01 1.0499E+01                                 4027200201028 
 0.1760E+02 0.9621E+01 1.0499E+01                                 4027200201029 
 0.1763E+02 0.9635E+01 1.0499E+01                                 4027200201030 
 0.1766E+02 0.1060E+02 9.9999E+00                                 4027200201031 
 0.1769E+02 0.1243E+02 8.9999E+00                                 4027200201032 
 0.1771E+02 0.1478E+02 8.1999E+00                                 4027200201033 
 0.1774E+02 0.1552E+02 7.9999E+00                                 4027200201034 
 0.1777E+02 0.1693E+02 7.6999E+00                                 4027200201035 
 0.1780E+02 0.2103E+02 6.8999E+00                                 4027200201036 
 0.1783E+02 0.2377E+02 6.4999E+00                                 4027200201037 
 0.1786E+02 0.2984E+02 5.7999E+00                                 4027200201038 
 0.1789E+02 0.3602E+02 5.3999E+00                                 4027200201039 
 0.1791E+02 0.4359E+02 4.9999E+00                                 4027200201040 
 0.1794E+02 0.4916E+02 4.6999E+00                                 4027200201041 
 0.1797E+02 0.6069E+02 4.2999E+00                                 4027200201042 
 0.1800E+02 0.6301E+02 4.2999E+00                                 4027200201043 
 0.1803E+02 0.7527E+02 3.9999E+00                                 4027200201044 
 0.1806E+02 0.7756E+02 3.9999E+00                                 4027200201045 
 0.1809E+02 0.8078E+02 3.8999E+00                                 4027200201046 
 0.1812E+02 0.7819E+02 3.9999E+00                                 4027200201047 
 0.1815E+02 0.7446E+02 3.9999E+00                                 4027200201048 
 0.1818E+02 0.6933E+02 4.1999E+00                                 4027200201049 
 0.1821E+02 0.6025E+02 4.3999E+00                                 4027200201050 
 0.1824E+02 0.5334E+02 4.5999E+00                                 4027200201051 
 0.1827E+02 0.4354E+02 4.9999E+00                                 4027200201052 
 0.1830E+02 0.3766E+02 5.2999E+00                                 4027200201053 
 0.1833E+02 0.3120E+02 5.7999E+00                                 4027200201054 
 0.1836E+02 0.2852E+02 5.9999E+00                                 4027200201055 
 0.1839E+02 0.2762E+02 6.0999E+00                                 4027200201056 
 0.1842E+02 0.2467E+02 6.3999E+00                                 4027200201057 
 0.1845E+02 0.2158E+02 6.8999E+00                                 4027200201058 
 0.1848E+02 0.2210E+02 6.7999E+00                                 4027200201059 
 0.1851E+02 0.2198E+02 6.8999E+00                                 4027200201060 
 0.1854E+02 0.2225E+02 6.7999E+00                                 4027200201061 
 0.1857E+02 0.2191E+02 6.8999E+00                                 4027200201062 
 0.1860E+02 0.2117E+02 6.9999E+00                                 4027200201063 
 0.1863E+02 0.2140E+02 6.8999E+00                                 4027200201064 
 0.1866E+02 0.2325E+02 6.5999E+00                                 4027200201065 
 0.1869E+02 0.2428E+02 6.3999E+00                                 4027200201066 
 0.1872E+02 0.2562E+02 6.2999E+00                                 4027200201067 
 0.1875E+02 0.2891E+02 5.9999E+00                                 4027200201068 
 0.1878E+02 0.3085E+02 5.7999E+00                                 4027200201069 
 0.1881E+02 0.3388E+02 5.4999E+00                                 4027200201070 
 0.1884E+02 0.3627E+02 5.2999E+00                                 4027200201071 
 0.1888E+02 0.4240E+02 4.8999E+00                                 4027200201072 
 0.1891E+02 0.5031E+02 4.5999E+00                                 4027200201073 
 0.1894E+02 0.5311E+02 4.5999E+00                                 4027200201074 
 0.1897E+02 0.6811E+02 4.0999E+00                                 4027200201075 
 0.1900E+02 0.8344E+02 3.7999E+00                                 4027200201076 
 0.1903E+02 0.9688E+02 3.6999E+00                                 4027200201077 
 0.1906E+02 0.1250E+03 3.3999E+00                                 4027200201078 
 0.1910E+02 0.1485E+03 3.1999E+00                                 4027200201079 
 0.1913E+02 0.1870E+03 2.9999E+00                                 4027200201080 
 0.1916E+02 0.2261E+03 2.8999E+00                                 4027200201081 
 0.1919E+02 0.2813E+03 2.7999E+00                                 4027200201082 
 0.1922E+02 0.3149E+03 2.4999E+00                                 4027200201083 
 0.1926E+02 0.4063E+03 2.5999E+00                                 4027200201084 
 0.1929E+02 0.4568E+03 2.4999E+00                                 4027200201085 
 0.1932E+02 0.4974E+03 2.4999E+00                                 4027200201086 
 0.1935E+02 0.5071E+03 2.4999E+00                                 4027200201087 
 0.1939E+02 0.4818E+03 2.4999E+00                                 4027200201088 
 0.1942E+02 0.4220E+03 2.5999E+00                                 4027200201089 
 0.1945E+02 0.3535E+03 2.6999E+00                                 4027200201090 
 0.1948E+02 0.2767E+03 2.7999E+00                                 4027200201091 
 0.1952E+02 0.2027E+03 2.9999E+00                                 4027200201092 
 0.1955E+02 0.1521E+03 3.2999E+00                                 4027200201093 
 0.1958E+02 0.1107E+03 3.5999E+00                                 4027200201094 
 0.1962E+02 0.8545E+02 3.8999E+00                                 4027200201095 
 0.1965E+02 0.6725E+02 4.1999E+00                                 4027200201096 
 0.1968E+02 0.5356E+02 4.5999E+00                                 4027200201097 
 0.1971E+02 0.4735E+02 4.7999E+00                                 4027200201098 
 0.1975E+02 0.4135E+02 4.9999E+00                                 4027200201099 
 0.1978E+02 0.3814E+02 5.1999E+00                                 4027200201100 
 0.1982E+02 0.3352E+02 7.3999E+00                                 4027200201101 
 0.1985E+02 0.3166E+02 5.5999E+00                                 4027200201102 
 0.1988E+02 0.3019E+02 5.7999E+00                                 4027200201103 
 0.1992E+02 0.2914E+02 5.7999E+00                                 4027200201104 
 0.1995E+02 0.2979E+02 5.7999E+00                                 4027200201105 
 0.1998E+02 0.3060E+02 5.6999E+00                                 4027200201106 
 0.2002E+02 0.3386E+02 5.4999E+00                                 4027200201107 
 0.2005E+02 0.3301E+02 5.4999E+00                                 4027200201108 
 0.2009E+02 0.2781E+02 5.9999E+00                                 4027200201109 
 0.2012E+02 0.3010E+02 5.7999E+00                                 4027200201110 
 0.2016E+02 0.2923E+02 5.8999E+00                                 4027200201111 
 0.2019E+02 0.3045E+02 5.7999E+00                                 4027200201112 
 0.2022E+02 0.2848E+02 6.2999E+00                                 4027200201113 
 0.2026E+02 0.2769E+02 6.0999E+00                                 4027200201114 
 0.2029E+02 0.2531E+02 6.3999E+00                                 4027200201115 
 0.2033E+02 0.2641E+02 6.2999E+00                                 4027200201116 
 0.2036E+02 0.2582E+02 6.2999E+00                                 4027200201117 
 0.2040E+02 0.2438E+02 6.4999E+00                                 4027200201118 
 0.2043E+02 0.2526E+02 6.3999E+00                                 4027200201119 
 0.2047E+02 0.2575E+02 6.2999E+00                                 4027200201120 
 0.2050E+02 0.2660E+02 6.0999E+00                                 4027200201121 
 0.2054E+02 0.3101E+02 5.7999E+00                                 4027200201122 
 0.2058E+02 0.3589E+02 5.7999E+00                                 4027200201123 
 0.2061E+02 0.3798E+02 5.2999E+00                                 4027200201124 
 0.2065E+02 0.4136E+02 5.0999E+00                                 4027200201125 
 0.2068E+02 0.4190E+02 4.9999E+00                                 4027200201126 
 0.2072E+02 0.4379E+02 4.8999E+00                                 4027200201127 
 0.2075E+02 0.4513E+02 4.8999E+00                                 4027200201128 
 0.2079E+02 0.4462E+02 4.8999E+00                                 4027200201129 
 0.2083E+02 0.4578E+02 4.7999E+00                                 4027200201130 
 0.2086E+02 0.5308E+02 4.5999E+00                                 4027200201131 
 0.2090E+02 0.6462E+02 4.1999E+00                                 4027200201132 
 0.2094E+02 0.8006E+02 3.8999E+00                                 4027200201133 
 0.2097E+02 0.9718E+02 3.6999E+00                                 4027200201134 
 0.2101E+02 0.1166E+03 3.4999E+00                                 4027200201135 
 0.2105E+02 0.1429E+03 3.2999E+00                                 4027200201136 
 0.2108E+02 0.1602E+03 3.1999E+00                                 4027200201137 
 0.2112E+02 0.1659E+03 3.0999E+00                                 4027200201138 
 0.2116E+02 0.1553E+03 3.1999E+00                                 4027200201139 
 0.2119E+02 0.1314E+03 3.2999E+00                                 4027200201140 
 0.2123E+02 0.1035E+03 3.5999E+00                                 4027200201141 
 0.2127E+02 0.7920E+02 3.8999E+00                                 4027200201142 
 0.2131E+02 0.5507E+02 4.3999E+00                                 4027200201143 
 0.2134E+02 0.3499E+02 5.2999E+00                                 4027200201144 
 0.2138E+02 0.2803E+02 5.7999E+00                                 4027200201145 
 0.2142E+02 0.2084E+02 6.6999E+00                                 4027200201146 
 0.2146E+02 0.1652E+02 7.4999E+00                                 4027200201147 
 0.2149E+02 0.1609E+02 7.4999E+00                                 4027200201148 
 0.2153E+02 0.1404E+02 8.1999E+00                                 4027200201149 
 0.2157E+02 0.1253E+02 8.6999E+00                                 4027200201150 
 0.2161E+02 0.1126E+02 9.1999E+00                                 4027200201151 
 0.2165E+02 0.1073E+02 9.3999E+00                                 4027200201152 
 0.2169E+02 0.1119E+02 9.1999E+00                                 4027200201153 
 0.2172E+02 0.1024E+02 9.6999E+00                                 4027200201154 
 0.2176E+02 0.1040E+02 9.4999E+00                                 4027200201155 
 0.2180E+02 0.9731E+01 9.8999E+00                                 4027200201156 
 0.2184E+02 0.1059E+02 9.3999E+00                                 4027200201157 
 0.2188E+02 0.8085E+01 1.0999E+01                                 4027200201158 
 0.2192E+02 0.9028E+01 1.0299E+01                                 4027200201159 
 0.2196E+02 0.9041E+01 1.0299E+01                                 4027200201160 
 0.2200E+02 0.8918E+01 1.0399E+01                                 4027200201161 
 0.2204E+02 0.9447E+01 9.9999E+00                                 4027200201162 
 0.2208E+02 0.9324E+01 1.0099E+01                                 4027200201163 
 0.2211E+02 0.8495E+01 1.0699E+01                                 4027200201164 
 0.2215E+02 0.7904E+01 1.1199E+01                                 4027200201165 
 0.2219E+02 0.7829E+01 1.1199E+01                                 4027200201166 
 0.2223E+02 0.7808E+01 1.1199E+01                                 4027200201167 
 0.2227E+02 0.8726E+01 1.0399E+01                                 4027200201168 
 0.2231E+02 0.8890E+01 1.0299E+01                                 4027200201169 
 0.2235E+02 0.8867E+01 9.9999E+00                                 4027200201170 
 0.2239E+02 0.9642E+01 9.7999E+00                                 4027200201171 
 0.2244E+02 0.9510E+01 9.8999E+00                                 4027200201172 
 0.2248E+02 0.1041E+02 9.2999E+00                                 4027200201173 
 0.2252E+02 0.1176E+02 8.6999E+00                                 4027200201174 
 0.2256E+02 0.1328E+02 8.1999E+00                                 4027200201175 
 0.2260E+02 0.1380E+02 7.9999E+00                                 4027200201176 
 0.2264E+02 0.1709E+02 7.0999E+00                                 4027200201177 
 0.2268E+02 0.2147E+02 6.3999E+00                                 4027200201178 
 0.2272E+02 0.2495E+02 5.8999E+00                                 4027200201179 
 0.2276E+02 0.3160E+02 5.2999E+00                                 4027200201180 
 0.2280E+02 0.3749E+02 4.9999E+00                                 4027200201181 
 0.2285E+02 0.4512E+02 4.5999E+00                                 4027200201182 
 0.2289E+02 0.5048E+02 4.3999E+00                                 4027200201183 
 0.2293E+02 0.6080E+02 4.0999E+00                                 4027200201184 
 0.2297E+02 0.6800E+02 3.8999E+00                                 4027200201185 
 0.2301E+02 0.6306E+02 3.9999E+00                                 4027200201186 
 0.2306E+02 0.5939E+02 4.0999E+00                                 4027200201187 
 0.2310E+02 0.5374E+02 4.1999E+00                                 4027200201188 
 0.2314E+02 0.4675E+02 4.4999E+00                                 4027200201189 
 0.2318E+02 0.4262E+02 4.5999E+00                                 4027200201190 
 0.2322E+02 0.4346E+02 4.5999E+00                                 4027200201191 
 0.2327E+02 0.4592E+02 4.4999E+00                                 4027200201192 
 0.2331E+02 0.5342E+02 4.1999E+00                                 4027200201193 
 0.2335E+02 0.6309E+02 3.8999E+00                                 4027200201194 
 0.2340E+02 0.7219E+02 3.7999E+00                                 4027200201195 
 0.2344E+02 0.8398E+02 3.4999E+00                                 4027200201196 
 0.2348E+02 0.9360E+02 3.3999E+00                                 4027200201197 
 0.2353E+02 0.1016E+03 3.2999E+00                                 4027200201198 
 0.2357E+02 0.1033E+03 3.2999E+00                                 4027200201199 
 0.2361E+02 0.1059E+03 3.2999E+00                                 4027200201200 
 0.2366E+02 0.1053E+03 3.2999E+00                                 4027200201201 
 0.2370E+02 0.1038E+03 3.2999E+00                                 4027200201202 
 0.2374E+02 0.9476E+02 3.4999E+00                                 4027200201203 
 0.2379E+02 0.8699E+02 3.5999E+00                                 4027200201204 
 0.2383E+02 0.7098E+02 3.7999E+00                                 4027200201205 
 0.2388E+02 0.6117E+02 3.9999E+00                                 4027200201206 
 0.2392E+02 0.5075E+02 4.2999E+00                                 4027200201207 
 0.2397E+02 0.4180E+02 4.5999E+00                                 4027200201208 
 0.2401E+02 0.3945E+02 4.6999E+00                                 4027200201209 
 0.2406E+02 0.3784E+02 4.7999E+00                                 4027200201210 
 0.2410E+02 0.3655E+02 4.8999E+00                                 4027200201211 
 0.2415E+02 0.3891E+02 4.7999E+00                                 4027200201212 
 0.2419E+02 0.4369E+02 4.4999E+00                                 4027200201213 
 0.2424E+02 0.5043E+02 4.2999E+00                                 4027200201214 
 0.2428E+02 0.5513E+02 4.1999E+00                                 4027200201215 
 0.2433E+02 0.5950E+02 3.9999E+00                                 4027200201216 
 0.2437E+02 0.5749E+02 4.0999E+00                                 4027200201217 
 0.2442E+02 0.5563E+02 4.0999E+00                                 4027200201218 
 0.2447E+02 0.5109E+02 4.2999E+00                                 4027200201219 
 0.2451E+02 0.4735E+02 4.3999E+00                                 4027200201220 
 0.2456E+02 0.4327E+02 4.5999E+00                                 4027200201221 
 0.2461E+02 0.4153E+02 4.5999E+00                                 4027200201222 
 0.2465E+02 0.3903E+02 4.6999E+00                                 4027200201223 
 0.2470E+02 0.3824E+02 4.7999E+00                                 4027200201224 
 0.2475E+02 0.3862E+02 4.7999E+00                                 4027200201225 
 0.2479E+02 0.3937E+02 4.6999E+00                                 4027200201226 
 0.2484E+02 0.3947E+02 4.6999E+00                                 4027200201227 
 0.2489E+02 0.4147E+02 4.5999E+00                                 4027200201228 
 0.2493E+02 0.4412E+02 4.4999E+00                                 4027200201229 
 0.2498E+02 0.4492E+02 4.4999E+00                                 4027200201230 
 0.2503E+02 0.4952E+02 4.2999E+00                                 4027200201231 
 0.2508E+02 0.5128E+02 4.1999E+00                                 4027200201232 
 0.2512E+02 0.5268E+02 4.1999E+00                                 4027200201233 
 0.2517E+02 0.5597E+02 4.0999E+00                                 4027200201234 
 0.2522E+02 0.5838E+02 4.0999E+00                                 4027200201235 
 0.2527E+02 0.6578E+02 3.8999E+00                                 4027200201236 
 0.2532E+02 0.6815E+02 3.7999E+00                                 4027200201237 
 0.2537E+02 0.6935E+02 3.7999E+00                                 4027200201238 
 0.2542E+02 0.7476E+02 3.6999E+00                                 4027200201239 
 0.2546E+02 0.7476E+02 3.6999E+00                                 4027200201240 
 0.2551E+02 0.7860E+02 3.6999E+00                                 4027200201241 
 0.2556E+02 0.7623E+02 3.6999E+00                                 4027200201242 
 0.2561E+02 0.7599E+02 3.6999E+00                                 4027200201243 
 0.2566E+02 0.7531E+02 3.6999E+00                                 4027200201244 
 0.2571E+02 0.6918E+02 3.7999E+00                                 4027200201245 
 0.2576E+02 0.6151E+02 3.9999E+00                                 4027200201246 
 0.2581E+02 0.5554E+02 4.0999E+00                                 4027200201247 
 0.2586E+02 0.4916E+02 4.2999E+00                                 4027200201248 
 0.2591E+02 0.4062E+02 4.6999E+00                                 4027200201249 
 0.2596E+02 0.3529E+02 4.9999E+00                                 4027200201250 
 0.2601E+02 0.2949E+02 5.3999E+00                                 4027200201251 
 0.2606E+02 0.2531E+02 5.6999E+00                                 4027200201252 
 0.2611E+02 0.2668E+02 5.5999E+00                                 4027200201253 
 0.2616E+02 0.2651E+02 5.5999E+00                                 4027200201254 
 0.2621E+02 0.2920E+02 5.3999E+00                                 4027200201255 
 0.2627E+02 0.3362E+02 4.9999E+00                                 4027200201256 
 0.2632E+02 0.4072E+02 4.6999E+00                                 4027200201257 
 0.2637E+02 0.4666E+02 4.3999E+00                                 4027200201258 
 0.2642E+02 0.5485E+02 4.1999E+00                                 4027200201259 
 0.2647E+02 0.6207E+02 3.9999E+00                                 4027200201260 
 0.2652E+02 0.6564E+02 3.8999E+00                                 4027200201261 
 0.2658E+02 0.6132E+02 3.9999E+00                                 4027200201262 
 0.2663E+02 0.5931E+02 3.9999E+00                                 4027200201263 
 0.2668E+02 0.5282E+02 4.1999E+00                                 4027200201264 
 0.2673E+02 0.4543E+02 4.3999E+00                                 4027200201265 
 0.2679E+02 0.3934E+02 4.6999E+00                                 4027200201266 
 0.2684E+02 0.3207E+02 5.0999E+00                                 4027200201267 
 0.2689E+02 0.2825E+02 5.2999E+00                                 4027200201268 
 0.2695E+02 0.2555E+02 5.6999E+00                                 4027200201269 
 0.2700E+02 0.2363E+02 5.8999E+00                                 4027200201270 
 0.2705E+02 0.1970E+02 6.4999E+00                                 4027200201271 
 0.2711E+02 0.2143E+02 6.2999E+00                                 4027200201272 
 0.2716E+02 0.2133E+02 6.2999E+00                                 4027200201273 
 0.2721E+02 0.2239E+02 6.1999E+00                                 4027200201274 
 0.2727E+02 0.2084E+02 6.4999E+00                                 4027200201275 
 0.2732E+02 0.2182E+02 6.3999E+00                                 4027200201276 
 0.2738E+02 0.2106E+02 6.4999E+00                                 4027200201277 
 0.2743E+02 0.2255E+02 6.2999E+00                                 4027200201278 
 0.2749E+02 0.2457E+02 6.0999E+00                                 4027200201279 
 0.2754E+02 0.3055E+02 5.4999E+00                                 4027200201280 
 0.2760E+02 0.3642E+02 5.1999E+00                                 4027200201281 
 0.2765E+02 0.4702E+02 4.7999E+00                                 4027200201282 
 0.2771E+02 0.5638E+02 4.4999E+00                                 4027200201283 
 0.2776E+02 0.6667E+02 4.1999E+00                                 4027200201284 
 0.2782E+02 0.7445E+02 3.9999E+00                                 4027200201285 
 0.2787E+02 0.7432E+02 3.9999E+00                                 4027200201286 
 0.2793E+02 0.6660E+02 4.0999E+00                                 4027200201287 
 0.2799E+02 0.5872E+02 4.1999E+00                                 4027200201288 
 0.2804E+02 0.4617E+02 4.4999E+00                                 4027200201289 
 0.2810E+02 0.3582E+02 4.9999E+00                                 4027200201290 
 0.2816E+02 0.3120E+02 5.1999E+00                                 4027200201291 
 0.2821E+02 0.2802E+02 5.3999E+00                                 4027200201292 
 0.2827E+02 0.2764E+02 5.3999E+00                                 4027200201293 
 0.2833E+02 0.2857E+02 5.2999E+00                                 4027200201294 
 0.2839E+02 0.2742E+02 5.3999E+00                                 4027200201295 
 0.2844E+02 0.2473E+02 5.6999E+00                                 4027200201296 
 0.2850E+02 0.2502E+02 5.5999E+00                                 4027200201297 
 0.2856E+02 0.2142E+02 5.9999E+00                                 4027200201298 
 0.2862E+02 0.1834E+02 6.3999E+00                                 4027200201299 
 0.2868E+02 0.1629E+02 6.7999E+00                                 4027200201300 
 0.2873E+02 0.1496E+02 7.0999E+00                                 4027200201301 
 0.2879E+02 0.1326E+02 7.4999E+00                                 4027200201302 
 0.2885E+02 0.1170E+02 8.0999E+00                                 4027200201303 
 0.2891E+02 0.1051E+02 8.5999E+00                                 4027200201304 
 0.2897E+02 0.9361E+01 9.1999E+00                                 4027200201305 
 0.2903E+02 0.8855E+01 9.4999E+00                                 4027200201306 
 0.2909E+02 0.8144E+01 9.9999E+00                                 4027200201307 
 0.2915E+02 0.9077E+01 9.2999E+00                                 4027200201308 
 0.2921E+02 0.8830E+01 9.4999E+00                                 4027200201309 
 0.2927E+02 0.8630E+01 9.5999E+00                                 4027200201310 
 0.2933E+02 0.9315E+01 9.1999E+00                                 4027200201311 
 0.2939E+02 0.9409E+01 9.0999E+00                                 4027200201312 
 0.2945E+02 0.1097E+02 8.2999E+00                                 4027200201313 
 0.2951E+02 0.1269E+02 7.6999E+00                                 4027200201314 
 0.2957E+02 0.1437E+02 7.1999E+00                                 4027200201315 
 0.2964E+02 0.1893E+02 6.2999E+00                                 4027200201316 
 0.2970E+02 0.1561E+02 6.8999E+00                                 4027200201317 
 0.2976E+02 0.1413E+02 7.1999E+00                                 4027200201318 
 0.2982E+02 0.1130E+02 8.0999E+00                                 4027200201319 
 0.2988E+02 0.8982E+01 9.1999E+00                                 4027200201320 
 0.2995E+02 0.6874E+01 1.0799E+01                                 4027200201321 
 0.3001E+02 0.6784E+01 1.0799E+01                                 4027200201322 
 0.3007E+02 0.6695E+01 1.0899E+01                                 4027200201323 
 0.3013E+02 0.6781E+01 1.0799E+01                                 4027200201324 
 0.3020E+02 0.9254E+01 8.9999E+00                                 4027200201325 
 0.3026E+02 0.1061E+02 8.3999E+00                                 4027200201326 
 0.3032E+02 0.1488E+02 6.9999E+00                                 4027200201327 
 0.3039E+02 0.1565E+02 6.4999E+00                                 4027200201328 
 0.3045E+02 0.1972E+02 6.0999E+00                                 4027200201329 
 0.3052E+02 0.2404E+02 5.5999E+00                                 4027200201330 
 0.3058E+02 0.2857E+02 5.0999E+00                                 4027200201331 
 0.3064E+02 0.3477E+02 4.6999E+00                                 4027200201332 
 0.3071E+02 0.3497E+02 4.6999E+00                                 4027200201333 
 0.3077E+02 0.3419E+02 4.7999E+00                                 4027200201334 
 0.3084E+02 0.3578E+02 4.6999E+00                                 4027200201335 
 0.3090E+02 0.3531E+02 4.6999E+00                                 4027200201336 
 0.3097E+02 0.2939E+02 5.0999E+00                                 4027200201337 
 0.3104E+02 0.2224E+02 5.7999E+00                                 4027200201338 
 0.3110E+02 0.1550E+02 6.8999E+00                                 4027200201339 
 0.3117E+02 0.1071E+02 8.4999E+00                                 4027200201340 
 0.3123E+02 0.8106E+01 9.8999E+00                                 4027200201341 
 0.3130E+02 0.8094E+01 9.7999E+00                                 4027200201342 
 0.3137E+02 0.9175E+01 9.0999E+00                                 4027200201343 
 0.3143E+02 0.1070E+02 8.2999E+00                                 4027200201344 
 0.3150E+02 0.1330E+02 7.2999E+00                                 4027200201345 
 0.3157E+02 0.1855E+02 6.1999E+00                                 4027200201346 
 0.3164E+02 0.2760E+02 5.0999E+00                                 4027200201347 
 0.3170E+02 0.3753E+02 4.4999E+00                                 4027200201348 
 0.3177E+02 0.4974E+02 3.9999E+00                                 4027200201349 
 0.3184E+02 0.6442E+02 3.6999E+00                                 4027200201350 
 0.3191E+02 0.8334E+02 3.3999E+00                                 4027200201351 
 0.3198E+02 0.1028E+03 3.1999E+00                                 4027200201352 
 0.3205E+02 0.1218E+03 2.9999E+00                                 4027200201353 
 0.3212E+02 0.1270E+03 2.9999E+00                                 4027200201354 
 0.3219E+02 0.1137E+03 3.0999E+00                                 4027200201355 
 0.3226E+02 0.8599E+02 3.2999E+00                                 4027200201356 
 0.3233E+02 0.5777E+02 3.7999E+00                                 4027200201357 
 0.3240E+02 0.3357E+02 4.5999E+00                                 4027200201358 
 0.3247E+02 0.2013E+02 5.7999E+00                                 4027200201359 
 0.3254E+02 0.1255E+02 7.2999E+00                                 4027200201360 
 0.3261E+02 0.9344E+01 8.6999E+00                                 4027200201361 
 0.3268E+02 0.8818E+01 8.9999E+00                                 4027200201362 
 0.3275E+02 0.9371E+01 8.1999E+00                                 4027200201363 
 0.3282E+02 0.7554E+01 9.8999E+00                                 4027200201364 
 0.3289E+02 0.9904E+01 8.3999E+00                                 4027200201365 
 0.3297E+02 0.1128E+02 7.7999E+00                                 4027200201366 
 0.3304E+02 0.1503E+02 6.7999E+00                                 4027200201367 
 0.3311E+02 0.2194E+02 5.5999E+00                                 4027200201368 
 0.3318E+02 0.2937E+02 4.9999E+00                                 4027200201369 
 0.3326E+02 0.3715E+02 4.4999E+00                                 4027200201370 
 0.3333E+02 0.5205E+02 3.9999E+00                                 4027200201371 
 0.3340E+02 0.6814E+02 3.5999E+00                                 4027200201372 
 0.3348E+02 0.8642E+02 3.3999E+00                                 4027200201373 
 0.3355E+02 0.9519E+02 3.2999E+00                                 4027200201374 
 0.3362E+02 0.9044E+02 3.3999E+00                                 4027200201375 
 0.3370E+02 0.7425E+02 3.5999E+00                                 4027200201376 
 0.3377E+02 0.5731E+02 3.7999E+00                                 4027200201377 
 0.3385E+02 0.4220E+02 4.3999E+00                                 4027200201378 
 0.3392E+02 0.4085E+02 4.3999E+00                                 4027200201379 
 0.3400E+02 0.4450E+02 4.2999E+00                                 4027200201380 
 0.3407E+02 0.5935E+02 3.7999E+00                                 4027200201381 
 0.3415E+02 0.7500E+02 3.5999E+00                                 4027200201382 
 0.3423E+02 0.1011E+03 3.2999E+00                                 4027200201383 
 0.3430E+02 0.1261E+03 3.0999E+00                                 4027200201384 
 0.3438E+02 0.1488E+03 2.9999E+00                                 4027200201385 
 0.3446E+02 0.1594E+03 2.8999E+00                                 4027200201386 
 0.3453E+02 0.1592E+03 2.8999E+00                                 4027200201387 
 0.3461E+02 0.1561E+03 2.5999E+00                                 4027200201388 
 0.3469E+02 0.1602E+03 2.8999E+00                                 4027200201389 
 0.3477E+02 0.1720E+03 2.7999E+00                                 4027200201390 
 0.3484E+02 0.2004E+03 2.7999E+00                                 4027200201391 
 0.3492E+02 0.2220E+03 2.6999E+00                                 4027200201392 
 0.3500E+02 0.2571E+03 2.5999E+00                                 4027200201393 
 0.3508E+02 0.2855E+03 2.4999E+00                                 4027200201394 
 0.3516E+02 0.3051E+03 2.4999E+00                                 4027200201395 
 0.3524E+02 0.3008E+03 2.4999E+00                                 4027200201396 
 0.3532E+02 0.2694E+03 2.5999E+00                                 4027200201397 
 0.3540E+02 0.2131E+03 2.6999E+00                                 4027200201398 
 0.3548E+02 0.1576E+03 2.8999E+00                                 4027200201399 
 0.3556E+02 0.1076E+03 3.1999E+00                                 4027200201400 
 0.3564E+02 0.7722E+02 3.4999E+00                                 4027200201401 
 0.3572E+02 0.5918E+02 3.7999E+00                                 4027200201402 
 0.3580E+02 0.4721E+02 4.0999E+00                                 4027200201403 
 0.3589E+02 0.4020E+02 4.3999E+00                                 4027200201404 
 0.3597E+02 0.3558E+02 4.6999E+00                                 4027200201405 
 0.3605E+02 0.3050E+02 4.9999E+00                                 4027200201406 
 0.3613E+02 0.2827E+02 5.0999E+00                                 4027200201407 
 0.3622E+02 0.2659E+02 5.1999E+00                                 4027200201408 
 0.3630E+02 0.2351E+02 5.4999E+00                                 4027200201409 
 0.3638E+02 0.2279E+02 5.5999E+00                                 4027200201410 
 0.3647E+02 0.2142E+02 5.7999E+00                                 4027200201411 
 0.3655E+02 0.2050E+02 5.8999E+00                                 4027200201412 
 0.3663E+02 0.1866E+02 6.1999E+00                                 4027200201413 
 0.3672E+02 0.1772E+02 6.2999E+00                                 4027200201414 
 0.3680E+02 0.1755E+02 6.2999E+00                                 4027200201415 
 0.3689E+02 0.1664E+02 6.2999E+00                                 4027200201416 
 0.3698E+02 0.1668E+02 6.3999E+00                                 4027200201417 
 0.3706E+02 0.1612E+02 6.4999E+00                                 4027200201418 
 0.3715E+02 0.1471E+02 6.7999E+00                                 4027200201419 
 0.3723E+02 0.1585E+02 6.4999E+00                                 4027200201420 
 0.3732E+02 0.1534E+02 6.5999E+00                                 4027200201421 
 0.3741E+02 0.1690E+02 6.2999E+00                                 4027200201422 
 0.3749E+02 0.1677E+02 6.2999E+00                                 4027200201423 
 0.3758E+02 0.1729E+02 6.1999E+00                                 4027200201424 
 0.3767E+02 0.1748E+02 6.0999E+00                                 4027200201425 
 0.3776E+02 0.2005E+02 5.7999E+00                                 4027200201426 
 0.3785E+02 0.2257E+02 5.3999E+00                                 4027200201427 
 0.3794E+02 0.2367E+02 5.2999E+00                                 4027200201428 
 0.3802E+02 0.2442E+02 5.1999E+00                                 4027200201429 
 0.3811E+02 0.2570E+02 5.0999E+00                                 4027200201430 
 0.3820E+02 0.2941E+02 4.7999E+00                                 4027200201431 
 0.3829E+02 0.2979E+02 4.7999E+00                                 4027200201432 
 0.3838E+02 0.2924E+02 4.8999E+00                                 4027200201433 
 0.3848E+02 0.2661E+02 5.0999E+00                                 4027200201434 
 0.3857E+02 0.2526E+02 5.1999E+00                                 4027200201435 
 0.3866E+02 0.2441E+02 5.2999E+00                                 4027200201436 
 0.3875E+02 0.2637E+02 5.0999E+00                                 4027200201437 
 0.3884E+02 0.2929E+02 4.8999E+00                                 4027200201438 
 0.3893E+02 0.3697E+02 4.4999E+00                                 4027200201439 
 0.3903E+02 0.5395E+02 3.8999E+00                                 4027200201440 
 0.3912E+02 0.7197E+02 3.5999E+00                                 4027200201441 
 0.3921E+02 0.9894E+02 3.2999E+00                                 4027200201442 
 0.3931E+02 0.1226E+03 3.0999E+00                                 4027200201443 
 0.3940E+02 0.1443E+03 2.9999E+00                                 4027200201444 
 0.3950E+02 0.1410E+03 2.9999E+00                                 4027200201445 
 0.3959E+02 0.1126E+03 3.0999E+00                                 4027200201446 
 0.3969E+02 0.7639E+02 3.4999E+00                                 4027200201447 
 0.3978E+02 0.5179E+02 3.9999E+00                                 4027200201448 
 0.3988E+02 0.3950E+02 4.2999E+00                                 4027200201449 
 0.3997E+02 0.3294E+02 4.5999E+00                                 4027200201450 
 0.4007E+02 0.2946E+02 4.5999E+00                                 4027200201451 
 0.4017E+02 0.2550E+02 4.9999E+00                                 4027200201452 
 0.4026E+02 0.2560E+02 4.9999E+00                                 4027200201453 
 0.4036E+02 0.2732E+02 4.8999E+00                                 4027200201454 
 0.4046E+02 0.2990E+02 4.6999E+00                                 4027200201455 
 0.4056E+02 0.3305E+02 4.4999E+00                                 4027200201456 
 0.4066E+02 0.3263E+02 4.4999E+00                                 4027200201457 
 0.4075E+02 0.3351E+02 4.4999E+00                                 4027200201458 
 0.4085E+02 0.3116E+02 4.5999E+00                                 4027200201459 
 0.4095E+02 0.3169E+02 4.5999E+00                                 4027200201460 
 0.4105E+02 0.3323E+02 4.4999E+00                                 4027200201461 
 0.4115E+02 0.3713E+02 4.2999E+00                                 4027200201462 
 0.4125E+02 0.4109E+02 4.0999E+00                                 4027200201463 
 0.4136E+02 0.4307E+02 3.9999E+00                                 4027200201464 
 0.4146E+02 0.4694E+02 3.8999E+00                                 4027200201465 
 0.4156E+02 0.5099E+02 3.7999E+00                                 4027200201466 
 0.4166E+02 0.5295E+02 3.6999E+00                                 4027200201467 
 0.4176E+02 0.5222E+02 3.6999E+00                                 4027200201468 
 0.4187E+02 0.5338E+02 3.6999E+00                                 4027200201469 
 0.4197E+02 0.5085E+02 3.7999E+00                                 4027200201470 
 0.4207E+02 0.4554E+02 3.8999E+00                                 4027200201471 
 0.4218E+02 0.4033E+02 4.0999E+00                                 4027200201472 
 0.4228E+02 0.3496E+02 4.2999E+00                                 4027200201473 
 0.4239E+02 0.3009E+02 4.5999E+00                                 4027200201474 
 0.4249E+02 0.2445E+02 4.9999E+00                                 4027200201475 
 0.4260E+02 0.2185E+02 5.1999E+00                                 4027200201476 
 0.4270E+02 0.1935E+02 5.5999E+00                                 4027200201477 
 0.4281E+02 0.1858E+02 5.5999E+00                                 4027200201478 
 0.4292E+02 0.1870E+02 5.5999E+00                                 4027200201479 
 0.4303E+02 0.1956E+02 5.4999E+00                                 4027200201480 
 0.4313E+02 0.2212E+02 5.1999E+00                                 4027200201481 
 0.4324E+02 0.2533E+02 4.8999E+00                                 4027200201482 
 0.4335E+02 0.3220E+02 4.1999E+00                                 4027200201483 
 0.4346E+02 0.3563E+02 4.2999E+00                                 4027200201484 
 0.4357E+02 0.3469E+02 4.2999E+00                                 4027200201485 
 0.4368E+02 0.3538E+02 4.2999E+00                                 4027200201486 
 0.4379E+02 0.3676E+02 4.1999E+00                                 4027200201487 
 0.4390E+02 0.3812E+02 4.0999E+00                                 4027200201488 
 0.4401E+02 0.4386E+02 3.8999E+00                                 4027200201489 
 0.4412E+02 0.4418E+02 3.8999E+00                                 4027200201490 
 0.4423E+02 0.4574E+02 3.8999E+00                                 4027200201491 
 0.4435E+02 0.4851E+02 3.7999E+00                                 4027200201492 
 0.4446E+02 0.5444E+02 3.6999E+00                                 4027200201493 
 0.4457E+02 0.5969E+02 3.5999E+00                                 4027200201494 
 0.4468E+02 0.6147E+02 3.5999E+00                                 4027200201495 
 0.4480E+02 0.5572E+02 3.6999E+00                                 4027200201496 
 0.4491E+02 0.4910E+02 3.7999E+00                                 4027200201497 
 0.4503E+02 0.4088E+02 4.0999E+00                                 4027200201498 
 0.4514E+02 0.3333E+02 4.3999E+00                                 4027200201499 
 0.4526E+02 0.2755E+02 4.7999E+00                                 4027200201500 
 0.4538E+02 0.2282E+02 5.1999E+00                                 4027200201501 
 0.4549E+02 0.1923E+02 5.5999E+00                                 4027200201502 
 0.4561E+02 0.1805E+02 5.6999E+00                                 4027200201503 
 0.4573E+02 0.1817E+02 5.6999E+00                                 4027200201504 
 0.4584E+02 0.1688E+02 5.7999E+00                                 4027200201505 
 0.4596E+02 0.1694E+02 5.7999E+00                                 4027200201506 
 0.4608E+02 0.1565E+02 5.9999E+00                                 4027200201507 
 0.4620E+02 0.1705E+02 5.6999E+00                                 4027200201508 
 0.4632E+02 0.2121E+02 5.1999E+00                                 4027200201509 
 0.4644E+02 0.2827E+02 4.5999E+00                                 4027200201510 
 0.4656E+02 0.3852E+02 4.0999E+00                                 4027200201511 
 0.4668E+02 0.5073E+02 3.6999E+00                                 4027200201512 
 0.4681E+02 0.6019E+02 3.4999E+00                                 4027200201513 
 0.4693E+02 0.6340E+02 3.4999E+00                                 4027200201514 
 0.4705E+02 0.5906E+02 3.4999E+00                                 4027200201515 
 0.4717E+02 0.4791E+02 3.7999E+00                                 4027200201516 
 0.4730E+02 0.3275E+02 4.2999E+00                                 4027200201517 
 0.4742E+02 0.2738E+02 4.6999E+00                                 4027200201518 
 0.4755E+02 0.2697E+02 4.6999E+00                                 4027200201519 
 0.4767E+02 0.3203E+02 4.3999E+00                                 4027200201520 
 0.4780E+02 0.4158E+02 3.9999E+00                                 4027200201521 
 0.4792E+02 0.5118E+02 3.6999E+00                                 4027200201522 
 0.4805E+02 0.5962E+02 3.5999E+00                                 4027200201523 
 0.4818E+02 0.6080E+02 3.4999E+00                                 4027200201524 
 0.4830E+02 0.6018E+02 3.4999E+00                                 4027200201525 
 0.4843E+02 0.5361E+02 3.6999E+00                                 4027200201526 
 0.4856E+02 0.4902E+02 3.7999E+00                                 4027200201527 
 0.4869E+02 0.4531E+02 3.8999E+00                                 4027200201528 
 0.4882E+02 0.4520E+02 3.8999E+00                                 4027200201529 
 0.4895E+02 0.3977E+02 3.9999E+00                                 4027200201530 
 0.4908E+02 0.3649E+02 4.1999E+00                                 4027200201531 
 0.4921E+02 0.3073E+02 4.4999E+00                                 4027200201532 
 0.4934E+02 0.3011E+02 4.4999E+00                                 4027200201533 
 0.4948E+02 0.2832E+02 4.4999E+00                                 4027200201534 
 0.4961E+02 0.2737E+02 4.5999E+00                                 4027200201535 
 0.4974E+02 0.2460E+02 4.7999E+00                                 4027200201536 
 0.4988E+02 0.2615E+02 4.6999E+00                                 4027200201537 
 0.5001E+02 0.3295E+02 4.1999E+00                                 4027200201538 
 0.5015E+02 0.4123E+02 3.4999E+00                                 4027200201539 
 0.5028E+02 0.5172E+02 3.5999E+00                                 4027200201540 
 0.5042E+02 0.6080E+02 2.8999E+00                                 4027200201541 
 0.5055E+02 0.6893E+02 3.2999E+00                                 4027200201542 
 0.5069E+02 0.7773E+02 3.1999E+00                                 4027200201543 
 0.5083E+02 0.8454E+02 3.0999E+00                                 4027200201544 
 0.5097E+02 0.1005E+03 2.8999E+00                                 4027200201545 
 0.5111E+02 0.1198E+03 2.7999E+00                                 4027200201546 
 0.5125E+02 0.1322E+03 2.6999E+00                                 4027200201547 
 0.5139E+02 0.1284E+03 2.6999E+00                                 4027200201548 
 0.5153E+02 0.1089E+03 2.8999E+00                                 4027200201549 
 0.5167E+02 0.8919E+02 2.9999E+00                                 4027200201550 
 0.5181E+02 0.8036E+02 3.0999E+00                                 4027200201551 
 0.5195E+02 0.8243E+02 3.0999E+00                                 4027200201552 
 0.5210E+02 0.8850E+02 2.9999E+00                                 4027200201553 
 0.5224E+02 0.8315E+02 3.0999E+00                                 4027200201554 
 0.5238E+02 0.7466E+02 3.1999E+00                                 4027200201555 
 0.5253E+02 0.5998E+02 3.3999E+00                                 4027200201556 
 0.5267E+02 0.4297E+02 3.7999E+00                                 4027200201557 
 0.5282E+02 0.3057E+02 4.3999E+00                                 4027200201558 
 0.5297E+02 0.2727E+02 4.4999E+00                                 4027200201559 
 0.5311E+02 0.2657E+02 4.5999E+00                                 4027200201560 
 0.5326E+02 0.2916E+02 4.3999E+00                                 4027200201561 
 0.5341E+02 0.3150E+02 4.2999E+00                                 4027200201562 
 0.5356E+02 0.3179E+02 4.2999E+00                                 4027200201563 
 0.5371E+02 0.2642E+02 4.5999E+00                                 4027200201564 
 0.5386E+02 0.2246E+02 4.8999E+00                                 4027200201565 
 0.5401E+02 0.2262E+02 4.9999E+00                                 4027200201566 
 0.5416E+02 0.2549E+02 4.5999E+00                                 4027200201567 
 0.5431E+02 0.3091E+02 4.0999E+00                                 4027200201568 
 0.5446E+02 0.3911E+02 3.8999E+00                                 4027200201569 
 0.5462E+02 0.5183E+02 3.5999E+00                                 4027200201570 
 0.5477E+02 0.6946E+02 3.1999E+00                                 4027200201571 
 0.5493E+02 0.8749E+02 2.9999E+00                                 4027200201572 
 0.5508E+02 0.9797E+02 2.9999E+00                                 4027200201573 
 0.5524E+02 0.9676E+02 2.9999E+00                                 4027200201574 
 0.5540E+02 0.9170E+02 2.9999E+00                                 4027200201575 
 0.5555E+02 0.1015E+03 2.8999E+00                                 4027200201576 
 0.5571E+02 0.1213E+03 2.7999E+00                                 4027200201577 
 0.5587E+02 0.1398E+03 2.6999E+00                                 4027200201578 
 0.5603E+02 0.1536E+03 2.5999E+00                                 4027200201579 
 0.5619E+02 0.1573E+03 2.5999E+00                                 4027200201580 
 0.5635E+02 0.1596E+03 2.5999E+00                                 4027200201581 
 0.5651E+02 0.1490E+03 2.6999E+00                                 4027200201582 
 0.5667E+02 0.1152E+03 2.8999E+00                                 4027200201583 
 0.5684E+02 0.7461E+02 3.1999E+00                                 4027200201584 
 0.5700E+02 0.4518E+02 3.6999E+00                                 4027200201585 
 0.5716E+02 0.3702E+02 3.9999E+00                                 4027200201586 
 0.5733E+02 0.4029E+02 3.7999E+00                                 4027200201587 
 0.5750E+02 0.4992E+02 3.5999E+00                                 4027200201588 
 0.5766E+02 0.6036E+02 3.2999E+00                                 4027200201589 
 0.5783E+02 0.6917E+02 3.1999E+00                                 4027200201590 
 0.5800E+02 0.7025E+02 3.1999E+00                                 4027200201591 
 0.5817E+02 0.6415E+02 3.2999E+00                                 4027200201592 
 0.5833E+02 0.5418E+02 3.4999E+00                                 4027200201593 
 0.5850E+02 0.5039E+02 3.6999E+00                                 4027200201594 
 0.5868E+02 0.4803E+02 3.5999E+00                                 4027200201595 
 0.5885E+02 0.3993E+02 3.7999E+00                                 4027200201596 
 0.5902E+02 0.3110E+02 4.1999E+00                                 4027200201597 
 0.5919E+02 0.2513E+02 4.4999E+00                                 4027200201598 
 0.5937E+02 0.2380E+02 4.5999E+00                                 4027200201599 
 0.5954E+02 0.2727E+02 4.3999E+00                                 4027200201600 
 0.5972E+02 0.3355E+02 3.9999E+00                                 4027200201601 
 0.5989E+02 0.3981E+02 3.7999E+00                                 4027200201602 
 0.6007E+02 0.4538E+02 3.5999E+00                                 4027200201603 
 0.6025E+02 0.4341E+02 3.6999E+00                                 4027200201604 
 0.6043E+02 0.3890E+02 3.7999E+00                                 4027200201605 
 0.6061E+02 0.3508E+02 3.9999E+00                                 4027200201606 
 0.6079E+02 0.3300E+02 4.0999E+00                                 4027200201607 
 0.6097E+02 0.3093E+02 4.1999E+00                                 4027200201608 
 0.6115E+02 0.2719E+02 4.3999E+00                                 4027200201609 
 0.6133E+02 0.2451E+02 4.5999E+00                                 4027200201610 
 0.6151E+02 0.2048E+02 4.9999E+00                                 4027200201611 
 0.6170E+02 0.1915E+02 5.0999E+00                                 4027200201612 
 0.6188E+02 0.1764E+02 5.3999E+00                                 4027200201613 
 0.6207E+02 0.1736E+02 5.3999E+00                                 4027200201614 
 0.6226E+02 0.1694E+02 5.4999E+00                                 4027200201615 
 0.6244E+02 0.1692E+02 5.4999E+00                                 4027200201616 
 0.6263E+02 0.1764E+02 5.3999E+00                                 4027200201617 
 0.6282E+02 0.1815E+02 5.1999E+00                                 4027200201618 
 0.6301E+02 0.2138E+02 4.8999E+00                                 4027200201619 
 0.6320E+02 0.2332E+02 4.6999E+00                                 4027200201620 
 0.6339E+02 0.2447E+02 3.9999E+00                                 4027200201621 
 0.6359E+02 0.2591E+02 4.4999E+00                                 4027200201622 
 0.6378E+02 0.2572E+02 4.5999E+00                                 4027200201623 
 0.6398E+02 0.2179E+02 4.8999E+00                                 4027200201624 
 0.6417E+02 0.1946E+02 5.0999E+00                                 4027200201625 
 0.6437E+02 0.1512E+02 5.6999E+00                                 4027200201626 
 0.6456E+02 0.1386E+02 5.9999E+00                                 4027200201627 
 0.6476E+02 0.8755E+01 7.4999E+00                                 4027200201628 
 0.6496E+02 0.8081E+01 7.7999E+00                                 4027200201629 
 0.6516E+02 0.7809E+01 7.8999E+00                                 4027200201630 
 0.6536E+02 0.9305E+01 7.2999E+00                                 4027200201631 
 0.6556E+02 0.9544E+01 7.1999E+00                                 4027200201632 
 0.6577E+02 0.1209E+02 6.3999E+00                                 4027200201633 
 0.6597E+02 0.1292E+02 6.0999E+00                                 4027200201634 
 0.6617E+02 0.1211E+02 6.3999E+00                                 4027200201635 
 0.6638E+02 0.9600E+01 7.1999E+00                                 4027200201636 
 0.6659E+02 0.8133E+01 7.7999E+00                                 4027200201637 
 0.6679E+02 0.5941E+01 9.3999E+00                                 4027200201638 
 0.6700E+02 0.5115E+01 1.0199E+01                                 4027200201639 
 0.6721E+02 0.4958E+01 1.0299E+01                                 4027200201640 
 0.6742E+02 0.5573E+01 9.5999E+00                                 4027200201641 
 0.6763E+02 0.5046E+01 1.0199E+01                                 4027200201642 
 0.6785E+02 0.6177E+01 8.8999E+00                                 4027200201643 
 0.6806E+02 0.7422E+01 7.9999E+00                                 4027200201644 
 0.6827E+02 0.9200E+01 7.0999E+00                                 4027200201645 
 0.6849E+02 0.1137E+02 6.1999E+00                                 4027200201646 
 0.6871E+02 0.1604E+02 5.3999E+00                                 4027200201647 
 0.6892E+02 0.2014E+02 4.7999E+00                                 4027200201648 
 0.6914E+02 0.2813E+02 4.1999E+00                                 4027200201649 
 0.6936E+02 0.3347E+02 3.9999E+00                                 4027200201650 
 0.6958E+02 0.4137E+02 3.5999E+00                                 4027200201651 
 0.6980E+02 0.5499E+02 3.2999E+00                                 4027200201652 
 0.7003E+02 0.6799E+02 2.7999E+00                                 4027200201653 
 0.7025E+02 0.8199E+02 2.9999E+00                                 4027200201654 
 0.7048E+02 0.8559E+02 2.8999E+00                                 4027200201655 
 0.7070E+02 0.7758E+02 3.1999E+00                                 4027200201656 
 0.7093E+02 0.5486E+02 3.2999E+00                                 4027200201657 
 0.7116E+02 0.3696E+02 3.6999E+00                                 4027200201658 
 0.7139E+02 0.3058E+02 3.9999E+00                                 4027200201659 
 0.7162E+02 0.3036E+02 3.9999E+00                                 4027200201660 
 0.7185E+02 0.3903E+02 3.6999E+00                                 4027200201661 
 0.7208E+02 0.5045E+02 3.3999E+00                                 4027200201662 
 0.7231E+02 0.5696E+02 3.1999E+00                                 4027200201663 
 0.7255E+02 0.4809E+02 3.4999E+00                                 4027200201664 
 0.7278E+02 0.3242E+02 4.5999E+00                                 4027200201665 
 0.7302E+02 0.1967E+02 4.7999E+00                                 4027200201666 
 0.7326E+02 0.1543E+02 5.2999E+00                                 4027200201667 
 0.7350E+02 0.1869E+02 4.8999E+00                                 4027200201668 
 0.7374E+02 0.2402E+02 3.3999E+00                                 4027200201669 
 0.7398E+02 0.3556E+02 3.7999E+00                                 4027200201670 
 0.7423E+02 0.4853E+02 3.3999E+00                                 4027200201671 
 0.7447E+02 0.5867E+02 3.1999E+00                                 4027200201672 
 0.7471E+02 0.5922E+02 3.1999E+00                                 4027200201673 
 0.7496E+02 0.5057E+02 3.2999E+00                                 4027200201674 
 0.7521E+02 0.4397E+02 3.4999E+00                                 4027200201675 
 0.7546E+02 0.3663E+02 3.6999E+00                                 4027200201676 
 0.7571E+02 0.2749E+02 4.9999E+00                                 4027200201677 
 0.7596E+02 0.1689E+02 4.9999E+00                                 4027200201678 
 0.7621E+02 0.1177E+02 5.8999E+00                                 4027200201679 
 0.7647E+02 0.1195E+02 5.8999E+00                                 4027200201680 
 0.7672E+02 0.1487E+02 4.6999E+00                                 4027200201681 
 0.7698E+02 0.1947E+02 4.7999E+00                                 4027200201682 
 0.7724E+02 0.2493E+02 4.2999E+00                                 4027200201683 
 0.7750E+02 0.2857E+02 4.0999E+00                                 4027200201684 
 0.7776E+02 0.2848E+02 4.0999E+00                                 4027200201685 
 0.7802E+02 0.2757E+02 4.1999E+00                                 4027200201686 
 0.7828E+02 0.2270E+02 4.4999E+00                                 4027200201687 
 0.7855E+02 0.1764E+02 4.8999E+00                                 4027200201688 
 0.7881E+02 0.1488E+02 5.2999E+00                                 4027200201689 
 0.7908E+02 0.1572E+02 5.1999E+00                                 4027200201690 
 0.7935E+02 0.1902E+02 4.7999E+00                                 4027200201691 
 0.7962E+02 0.2067E+02 4.3999E+00                                 4027200201692 
 0.7989E+02 0.2192E+02 4.3999E+00                                 4027200201693 
 0.8016E+02 0.2245E+02 4.4999E+00                                 4027200201694 
 0.8044E+02 0.2033E+02 4.5999E+00                                 4027200201695 
 0.8071E+02 0.1905E+02 4.6999E+00                                 4027200201696 
 0.8099E+02 0.1924E+02 4.6999E+00                                 4027200201697 
 0.8127E+02 0.2054E+02 4.4999E+00                                 4027200201698 
 0.8155E+02 0.2004E+02 4.5999E+00                                 4027200201699 
 0.8183E+02 0.1764E+02 4.0999E+00                                 4027200201700 
 0.8211E+02 0.2059E+02 4.4999E+00                                 4027200201701 
 0.8240E+02 0.2404E+02 4.2999E+00                                 4027200201702 
 0.8268E+02 0.3223E+02 3.8999E+00                                 4027200201703 
 0.8297E+02 0.3891E+02 3.5999E+00                                 4027200201704 
 0.8326E+02 0.4822E+02 5.1999E+00                                 4027200201705 
 0.8355E+02 0.6010E+02 3.1999E+00                                 4027200201706 
 0.8384E+02 0.6896E+02 3.0999E+00                                 4027200201707 
 0.8413E+02 0.6801E+02 3.1999E+00                                 4027200201708 
 0.8443E+02 0.5807E+02 3.2999E+00                                 4027200201709 
 0.8472E+02 0.4014E+02 3.6999E+00                                 4027200201710 
 0.8502E+02 0.3310E+02 3.9999E+00                                 4027200201711 
 0.8532E+02 0.2578E+02 4.2999E+00                                 4027200201712 
 0.8562E+02 0.2057E+02 3.1999E+00                                 4027200201713 
 0.8592E+02 0.1670E+02 5.1999E+00                                 4027200201714 
 0.8623E+02 0.1525E+02 5.3999E+00                                 4027200201715 
 0.8653E+02 0.1661E+02 6.6999E+00                                 4027200201716 
 0.8684E+02 0.1947E+02 4.9999E+00                                 4027200201717 
 0.8715E+02 0.2320E+02 4.5999E+00                                 4027200201718 
 0.8746E+02 0.2642E+02 4.4999E+00                                 4027200201719 
 0.8777E+02 0.2939E+02 4.3999E+00                                 4027200201720 
 0.8809E+02 0.3563E+02 4.0999E+00                                 4027200201721 
 0.8840E+02 0.3881E+02 4.0999E+00                                 4027200201722 
 0.8872E+02 0.3861E+02 4.0999E+00                                 4027200201723 
 0.8904E+02 0.2839E+02 4.6999E+00                                 4027200201724 
 0.8936E+02 0.2235E+02 4.9999E+00                                 4027200201725 
 0.8968E+02 0.2542E+02 4.6999E+00                                 4027200201726 
 0.9001E+02 0.3189E+02 4.2999E+00                                 4027200201727 
 0.9033E+02 0.4160E+02 4.0999E+00                                 4027200201728 
 0.9066E+02 0.4865E+02 3.6999E+00                                 4027200201729 
 0.9099E+02 0.5060E+02 3.5999E+00                                 4027200201730 
 0.9132E+02 0.4947E+02 3.5999E+00                                 4027200201731 
 0.9166E+02 0.4039E+02 3.7999E+00                                 4027200201732 
 0.9199E+02 0.3553E+02 3.6999E+00                                 4027200201733 
 0.9233E+02 0.3127E+02 3.8999E+00                                 4027200201734 
 0.9267E+02 0.2869E+02 3.9999E+00                                 4027200201735 
 0.9301E+02 0.2010E+02 4.5999E+00                                 4027200201736 
 0.9335E+02 0.1652E+02 4.8999E+00                                 4027200201737 
 0.9370E+02 0.1748E+02 4.4999E+00                                 4027200201738 
 0.9404E+02 0.1791E+02 4.5999E+00                                 4027200201739 
 0.9439E+02 0.1933E+02 4.3999E+00                                 4027200201740 
 0.9474E+02 0.2043E+02 4.2999E+00                                 4027200201741 
 0.9509E+02 0.2165E+02 3.7999E+00                                 4027200201742 
 0.9545E+02 0.2151E+02 4.1999E+00                                 4027200201743 
 0.9580E+02 0.2105E+02 4.2999E+00                                 4027200201744 
 0.9616E+02 0.1960E+02 4.4999E+00                                 4027200201745 
 0.9652E+02 0.1834E+02 4.5999E+00                                 4027200201746 
 0.9689E+02 0.1895E+02 4.5999E+00                                 4027200201747 
 0.9725E+02 0.2303E+02 4.1999E+00                                 4027200201748 
 0.9762E+02 0.2840E+02 3.8999E+00                                 4027200201749 
 0.9798E+02 0.3028E+02 3.8999E+00                                 4027200201750 
 0.9836E+02 0.1287E+02 5.3999E+00                                 4027200201751 
 0.9873E+02 0.1493E+02 5.0999E+00                                 4027200201752 
 0.9910E+02 0.1165E+02 5.6999E+00                                 4027200201753 
 0.9948E+02 0.1339E+02 5.3999E+00                                 4027200201754 
 0.9986E+02 0.1345E+02 5.2999E+00                                 4027200201755 
 0.1002E+03 0.1329E+02 5.3999E+00                                 4027200201756 
 0.1006E+03 0.1268E+02 4.9999E+00                                 4027200201757 
 0.1010E+03 0.1282E+02 5.2999E+00                                 4027200201758 
 0.1014E+03 0.1388E+02 5.1999E+00                                 4027200201759 
 0.1018E+03 0.1720E+02 4.6999E+00                                 4027200201760 
 0.1022E+03 0.2525E+02 4.0999E+00                                 4027200201761 
 0.1026E+03 0.3226E+02 3.6999E+00                                 4027200201762 
 0.1030E+03 0.3608E+02 3.5999E+00                                 4027200201763 
 0.1034E+03 0.3105E+02 3.7999E+00                                 4027200201764 
 0.1038E+03 0.2642E+02 3.9999E+00                                 4027200201765 
 0.1042E+03 0.2519E+02 3.9999E+00                                 4027200201766 
 0.1046E+03 0.3035E+02 3.7999E+00                                 4027200201767 
 0.1050E+03 0.3278E+02 3.5999E+00                                 4027200201768 
 0.1054E+03 0.3012E+02 3.6999E+00                                 4027200201769 
 0.1058E+03 0.2376E+02 4.0999E+00                                 4027200201770 
 0.1062E+03 0.2000E+02 4.3999E+00                                 4027200201771 
 0.1066E+03 0.1906E+02 4.3999E+00                                 4027200201772 
 0.1071E+03 0.1891E+02 4.3999E+00                                 4027200201773 
 0.1075E+03 0.2046E+02 4.2999E+00                                 4027200201774 
 0.1079E+03 0.1772E+02 5.0999E+00                                 4027200201775 
 0.1083E+03 0.1456E+02 4.9999E+00                                 4027200201776 
 0.1088E+03 0.1422E+02 4.9999E+00                                 4027200201777 
 0.1092E+03 0.1427E+02 4.9999E+00                                 4027200201778 
 0.1096E+03 0.1418E+02 4.9999E+00                                 4027200201779 
 0.1101E+03 0.1308E+02 5.0999E+00                                 4027200201780 
 0.1105E+03 0.1102E+02 5.5999E+00                                 4027200201781 
 0.1110E+03 0.1035E+02 5.6999E+00                                 4027200201782 
 0.1114E+03 0.1096E+02 5.4999E+00                                 4027200201783 
 0.1119E+03 0.1113E+02 5.4999E+00                                 4027200201784 
 0.1123E+03 0.1154E+02 5.4999E+00                                 4027200201785 
 0.1128E+03 0.1365E+02 4.9999E+00                                 4027200201786 
 0.1132E+03 0.1602E+02 4.6999E+00                                 4027200201787 
 0.1137E+03 0.1479E+02 4.9999E+00                                 4027200201788 
 0.1142E+03 0.1542E+02 5.0999E+00                                 4027200201789 
 0.1146E+03 0.1862E+02 3.9999E+00                                 4027200201790 
 0.1151E+03 0.2495E+02 3.9999E+00                                 4027200201791 
 0.1156E+03 0.3120E+02 3.6999E+00                                 4027200201792 
 0.1160E+03 0.2879E+02 3.7999E+00                                 4027200201793 
 0.1165E+03 0.2534E+02 3.9999E+00                                 4027200201794 
 0.1170E+03 0.2693E+02 3.8999E+00                                 4027200201795 
 0.1175E+03 0.3439E+02 3.5999E+00                                 4027200201796 
 0.1180E+03 0.3901E+02 3.4999E+00                                 4027200201797 
 0.1185E+03 0.3491E+02 3.5999E+00                                 4027200201798 
 0.1189E+03 0.2479E+02 3.9999E+00                                 4027200201799 
 0.1194E+03 0.1746E+02 4.8999E+00                                 4027200201800 
 0.1199E+03 0.1999E+02 4.3999E+00                                 4027200201801 
 0.1204E+03 0.2768E+02 3.4999E+00                                 4027200201802 
 0.1210E+03 0.3922E+02 3.4999E+00                                 4027200201803 
 0.1215E+03 0.4645E+02 3.2999E+00                                 4027200201804 
 0.1220E+03 0.3730E+02 3.5999E+00                                 4027200201805 
 0.1225E+03 0.2411E+02 4.1999E+00                                 4027200201806 
 0.1230E+03 0.2000E+02 4.2999E+00                                 4027200201807 
 0.1235E+03 0.2405E+02 3.9999E+00                                 4027200201808 
 0.1241E+03 0.3212E+02 3.4999E+00                                 4027200201809 
 0.1246E+03 0.4209E+02 3.2999E+00                                 4027200201810 
 0.1251E+03 0.4928E+02 2.9999E+00                                 4027200201811 
 0.1256E+03 0.5181E+02 2.9999E+00                                 4027200201812 
 0.1262E+03 0.4444E+02 3.0999E+00                                 4027200201813 
 0.1267E+03 0.3000E+02 3.4999E+00                                 4027200201814 
 0.1273E+03 0.2235E+02 3.8999E+00                                 4027200201815 
 0.1278E+03 0.1941E+02 4.0999E+00                                 4027200201816 
 0.1284E+03 0.1719E+02 4.2999E+00                                 4027200201817 
 0.1289E+03 0.1716E+02 4.2999E+00                                 4027200201818 
 0.1295E+03 0.1942E+02 3.4999E+00                                 4027200201819 
 0.1300E+03 0.2591E+02 3.6999E+00                                 4027200201820 
 0.1306E+03 0.3558E+02 3.2999E+00                                 4027200201821 
 0.1312E+03 0.4024E+02 3.0999E+00                                 4027200201822 
 0.1318E+03 0.4158E+02 3.0999E+00                                 4027200201823 
 0.1323E+03 0.4213E+02 3.0999E+00                                 4027200201824 
 0.1329E+03 0.4205E+02 3.2999E+00                                 4027200201825 
 0.1335E+03 0.4330E+02 3.0999E+00                                 4027200201826 
 0.1341E+03 0.4563E+02 2.9999E+00                                 4027200201827 
 0.1347E+03 0.4865E+02 2.4999E+00                                 4027200201828 
 0.1353E+03 0.4294E+02 3.0999E+00                                 4027200201829 
 0.1359E+03 0.2962E+02 3.4999E+00                                 4027200201830 
 0.1365E+03 0.1957E+02 3.9999E+00                                 4027200201831 
 0.1371E+03 0.1505E+02 4.4999E+00                                 4027200201832 
 0.1377E+03 0.1245E+02 4.8999E+00                                 4027200201833 
 0.1383E+03 0.1071E+02 5.1999E+00                                 4027200201834 
 0.1390E+03 0.1361E+02 4.6999E+00                                 4027200201835 
 0.1396E+03 0.1677E+02 4.0999E+00                                 4027200201836 
 0.1402E+03 0.2048E+02 3.9999E+00                                 4027200201837 
 0.1408E+03 0.2391E+02 3.6999E+00                                 4027200201838 
 0.1415E+03 0.2470E+02 3.6999E+00                                 4027200201839 
 0.1421E+03 0.2081E+02 3.8999E+00                                 4027200201840 
 0.1428E+03 0.1580E+02 5.8999E+00                                 4027200201841 
 0.1434E+03 0.1553E+02 3.7999E+00                                 4027200201842 
 0.1441E+03 0.2227E+02 3.7999E+00                                 4027200201843 
 0.1447E+03 0.2784E+02 3.4999E+00                                 4027200201844 
 0.1454E+03 0.2728E+02 3.4999E+00                                 4027200201845 
 0.1461E+03 0.2368E+02 3.6999E+00                                 4027200201846 
 0.1468E+03 0.2255E+02 3.7999E+00                                 4027200201847 
 0.1474E+03 0.2331E+02 3.6999E+00                                 4027200201848 
 0.1481E+03 0.2576E+02 3.4999E+00                                 4027200201849 
 0.1488E+03 0.2529E+02 3.4999E+00                                 4027200201850 
 0.1495E+03 0.1993E+02 3.8999E+00                                 4027200201851 
 0.1502E+03 0.1354E+02 4.4999E+00                                 4027200201852 
 0.1509E+03 0.1216E+02 4.5999E+00                                 4027200201853 
 0.1516E+03 0.1393E+02 4.3999E+00                                 4027200201854 
 0.1523E+03 0.1987E+02 3.7999E+00                                 4027200201855 
 0.1531E+03 0.2275E+02 3.6999E+00                                 4027200201856 
 0.1538E+03 0.2061E+02 3.7999E+00                                 4027200201857 
 0.1545E+03 0.2147E+02 3.6999E+00                                 4027200201858 
 0.1552E+03 0.2333E+02 3.5999E+00                                 4027200201859 
 0.1560E+03 0.2270E+02 3.6999E+00                                 4027200201860 
 0.1567E+03 0.2114E+02 3.7999E+00                                 4027200201861 
 0.1575E+03 0.2004E+02 3.8999E+00                                 4027200201862 
 0.1582E+03 0.2072E+02 3.7999E+00                                 4027200201863 
 0.1590E+03 0.1973E+02 3.8999E+00                                 4027200201864 
 0.1598E+03 0.1848E+02 3.9999E+00                                 4027200201865 
 0.1605E+03 0.2032E+02 3.7999E+00                                 4027200201866 
 0.1613E+03 0.2136E+02 3.6999E+00                                 4027200201867 
 0.1621E+03 0.2302E+02 3.5999E+00                                 4027200201868 
 0.1629E+03 0.2431E+02 3.5999E+00                                 4027200201869 
 0.1637E+03 0.2204E+02 3.6999E+00                                 4027200201870 
 0.1645E+03 0.2303E+02 3.5999E+00                                 4027200201871 
 0.1653E+03 0.2625E+02 3.4999E+00                                 4027200201872 
 0.1661E+03 0.2784E+02 3.3999E+00                                 4027200201873 
 0.1669E+03 0.2774E+02 3.3999E+00                                 4027200201874 
 0.1677E+03 0.2585E+02 3.4999E+00                                 4027200201875 
 0.1686E+03 0.2069E+02 3.6999E+00                                 4027200201876 
ENDDATA           1862          0                                 4027200201877 
ENDSUBENT         1876          0                                 4027200299999 
ENDENTRY             2          0                                 4027299999999 
