ENTRY            40280   20151215                             417340280  0    1 
SUBENT        40280001   20151215                             417340280  1    1 
BIB                 15         38                                 40280  1    2 
INSTITUTE  (4RUSNIR)                                              40280  1    3 
REFERENCE  (J,SJA,40,368,1976) Eng.transl.of AE,40,298,1976       40280  1    4 
           (J,AE,40,(4),298,1976) Resonance parameters table      40280  1    5 
           is given.                                              40280  1    6 
           (C,75KIEV,3,219,1976)                                  40280  1    7 
           (R,INDC(CCP)-099,219,1976) In Russian. Vol. III.       40280  1    8 
           The same as 75KIEV,3,219,1976 .                        40280  1    9 
           (R,YFI-21,22,1976)                                     40280  1   10 
AUTHOR     (T.S.Belanova,A.G.Kolesov,V.A.Poruchikov,G.A.Timofeev, 40280  1   11 
           S.M.Kalebin,V.S.Artamonov,R.N.Ivanov)                  40280  1   12 
TITLE      Total neutron cross-section and neutron resonance      40280  1   13 
           parameters of Am-243 in the energy range 0.4-35. eV.   40280  1   14 
EXP-YEAR   (1972) Started at 1972 .                               40280  1   15 
FACILITY   (REAC,4RUSNIR)                                         40280  1   16 
INC-SOURCE (REAC) Reactor SM-2.                                   40280  1   17 
SAMPLE     Oxide AmO2 powder of 266 mg weight. Am-243 content     40280  1   18 
           96.6%, Am-241-3.32%, Cm-244-0.08%.                     40280  1   19 
           Sample contained 79.8% americium.                      40280  1   20 
METHOD     (TOF,TRN) Time-of-flight method with best              40280  1   21 
            resolution 70 nsec/m.                                 40280  1   22 
           Transmission was measured for thickness 0.8 mm         40280  1   23 
             ( 0.45E+21 at/cm2) and 14.0 mm ( 0.79E+22 at/cm2) .  40280  1   24 
DETECTOR   (PROPC) Battery of the He proportional counters.       40280  1   25 
            4096 channels analyzer.                               40280  1   26 
PART-DET   (N) Neutrons.                                          40280  1   27 
MONITOR     No Information                                        40280  1   28 
CORRECTION Corrections (about 3%) were introduced on neutron      40280  1   29 
           scattering by oxygen, on contribution of Am-241        40280  1   30 
           to cross-section                                       40280  1   31 
ERR-ANALYS (ERR-S,0.5,1.5) Statistical error is 0.5-1.5%.         40280  1   32 
           (ERR-1,0.7,4.0) Neutron background is 0.7-4.0%.        40280  1   33 
HISTORY    (19760830C) Compiled at the centre                     40280  1   34 
           (20150206A) SD: Updated to new date formats,lower case.40280  1   35 
            Ref. on Engl.transl. of AE added.                     40280  1   36 
           (20151210A) M.M. Article was checked, BIB information  40280  1   37 
           was updated in SAMPLE,METHOD,DETECTOR,STATUS.          40280  1   38 
           REF. INDC(CCP)-099,III,219,1976 was added.             40280  1   39 
           Subents 004 - 005  were added.                         40280  1   40 
ENDBIB              38          0                                 40280  1   41 
NOCOMMON             0          0                                 40280  1   42 
ENDSUBENT           41          0                                 40280  199999 
SUBENT        40280002   20151215                             417340280  2    1 
BIB                  4         17                                 40280  2    2 
REACTION  1(95-AM-243(N,0),,EN)                                   40280  2    3 
            resonance energy                                      40280  2    4 
          2(95-AM-243(N,TOT),,WID)                                40280  2    5 
            total width of resonance                              40280  2    6 
          3(95-AM-243(N,EL),,WID,,2G)                             40280  2    7 
            2*g*neutron-width of resonance                        40280  2    8 
ANALYSIS   (SLA) Below 26 eV - shape method using single-level    40280  2    9 
           Breit-Wigner formula                                   40280  2   10 
           (AREA) Above 26 eV - The area method with radiation    40280  2   11 
           width assumed 30 meV.                                  40280  2   12 
STATUS     (DEP,40280003) Data are obtained by analyzing of data  40280  2   13 
           from Subent 40280003                                   40280  2   14 
           (TABLE) Table 1 of SJA,40,368,1976                     40280  2   15 
ERR-ANALYS (DATA-ERR) Includes stat.error, error associated with  40280  2   16 
           the determination of the shape resolution function,    40280  2   17 
           error due to correction for Am-241 contribution in     40280  2   18 
           transmission.                                          40280  2   19 
ENDBIB              17          0                                 40280  2   20 
NOCOMMON             0          0                                 40280  2   21 
DATA                 6         48                                 40280  2   22 
DATA      1DATA-ERR  1DATA      2DATA-ERR  2DATA      3DATA-ERR  340280  2   23 
EV         EV         MILLI-EV   MILLI-EV   MILLI-EV   MILLI-EV   40280  2   24 
 4.1600E-01 3.0000E-03 3.9000E+01 2.0000E+00 8.4000E-04 5.0000E-0540280  2   25 
 9.7700E-01 4.0000E-03 3.7000E+01 2.0000E+00 1.3400E-02 3.0000E-0440280  2   26 
 1.3550E+00 4.0000E-03 5.6000E+01 1.0000E+00 8.9000E-01 7.0000E-0340280  2   27 
 1.7440E+00 5.0000E-03 3.9000E+01 1.0000E+00 2.0800E-01 2.0000E-0340280  2   28 
 3.1340E+00 9.0000E-03 4.7000E+01 3.0000E+00 1.2000E-02 3.0000E-0340280  2   29 
 3.4240E+00 9.0000E-03 4.5000E+01 2.0000E+00 2.5300E-01 8.0000E-0340280  2   30 
 3.8440E+00 9.0000E-03 2.2000E+01 5.0000E+00 9.0000E-03 1.0000E-0340280  2   31 
 5.1200E+00 1.2000E-02 6.3000E+01 2.0000E+00 2.6000E-01 6.0000E-0340280  2   32 
 6.5510E+00 1.5000E-02 5.0000E+01 3.0000E+00 7.9400E-01 4.4000E-0240280  2   33 
 7.0630E+00 1.7000E-02 4.6000E+01 3.0000E+00 7.2000E-02 1.1000E-0240280  2   34 
 7.8600E+00 2.0000E-02 3.6000E+01 9.0000E+00 1.5800E+00 1.3000E-0140280  2   35 
 8.3900E+00 2.0000E-02 4.0000E+01 2.0000E+00 1.0000E-02 2.0000E-0340280  2   36 
 8.7700E+00 2.0000E-02 4.6000E+01 2.0000E+00 1.1300E-01 2.0000E-0340280  2   37 
 9.3200E+00 2.0000E-02 4.3000E+01 2.0000E+00 1.3300E-01 2.0000E-0340280  2   38 
 1.0310E+01 3.0000E-02 4.7000E+01 2.0000E+00 4.3300E-01 7.0000E-0340280  2   39 
 1.0870E+01 4.0000E-02                       1.3000E-02 2.0000E-0340280  2   40 
 1.1270E+01 4.0000E-02 4.9000E+01 2.0000E+00 2.6700E-01 3.0000E-0340280  2   41 
 1.1680E+01 5.0000E-02 3.5000E+01 4.0000E+00 9.4000E-02 2.0000E-0340280  2   42 
 1.2120E+01 6.0000E-02 4.1000E+01 3.0000E+00 1.5200E-01 3.0000E-0340280  2   43 
 1.2870E+01 6.0000E-02 4.3000E+01 4.0000E+00 2.2000E+00 2.0000E-0140280  2   44 
 1.3150E+01 6.0000E-02 4.5000E+01 5.0000E+00 1.0000E+00 8.0000E-0240280  2   45 
 1.5120E+01 7.0000E-02 3.3000E+01 1.5000E+01 7.0000E-02 7.0000E-0340280  2   46 
 1.5390E+01 7.0000E-02 3.7000E+01 6.0000E+00 3.6000E-01 8.0000E-0240280  2   47 
 1.6200E+01 7.0000E-02 3.9000E+01 3.0000E+00 5.1800E-01 9.0000E-0340280  2   48 
 1.6560E+01 7.0000E-02 2.7000E+01 7.0000E+00 1.7400E-01 5.0000E-0340280  2   49 
 1.7840E+01 7.0000E-02 3.5000E+01 8.0000E+00 2.1000E-01 7.0000E-0340280  2   50 
 1.8140E+01 7.0000E-02 2.7000E+01 1.5000E+01 4.6000E-02 7.0000E-0340280  2   51 
 1.9500E+01 7.0000E-02 2.7000E+01 1.0000E+01 1.9300E-01 7.0000E-0340280  2   52 
 1.9880E+01 7.0000E-02 4.0000E+01 2.0000E+01 8.5000E-02 6.0000E-0340280  2   53 
 2.0940E+01 7.0000E-02 2.9000E+01 1.5000E+01 5.4000E-01 1.8000E-0140280  2   54 
 2.1090E+01 7.0000E-02 1.6000E+01 1.0000E+01 8.6000E-01 2.2000E-0140280  2   55 
 2.1850E+01 8.0000E-02 2.7000E+01            1.4000E-01 2.0000E-0240280  2   56 
 2.2010E+01 8.0000E-02                                            40280  2   57 
 2.2590E+01 9.0000E-02 3.3000E+01            1.0000E+00 6.0000E-0140280  2   58 
 2.2720E+01 9.0000E-02 1.9000E+01            6.5000E-01 5.0000E-0140280  2   59 
 2.4390E+01 9.0000E-02 2.2000E+01            7.3000E-01 2.0000E-0240280  2   60 
 2.5380E+01 1.0000E-01 4.0000E+01            1.4000E-01 2.0000E-0240280  2   61 
 2.6300E+01 1.0000E-01 3.1000E+01            6.0000E-02 1.0000E-0240280  2   62 
 2.6750E+01 1.0000E-01                       1.1600E+00 3.0000E-0240280  2   63 
 2.7340E+01 1.1000E-01                       4.3000E-01 2.0000E-0240280  2   64 
 2.8730E+01 1.2000E-01                       9.7000E-01 1.2000E-0140280  2   65 
 2.9290E+01 1.2000E-01                       6.8000E-01 1.5000E-0140280  2   66 
 3.0120E+01 1.3000E-01                       4.9000E-01 2.0000E-0140280  2   67 
 3.1060E+01 1.3000E-01                       7.0000E-01 1.5000E-0140280  2   68 
 3.1490E+01 1.3000E-01                       1.2000E-01 5.0000E-0240280  2   69 
 3.2430E+01 1.4000E-01                       8.8000E-01 1.5000E-0140280  2   70 
 3.3190E+01 1.4000E-01                       1.9000E+00 2.0000E-0140280  2   71 
 3.3920E+01 1.4000E-01                       8.0000E-01 1.0000E-0140280  2   72 
ENDDATA             50          0                                 40280  2   73 
ENDSUBENT           72          0                                 40280  299999 
SUBENT        40280003   20151215                             417340280  3    1 
BIB                  2          3                                 40280  3    2 
REACTION   (95-AM-243(N,TOT),,SIG)                                40280  3    3 
            total cross-section                                   40280  3    4 
STATUS     (TABLE) Total cr.sect. received from author 19760820   40280  3    5 
ENDBIB               3          0                                 40280  3    6 
NOCOMMON             0          0                                 40280  3    7 
DATA                 2       1972                                 40280  3    8 
EN         DATA                                                   40280  3    9 
EV         B                                                      40280  3   10 
 3.5000E-01 1.3000E+02                                            40280  3   11 
 3.6000E-01 1.2900E+02                                            40280  3   12 
 3.7000E-01 1.2800E+02                                            40280  3   13 
 3.8000E-01 1.3800E+02                                            40280  3   14 
 3.9000E-01 1.3900E+02                                            40280  3   15 
 4.0000E-01 1.4100E+02                                            40280  3   16 
 4.1000E-01 1.4100E+02                                            40280  3   17 
 4.2000E-01 1.4200E+02                                            40280  3   18 
 4.3000E-01 1.4000E+02                                            40280  3   19 
 4.4000E-01 1.3900E+02                                            40280  3   20 
 4.5000E-01 1.3800E+02                                            40280  3   21 
 4.6000E-01 1.3500E+02                                            40280  3   22 
 4.7000E-01 1.3300E+02                                            40280  3   23 
 4.8000E-01 1.3500E+02                                            40280  3   24 
 4.9000E-01 1.3000E+02                                            40280  3   25 
 5.0000E-01 1.3100E+02                                            40280  3   26 
 5.1000E-01 1.2900E+02                                            40280  3   27 
 5.2000E-01 1.2800E+02                                            40280  3   28 
 5.3000E-01 1.2700E+02                                            40280  3   29 
 5.4000E-01 1.1500E+02                                            40280  3   30 
 5.5000E-01 1.2000E+02                                            40280  3   31 
 5.6000E-01 1.1900E+02                                            40280  3   32 
 5.7000E-01 1.2100E+02                                            40280  3   33 
 5.8000E-01 1.1900E+02                                            40280  3   34 
 5.9000E-01 1.1500E+02                                            40280  3   35 
 6.0000E-01 1.0300E+02                                            40280  3   36 
 6.1000E-01 1.1000E+02                                            40280  3   37 
 6.2000E-01 1.1100E+02                                            40280  3   38 
 6.3000E-01 1.0000E+02                                            40280  3   39 
 6.4000E-01 9.5000E+01                                            40280  3   40 
 6.5000E-01 9.6000E+01                                            40280  3   41 
 6.6000E-01 8.9000E+01                                            40280  3   42 
 6.7000E-01 7.9000E+01                                            40280  3   43 
 6.8000E-01 8.5000E+01                                            40280  3   44 
 6.9000E-01 8.6000E+01                                            40280  3   45 
 7.0000E-01 8.0000E+01                                            40280  3   46 
 7.1000E-01 7.9000E+01                                            40280  3   47 
 7.2000E-01 7.8000E+01                                            40280  3   48 
 7.3000E-01 8.0000E+01                                            40280  3   49 
 7.4000E-01 8.1000E+01                                            40280  3   50 
 7.5000E-01 7.5000E+01                                            40280  3   51 
 7.6000E-01 7.9000E+01                                            40280  3   52 
 7.7000E-01 7.6000E+01                                            40280  3   53 
 7.8000E-01 7.8000E+01                                            40280  3   54 
 7.9000E-01 7.6000E+01                                            40280  3   55 
 8.0000E-01 7.8000E+01                                            40280  3   56 
 8.1000E-01 7.9000E+01                                            40280  3   57 
 8.2000E-01 8.3000E+01                                            40280  3   58 
 8.3000E-01 8.5000E+01                                            40280  3   59 
 8.4000E-01 9.6000E+01                                            40280  3   60 
 8.5000E-01 9.8000E+01                                            40280  3   61 
 8.6000E-01 1.0800E+02                                            40280  3   62 
 8.7000E-01 1.1100E+02                                            40280  3   63 
 8.8000E-01 1.2500E+02                                            40280  3   64 
 8.9000E-01 1.4000E+02                                            40280  3   65 
 9.0000E-01 1.7800E+02                                            40280  3   66 
 9.1000E-01 2.0100E+02                                            40280  3   67 
 9.2000E-01 2.0500E+02                                            40280  3   68 
 9.3000E-01 2.4100E+02                                            40280  3   69 
 9.4000E-01 2.9500E+02                                            40280  3   70 
 9.5000E-01 3.0500E+02                                            40280  3   71 
 9.6000E-01 4.4400E+02                                            40280  3   72 
 9.7000E-01 5.3100E+02                                            40280  3   73 
 9.8000E-01 5.6700E+02                                            40280  3   74 
 9.9000E-01 5.3800E+02                                            40280  3   75 
 1.0000E+00 5.0000E+02                                            40280  3   76 
 1.0100E+00 4.9500E+02                                            40280  3   77 
 1.0200E+00 4.0100E+02                                            40280  3   78 
 1.0300E+00 4.0000E+02                                            40280  3   79 
 1.0400E+00 3.6600E+02                                            40280  3   80 
 1.0500E+00 3.5000E+02                                            40280  3   81 
 1.0600E+00 3.1000E+02                                            40280  3   82 
 1.0700E+00 3.0000E+02                                            40280  3   83 
 1.0800E+00 5.9900E+02                                            40280  3   84 
 1.0900E+00 6.1000E+02                                            40280  3   85 
 1.1000E+00 9.0100E+02                                            40280  3   86 
 1.1100E+00 9.5000E+02                                            40280  3   87 
 1.1200E+00 1.0900E+03                                            40280  3   88 
 1.1300E+00 1.3200E+03                                            40280  3   89 
 1.1400E+00 1.6880E+03                                            40280  3   90 
 1.1500E+00 1.9900E+03                                            40280  3   91 
 1.1600E+00 2.7910E+03                                            40280  3   92 
 1.1700E+00 3.1000E+03                                            40280  3   93 
 1.1800E+00 4.0110E+03                                            40280  3   94 
 1.1900E+00 4.5000E+03                                            40280  3   95 
 1.2000E+00 5.1110E+03                                            40280  3   96 
 1.2100E+00 5.6300E+03                                            40280  3   97 
 1.2200E+00 6.1310E+03                                            40280  3   98 
 1.2300E+00 6.9990E+03                                            40280  3   99 
 1.2400E+00 7.0910E+03                                            40280  3  100 
 1.2500E+00 7.8890E+03                                            40280  3  101 
 1.2600E+00 8.1110E+03                                            40280  3  102 
 1.2700E+00 8.3490E+03                                            40280  3  103 
 1.2800E+00 8.9050E+03                                            40280  3  104 
 1.2900E+00 9.0010E+03                                            40280  3  105 
 1.3000E+00 9.2310E+03                                            40280  3  106 
 1.3100E+00 9.4550E+03                                            40280  3  107 
 1.3200E+00 9.7800E+03                                            40280  3  108 
 1.3300E+00 9.9950E+03                                            40280  3  109 
 1.3400E+00 9.9990E+03                                            40280  3  110 
 1.3500E+00 1.0101E+04                                            40280  3  111 
 1.3600E+00 9.9810E+03                                            40280  3  112 
 1.3700E+00 9.9990E+03                                            40280  3  113 
 1.3800E+00 7.3300E+03                                            40280  3  114 
 1.3900E+00 6.2600E+03                                            40280  3  115 
 1.4000E+00 5.0840E+03                                            40280  3  116 
 1.4100E+00 3.8570E+03                                            40280  3  117 
 1.4200E+00 2.8590E+03                                            40280  3  118 
 1.4300E+00 2.5540E+03                                            40280  3  119 
 1.4400E+00 2.3390E+03                                            40280  3  120 
 1.4500E+00 1.4260E+03                                            40280  3  121 
 1.4600E+00 1.0690E+03                                            40280  3  122 
 1.4700E+00 8.8500E+02                                            40280  3  123 
 1.4800E+00 7.0000E+02                                            40280  3  124 
 1.4900E+00 6.6100E+02                                            40280  3  125 
 1.5000E+00 5.3700E+02                                            40280  3  126 
 1.5100E+00 5.5300E+02                                            40280  3  127 
 1.5200E+00 4.9400E+02                                            40280  3  128 
 1.5300E+00 3.9600E+02                                            40280  3  129 
 1.5400E+00 4.6100E+02                                            40280  3  130 
 1.5500E+00 4.6100E+02                                            40280  3  131 
 1.5600E+00 3.4900E+02                                            40280  3  132 
 1.5700E+00 2.8700E+02                                            40280  3  133 
 1.5800E+00 2.8200E+02                                            40280  3  134 
 1.5900E+00 3.4400E+02                                            40280  3  135 
 1.6000E+00 3.4600E+02                                            40280  3  136 
 1.6100E+00 3.0800E+02                                            40280  3  137 
 1.6200E+00 2.6100E+02                                            40280  3  138 
 1.6300E+00 2.9900E+02                                            40280  3  139 
 1.6400E+00 3.2500E+02                                            40280  3  140 
 1.6500E+00 3.9600E+02                                            40280  3  141 
 1.6600E+00 4.2300E+02                                            40280  3  142 
 1.6700E+00 4.4700E+02                                            40280  3  143 
 1.6800E+00 6.0900E+02                                            40280  3  144 
 1.6900E+00 7.4400E+02                                            40280  3  145 
 1.7000E+00 1.0740E+03                                            40280  3  146 
 1.7100E+00 1.5930E+03                                            40280  3  147 
 1.7200E+00 2.1140E+03                                            40280  3  148 
 1.7300E+00 2.6080E+03                                            40280  3  149 
 1.7400E+00 2.8980E+03                                            40280  3  150 
 1.7500E+00 2.6440E+03                                            40280  3  151 
 1.7600E+00 2.1120E+03                                            40280  3  152 
 1.7700E+00 1.5480E+03                                            40280  3  153 
 1.7800E+00 1.1280E+03                                            40280  3  154 
 1.7900E+00 7.3200E+02                                            40280  3  155 
 1.8000E+00 6.9200E+02                                            40280  3  156 
 1.8100E+00 4.4700E+02                                            40280  3  157 
 1.8200E+00 3.5900E+02                                            40280  3  158 
 1.8300E+00 2.8900E+02                                            40280  3  159 
 1.8400E+00 2.1200E+02                                            40280  3  160 
 1.8500E+00 2.1000E+02                                            40280  3  161 
 1.8600E+00 2.0500E+02                                            40280  3  162 
 1.8700E+00 1.8000E+02                                            40280  3  163 
 1.8800E+00 1.6500E+02                                            40280  3  164 
 1.8900E+00 1.4800E+02                                            40280  3  165 
 1.9000E+00 1.4500E+02                                            40280  3  166 
 1.9100E+00 1.4000E+02                                            40280  3  167 
 1.9200E+00 1.3500E+02                                            40280  3  168 
 1.9300E+00 1.3300E+02                                            40280  3  169 
 1.9400E+00 1.3400E+02                                            40280  3  170 
 1.9500E+00 1.3100E+02                                            40280  3  171 
 1.9600E+00 1.2900E+02                                            40280  3  172 
 1.9700E+00 1.3000E+02                                            40280  3  173 
 1.9800E+00 1.2100E+02                                            40280  3  174 
 1.9900E+00 1.2100E+02                                            40280  3  175 
 2.0000E+00 1.2000E+02                                            40280  3  176 
 2.0100E+00 1.1500E+02                                            40280  3  177 
 2.0200E+00 1.0100E+02                                            40280  3  178 
 2.0300E+00 9.0000E+01                                            40280  3  179 
 2.0400E+00 8.7000E+01                                            40280  3  180 
 2.0500E+00 8.0000E+01                                            40280  3  181 
 2.0600E+00 7.7000E+01                                            40280  3  182 
 2.0700E+00 7.4000E+01                                            40280  3  183 
 2.0800E+00 7.0000E+01                                            40280  3  184 
 2.0900E+00 6.0000E+01                                            40280  3  185 
 2.1000E+00 6.5000E+01                                            40280  3  186 
 2.1100E+00 6.4000E+01                                            40280  3  187 
 2.1200E+00 6.5000E+01                                            40280  3  188 
 2.1300E+00 6.1000E+01                                            40280  3  189 
 2.1400E+00 5.9000E+01                                            40280  3  190 
 2.1500E+00 5.7000E+01                                            40280  3  191 
 2.1600E+00 5.1000E+01                                            40280  3  192 
 2.1700E+00 4.3000E+01                                            40280  3  193 
 2.1800E+00 4.5000E+01                                            40280  3  194 
 2.1900E+00 4.7000E+01                                            40280  3  195 
 2.2000E+00 4.9000E+01                                            40280  3  196 
 2.2100E+00 4.5000E+01                                            40280  3  197 
 2.2200E+00 4.0000E+01                                            40280  3  198 
 2.2300E+00 4.1000E+01                                            40280  3  199 
 2.2400E+00 3.7000E+01                                            40280  3  200 
 2.2500E+00 4.5000E+01                                            40280  3  201 
 2.2600E+00 3.3000E+01                                            40280  3  202 
 2.2700E+00 3.1000E+01                                            40280  3  203 
 2.2800E+00 3.0000E+01                                            40280  3  204 
 2.2900E+00 3.2000E+01                                            40280  3  205 
 2.3000E+00 3.3000E+01                                            40280  3  206 
 2.3100E+00 3.1000E+01                                            40280  3  207 
 2.3200E+00 3.0000E+01                                            40280  3  208 
 2.3300E+00 2.8000E+01                                            40280  3  209 
 2.3400E+00 2.9000E+01                                            40280  3  210 
 2.3500E+00 2.5000E+01                                            40280  3  211 
 2.3600E+00 2.4000E+01                                            40280  3  212 
 2.3700E+00 2.3000E+01                                            40280  3  213 
 2.3800E+00 2.7000E+01                                            40280  3  214 
 2.3900E+00 2.2000E+01                                            40280  3  215 
 2.4000E+00 2.4000E+01                                            40280  3  216 
 2.4100E+00 2.3000E+01                                            40280  3  217 
 2.4200E+00 2.2000E+01                                            40280  3  218 
 2.4300E+00 2.0000E+01                                            40280  3  219 
 2.4400E+00 1.9000E+01                                            40280  3  220 
 2.4500E+00 2.1000E+01                                            40280  3  221 
 2.4600E+00 1.7000E+01                                            40280  3  222 
 2.4700E+00 1.6000E+01                                            40280  3  223 
 2.4800E+00 2.1000E+01                                            40280  3  224 
 2.4900E+00 2.3000E+01                                            40280  3  225 
 2.5000E+00 2.4000E+01                                            40280  3  226 
 2.5100E+00 2.0000E+01                                            40280  3  227 
 2.5200E+00 1.7000E+01                                            40280  3  228 
 2.5300E+00 2.1000E+01                                            40280  3  229 
 2.5400E+00 2.2000E+01                                            40280  3  230 
 2.5500E+00 1.5000E+01                                            40280  3  231 
 2.5600E+00 2.3000E+01                                            40280  3  232 
 2.5700E+00 2.1000E+01                                            40280  3  233 
 2.5800E+00 2.2000E+01                                            40280  3  234 
 2.5900E+00 1.7000E+01                                            40280  3  235 
 2.6000E+00 2.3000E+01                                            40280  3  236 
 2.6100E+00 2.0000E+01                                            40280  3  237 
 2.6200E+00 2.7000E+01                                            40280  3  238 
 2.6300E+00 2.1000E+01                                            40280  3  239 
 2.6400E+00 2.8000E+01                                            40280  3  240 
 2.6500E+00 2.0000E+01                                            40280  3  241 
 2.6600E+00 1.9000E+01                                            40280  3  242 
 2.6700E+00 2.9000E+01                                            40280  3  243 
 2.6800E+00 3.1000E+01                                            40280  3  244 
 2.6900E+00 2.1000E+01                                            40280  3  245 
 2.7000E+00 2.4000E+01                                            40280  3  246 
 2.7100E+00 2.2000E+01                                            40280  3  247 
 2.7200E+00 2.1000E+01                                            40280  3  248 
 2.7300E+00 2.3000E+01                                            40280  3  249 
 2.7400E+00 1.7000E+01                                            40280  3  250 
 2.7500E+00 1.5000E+01                                            40280  3  251 
 2.7600E+00 2.2000E+01                                            40280  3  252 
 2.7700E+00 2.0000E+01                                            40280  3  253 
 2.7800E+00 1.9000E+01                                            40280  3  254 
 2.7900E+00 2.3000E+01                                            40280  3  255 
 2.8000E+00 2.5000E+01                                            40280  3  256 
 2.8100E+00 2.0000E+01                                            40280  3  257 
 2.8200E+00 1.9000E+01                                            40280  3  258 
 2.8300E+00 2.4000E+01                                            40280  3  259 
 2.8400E+00 2.3000E+01                                            40280  3  260 
 2.8500E+00 2.1000E+01                                            40280  3  261 
 2.8600E+00 2.7000E+01                                            40280  3  262 
 2.8700E+00 2.0000E+01                                            40280  3  263 
 2.8800E+00 2.8000E+01                                            40280  3  264 
 2.8900E+00 2.5000E+01                                            40280  3  265 
 2.9000E+00 2.9000E+01                                            40280  3  266 
 2.9100E+00 2.1000E+01                                            40280  3  267 
 2.9200E+00 2.3000E+01                                            40280  3  268 
 2.9300E+00 2.5000E+01                                            40280  3  269 
 2.9400E+00 2.4000E+01                                            40280  3  270 
 2.9500E+00 2.3000E+01                                            40280  3  271 
 2.9600E+00 2.7000E+01                                            40280  3  272 
 2.9700E+00 2.3000E+01                                            40280  3  273 
 2.9800E+00 2.4000E+01                                            40280  3  274 
 2.9900E+00 3.1000E+01                                            40280  3  275 
 3.0000E+00 2.8000E+01                                            40280  3  276 
 3.0100E+00 3.0000E+01                                            40280  3  277 
 3.0200E+00 2.9000E+01                                            40280  3  278 
 3.0300E+00 3.1000E+01                                            40280  3  279 
 3.0400E+00 3.0000E+01                                            40280  3  280 
 3.0500E+00 3.5000E+01                                            40280  3  281 
 3.0600E+00 4.0000E+01                                            40280  3  282 
 3.0700E+00 4.1000E+01                                            40280  3  283 
 3.0800E+00 4.8000E+01                                            40280  3  284 
 3.0900E+00 5.6000E+01                                            40280  3  285 
 3.1000E+00 6.5000E+01                                            40280  3  286 
 3.1100E+00 8.0000E+01                                            40280  3  287 
 3.1200E+00 9.1000E+01                                            40280  3  288 
 3.1300E+00 9.0000E+01                                            40280  3  289 
 3.1400E+00 1.1100E+02                                            40280  3  290 
 3.1500E+00 1.3500E+02                                            40280  3  291 
 3.1600E+00 1.6100E+02                                            40280  3  292 
 3.1700E+00 1.7800E+02                                            40280  3  293 
 3.1800E+00 1.9000E+02                                            40280  3  294 
 3.1900E+00 2.0500E+02                                            40280  3  295 
 3.2000E+00 2.2700E+02                                            40280  3  296 
 3.2100E+00 2.4900E+02                                            40280  3  297 
 3.2200E+00 2.5000E+02                                            40280  3  298 
 3.2300E+00 2.8100E+02                                            40280  3  299 
 3.2400E+00 3.0300E+02                                            40280  3  300 
 3.2500E+00 3.2500E+02                                            40280  3  301 
 3.2600E+00 3.4100E+02                                            40280  3  302 
 3.2700E+00 3.6600E+02                                            40280  3  303 
 3.2800E+00 3.8900E+02                                            40280  3  304 
 3.2900E+00 4.1100E+02                                            40280  3  305 
 3.3000E+00 4.3800E+02                                            40280  3  306 
 3.3100E+00 4.6100E+02                                            40280  3  307 
 3.3200E+00 4.8900E+02                                            40280  3  308 
 3.3300E+00 5.0100E+02                                            40280  3  309 
 3.3400E+00 5.2300E+02                                            40280  3  310 
 3.3500E+00 5.4900E+02                                            40280  3  311 
 3.3600E+00 5.6000E+02                                            40280  3  312 
 3.3700E+00 5.8900E+02                                            40280  3  313 
 3.3800E+00 6.0100E+02                                            40280  3  314 
 3.3900E+00 6.6000E+02                                            40280  3  315 
 3.4000E+00 7.1100E+02                                            40280  3  316 
 3.4100E+00 7.8100E+02                                            40280  3  317 
 3.4200E+00 8.0000E+02                                            40280  3  318 
 3.4300E+00 7.8800E+02                                            40280  3  319 
 3.4400E+00 7.8600E+02                                            40280  3  320 
 3.4500E+00 7.7700E+02                                            40280  3  321 
 3.4600E+00 6.9900E+02                                            40280  3  322 
 3.4700E+00 6.0000E+02                                            40280  3  323 
 3.4800E+00 5.1100E+02                                            40280  3  324 
 3.4900E+00 4.3100E+02                                            40280  3  325 
 3.5000E+00 3.4900E+02                                            40280  3  326 
 3.5100E+00 3.1100E+02                                            40280  3  327 
 3.5200E+00 2.8300E+02                                            40280  3  328 
 3.5300E+00 2.4500E+02                                            40280  3  329 
 3.5400E+00 1.2000E+02                                            40280  3  330 
 3.5500E+00 9.2000E+01                                            40280  3  331 
 3.5700E+00 7.9000E+01                                            40280  3  332 
 3.5800E+00 6.3000E+01                                            40280  3  333 
 3.5900E+00 5.9000E+01                                            40280  3  334 
 3.6000E+00 6.8000E+01                                            40280  3  335 
 3.6100E+00 4.5000E+01                                            40280  3  336 
 3.6200E+00 4.7000E+01                                            40280  3  337 
 3.6300E+00 3.8000E+01                                            40280  3  338 
 3.6400E+00 4.0000E+01                                            40280  3  339 
 3.6500E+00 3.1000E+01                                            40280  3  340 
 3.6600E+00 2.1000E+01                                            40280  3  341 
 3.6700E+00 3.8000E+01                                            40280  3  342 
 3.6800E+00 2.8000E+01                                            40280  3  343 
 3.6900E+00 2.9000E+01                                            40280  3  344 
 3.7000E+00 3.1000E+01                                            40280  3  345 
 3.7100E+00 3.0000E+01                                            40280  3  346 
 3.7200E+00 2.6000E+01                                            40280  3  347 
 3.7300E+00 2.2000E+01                                            40280  3  348 
 3.7400E+00 1.8000E+01                                            40280  3  349 
 3.7500E+00 2.3000E+01                                            40280  3  350 
 3.7600E+00 2.5000E+01                                            40280  3  351 
 3.7700E+00 3.8000E+01                                            40280  3  352 
 3.7800E+00 1.9000E+01                                            40280  3  353 
 3.7900E+00 5.0000E+01                                            40280  3  354 
 3.8000E+00 5.6000E+01                                            40280  3  355 
 3.8100E+00 6.1000E+01                                            40280  3  356 
 3.8200E+00 6.7000E+01                                            40280  3  357 
 3.8300E+00 7.1000E+01                                            40280  3  358 
 3.8400E+00 7.0000E+01                                            40280  3  359 
 3.8500E+00 7.8000E+01                                            40280  3  360 
 3.8600E+00 6.1000E+01                                            40280  3  361 
 3.8700E+00 5.7000E+01                                            40280  3  362 
 3.8800E+00 5.5000E+01                                            40280  3  363 
 3.8900E+00 5.7000E+01                                            40280  3  364 
 3.9000E+00 3.7000E+01                                            40280  3  365 
 3.9100E+00 1.8000E+01                                            40280  3  366 
 3.9200E+00 3.1000E+01                                            40280  3  367 
 3.9300E+00 2.1000E+01                                            40280  3  368 
 3.9400E+00 1.6000E+01                                            40280  3  369 
 3.9500E+00 1.5000E+01                                            40280  3  370 
 3.9600E+00 1.4000E+01                                            40280  3  371 
 3.9700E+00 1.7000E+01                                            40280  3  372 
 3.9800E+00 1.8000E+01                                            40280  3  373 
 3.9900E+00 2.1000E+01                                            40280  3  374 
 4.0000E+00 2.0000E+01                                            40280  3  375 
 4.0100E+00 2.4000E+01                                            40280  3  376 
 4.0200E+00 2.6000E+01                                            40280  3  377 
 4.0300E+00 2.9000E+01                                            40280  3  378 
 4.0400E+00 2.6000E+01                                            40280  3  379 
 4.0500E+00 2.7000E+01                                            40280  3  380 
 4.0600E+00 2.4000E+01                                            40280  3  381 
 4.0700E+00 2.3000E+01                                            40280  3  382 
 4.0800E+00 2.4000E+01                                            40280  3  383 
 4.0900E+00 2.0000E+01                                            40280  3  384 
 4.1000E+00 2.4000E+01                                            40280  3  385 
 4.1100E+00 2.1000E+01                                            40280  3  386 
 4.1200E+00 2.3000E+01                                            40280  3  387 
 4.1300E+00 2.3000E+01                                            40280  3  388 
 4.1400E+00 2.2000E+01                                            40280  3  389 
 4.1500E+00 2.3000E+01                                            40280  3  390 
 4.1600E+00 2.0000E+01                                            40280  3  391 
 4.1700E+00 1.8000E+01                                            40280  3  392 
 4.1800E+00 1.9000E+01                                            40280  3  393 
 4.1900E+00 2.1000E+01                                            40280  3  394 
 4.2000E+00 2.3000E+01                                            40280  3  395 
 4.2100E+00 1.8000E+01                                            40280  3  396 
 4.2200E+00 1.9000E+01                                            40280  3  397 
 4.2300E+00 2.1000E+01                                            40280  3  398 
 4.2400E+00 1.8000E+01                                            40280  3  399 
 4.2500E+00 2.0000E+01                                            40280  3  400 
 4.2600E+00 1.9000E+01                                            40280  3  401 
 4.2700E+00 2.1000E+01                                            40280  3  402 
 4.2800E+00 2.0000E+01                                            40280  3  403 
 4.2900E+00 2.0000E+01                                            40280  3  404 
 4.3000E+00 2.0000E+01                                            40280  3  405 
 4.3100E+00 1.8000E+01                                            40280  3  406 
 4.3200E+00 1.9000E+01                                            40280  3  407 
 4.3300E+00 2.0000E+01                                            40280  3  408 
 4.3400E+00 1.7000E+01                                            40280  3  409 
 4.3500E+00 2.1000E+01                                            40280  3  410 
 4.3600E+00 1.8000E+01                                            40280  3  411 
 4.3700E+00 1.9000E+01                                            40280  3  412 
 4.3800E+00 1.5000E+01                                            40280  3  413 
 4.3900E+00 2.1000E+01                                            40280  3  414 
 4.4000E+00 1.4000E+01                                            40280  3  415 
 4.4100E+00 2.1000E+01                                            40280  3  416 
 4.4200E+00 2.1000E+01                                            40280  3  417 
 4.4300E+00 2.0000E+01                                            40280  3  418 
 4.4400E+00 2.2000E+01                                            40280  3  419 
 4.4500E+00 2.3000E+01                                            40280  3  420 
 4.4600E+00 2.0000E+01                                            40280  3  421 
 4.4700E+00 2.1000E+01                                            40280  3  422 
 4.4800E+00 2.0000E+01                                            40280  3  423 
 4.4900E+00 2.3000E+01                                            40280  3  424 
 4.5000E+00 2.4000E+01                                            40280  3  425 
 4.5100E+00 2.5000E+01                                            40280  3  426 
 4.5200E+00 2.0000E+01                                            40280  3  427 
 4.5300E+00 1.9000E+01                                            40280  3  428 
 4.5400E+00 2.4000E+01                                            40280  3  429 
 4.5500E+00 1.8000E+01                                            40280  3  430 
 4.5600E+00 1.7000E+01                                            40280  3  431 
 4.5700E+00 2.0000E+01                                            40280  3  432 
 4.5800E+00 2.1000E+01                                            40280  3  433 
 4.5900E+00 2.3000E+01                                            40280  3  434 
 4.6000E+00 2.4000E+01                                            40280  3  435 
 4.6100E+00 2.8000E+01                                            40280  3  436 
 4.6200E+00 2.5000E+01                                            40280  3  437 
 4.6300E+00 1.9000E+01                                            40280  3  438 
 4.6400E+00 2.6000E+01                                            40280  3  439 
 4.6500E+00 2.4000E+01                                            40280  3  440 
 4.6600E+00 2.2000E+01                                            40280  3  441 
 4.6700E+00 2.0000E+01                                            40280  3  442 
 4.6800E+00 2.1000E+01                                            40280  3  443 
 4.6900E+00 1.7000E+01                                            40280  3  444 
 4.7000E+00 1.9000E+01                                            40280  3  445 
 4.7100E+00 2.2000E+01                                            40280  3  446 
 4.7200E+00 2.5000E+01                                            40280  3  447 
 4.7300E+00 2.6000E+01                                            40280  3  448 
 4.7400E+00 2.3000E+01                                            40280  3  449 
 4.7500E+00 2.0000E+01                                            40280  3  450 
 4.7600E+00 2.1000E+01                                            40280  3  451 
 4.7700E+00 2.4000E+01                                            40280  3  452 
 4.7800E+00 2.6000E+01                                            40280  3  453 
 4.7900E+00 2.8000E+01                                            40280  3  454 
 4.8000E+00 3.0000E+01                                            40280  3  455 
 4.8100E+00 2.9000E+01                                            40280  3  456 
 4.8200E+00 2.7000E+01                                            40280  3  457 
 4.8300E+00 3.0000E+01                                            40280  3  458 
 4.8400E+00 3.1000E+01                                            40280  3  459 
 4.8500E+00 2.8000E+01                                            40280  3  460 
 4.8600E+00 3.3000E+01                                            40280  3  461 
 4.8700E+00 3.1000E+01                                            40280  3  462 
 4.8800E+00 3.2000E+01                                            40280  3  463 
 4.8900E+00 3.1000E+01                                            40280  3  464 
 4.9000E+00 4.8000E+01                                            40280  3  465 
 4.9100E+00 5.5000E+01                                            40280  3  466 
 4.9200E+00 6.3000E+01                                            40280  3  467 
 4.9300E+00 7.1000E+01                                            40280  3  468 
 4.9400E+00 8.2000E+01                                            40280  3  469 
 4.9500E+00 8.3000E+01                                            40280  3  470 
 4.9600E+00 9.3000E+01                                            40280  3  471 
 4.9700E+00 9.6000E+01                                            40280  3  472 
 4.9800E+00 1.1000E+02                                            40280  3  473 
 4.9900E+00 1.2500E+02                                            40280  3  474 
 5.0000E+00 1.3800E+02                                            40280  3  475 
 5.0100E+00 1.5700E+02                                            40280  3  476 
 5.0200E+00 1.8000E+02                                            40280  3  477 
 5.0300E+00 2.1000E+02                                            40280  3  478 
 5.0400E+00 2.4600E+02                                            40280  3  479 
 5.0500E+00 2.8100E+02                                            40280  3  480 
 5.0600E+00 3.3700E+02                                            40280  3  481 
 5.0700E+00 3.7500E+02                                            40280  3  482 
 5.0800E+00 4.4700E+02                                            40280  3  483 
 5.0900E+00 5.1300E+02                                            40280  3  484 
 5.1000E+00 5.4700E+02                                            40280  3  485 
 5.1100E+00 6.1600E+02                                            40280  3  486 
 5.1200E+00 6.2000E+02                                            40280  3  487 
 5.1300E+00 6.9600E+02                                            40280  3  488 
 5.1400E+00 6.6300E+02                                            40280  3  489 
 5.1500E+00 6.6100E+02                                            40280  3  490 
 5.1600E+00 6.3800E+02                                            40280  3  491 
 5.1700E+00 6.1300E+02                                            40280  3  492 
 5.1800E+00 5.7900E+02                                            40280  3  493 
 5.1900E+00 5.3100E+02                                            40280  3  494 
 5.2000E+00 4.8500E+02                                            40280  3  495 
 5.2100E+00 4.2700E+02                                            40280  3  496 
 5.2200E+00 3.8800E+02                                            40280  3  497 
 5.2300E+00 3.3800E+02                                            40280  3  498 
 5.2400E+00 2.8700E+02                                            40280  3  499 
 5.2500E+00 2.4900E+02                                            40280  3  500 
 5.2600E+00 2.1300E+02                                            40280  3  501 
 5.2700E+00 1.5600E+02                                            40280  3  502 
 5.2800E+00 1.3400E+02                                            40280  3  503 
 5.2900E+00 1.2200E+02                                            40280  3  504 
 5.3000E+00 1.0300E+02                                            40280  3  505 
 5.3100E+00 8.8000E+01                                            40280  3  506 
 5.3200E+00 8.2000E+01                                            40280  3  507 
 5.3300E+00 7.2000E+01                                            40280  3  508 
 5.3400E+00 6.8000E+01                                            40280  3  509 
 5.3500E+00 6.1000E+01                                            40280  3  510 
 5.3600E+00 5.9000E+01                                            40280  3  511 
 5.3700E+00 4.8000E+01                                            40280  3  512 
 5.3800E+00 4.0000E+01                                            40280  3  513 
 5.3900E+00 4.1000E+01                                            40280  3  514 
 5.4000E+00 4.1000E+01                                            40280  3  515 
 5.4100E+00 3.7000E+01                                            40280  3  516 
 5.4200E+00 3.4000E+01                                            40280  3  517 
 5.4300E+00 3.1000E+01                                            40280  3  518 
 5.4400E+00 3.0000E+01                                            40280  3  519 
 5.4500E+00 2.5000E+01                                            40280  3  520 
 5.4600E+00 1.9000E+01                                            40280  3  521 
 5.4700E+00 1.9000E+01                                            40280  3  522 
 5.4800E+00 1.1000E+01                                            40280  3  523 
 5.4900E+00 8.0000E+00                                            40280  3  524 
 5.5000E+00 1.0000E+01                                            40280  3  525 
 5.5100E+00 7.0000E+00                                            40280  3  526 
 5.5200E+00 8.0000E+00                                            40280  3  527 
 5.5300E+00 1.1000E+01                                            40280  3  528 
 5.5400E+00 1.3000E+01                                            40280  3  529 
 5.5500E+00 1.3000E+01                                            40280  3  530 
 5.5600E+00 1.4000E+01                                            40280  3  531 
 5.5700E+00 1.8000E+01                                            40280  3  532 
 5.5800E+00 2.0000E+01                                            40280  3  533 
 5.5900E+00 2.1000E+01                                            40280  3  534 
 5.6000E+00 1.9000E+01                                            40280  3  535 
 5.6100E+00 2.2000E+01                                            40280  3  536 
 5.6200E+00 2.2000E+01                                            40280  3  537 
 5.6300E+00 2.2000E+01                                            40280  3  538 
 5.6400E+00 2.2000E+01                                            40280  3  539 
 5.6500E+00 2.2000E+01                                            40280  3  540 
 5.6600E+00 2.2000E+01                                            40280  3  541 
 5.6700E+00 2.4000E+01                                            40280  3  542 
 5.6800E+00 1.9000E+01                                            40280  3  543 
 5.6900E+00 2.0000E+01                                            40280  3  544 
 5.7000E+00 2.3000E+01                                            40280  3  545 
 5.7100E+00 2.1000E+01                                            40280  3  546 
 5.7200E+00 1.9000E+01                                            40280  3  547 
 5.7300E+00 2.2000E+01                                            40280  3  548 
 5.7400E+00 1.8000E+01                                            40280  3  549 
 5.7500E+00 2.0000E+01                                            40280  3  550 
 5.7600E+00 1.9000E+01                                            40280  3  551 
 5.7700E+00 1.9000E+01                                            40280  3  552 
 5.7800E+00 2.0000E+01                                            40280  3  553 
 5.7900E+00 2.0000E+01                                            40280  3  554 
 5.8000E+00 2.2000E+01                                            40280  3  555 
 5.8100E+00 1.8000E+01                                            40280  3  556 
 5.8200E+00 2.2000E+01                                            40280  3  557 
 5.8300E+00 2.1000E+01                                            40280  3  558 
 5.8400E+00 2.1000E+01                                            40280  3  559 
 5.8500E+00 2.1000E+01                                            40280  3  560 
 5.8600E+00 1.9000E+01                                            40280  3  561 
 5.8700E+00 2.1000E+01                                            40280  3  562 
 5.8800E+00 1.8000E+01                                            40280  3  563 
 5.8900E+00 2.0000E+01                                            40280  3  564 
 5.9000E+00 2.0000E+01                                            40280  3  565 
 5.9100E+00 2.1000E+01                                            40280  3  566 
 5.9200E+00 2.1000E+01                                            40280  3  567 
 5.9300E+00 2.3000E+01                                            40280  3  568 
 5.9400E+00 2.1000E+01                                            40280  3  569 
 5.9500E+00 2.1000E+01                                            40280  3  570 
 5.9600E+00 2.1000E+01                                            40280  3  571 
 5.9700E+00 2.1000E+01                                            40280  3  572 
 5.9800E+00 1.9000E+01                                            40280  3  573 
 5.9900E+00 2.1000E+01                                            40280  3  574 
 6.0000E+00 1.9000E+01                                            40280  3  575 
 6.0100E+00 2.0000E+01                                            40280  3  576 
 6.0200E+00 2.2000E+01                                            40280  3  577 
 6.0300E+00 2.2000E+01                                            40280  3  578 
 6.0400E+00 2.3000E+01                                            40280  3  579 
 6.0500E+00 2.0000E+01                                            40280  3  580 
 6.0600E+00 2.3000E+01                                            40280  3  581 
 6.0700E+00 2.2000E+01                                            40280  3  582 
 6.0800E+00 2.2000E+01                                            40280  3  583 
 6.0900E+00 2.1000E+01                                            40280  3  584 
 6.1000E+00 2.3000E+01                                            40280  3  585 
 6.1100E+00 2.4000E+01                                            40280  3  586 
 6.1200E+00 2.5000E+01                                            40280  3  587 
 6.1300E+00 2.2000E+01                                            40280  3  588 
 6.1400E+00 2.5000E+01                                            40280  3  589 
 6.1500E+00 2.5000E+01                                            40280  3  590 
 6.1600E+00 2.7000E+01                                            40280  3  591 
 6.1700E+00 2.6000E+01                                            40280  3  592 
 6.1800E+00 2.7000E+01                                            40280  3  593 
 6.1900E+00 2.6000E+01                                            40280  3  594 
 6.2000E+00 3.3000E+01                                            40280  3  595 
 6.2100E+00 3.3000E+01                                            40280  3  596 
 6.2200E+00 3.4000E+01                                            40280  3  597 
 6.2300E+00 3.6000E+01                                            40280  3  598 
 6.2400E+00 3.7000E+01                                            40280  3  599 
 6.2500E+00 4.1000E+01                                            40280  3  600 
 6.2600E+00 2.7000E+01                                            40280  3  601 
 6.2700E+00 3.1000E+01                                            40280  3  602 
 6.2800E+00 3.1000E+01                                            40280  3  603 
 6.2900E+00 3.1000E+01                                            40280  3  604 
 6.3000E+00 3.0000E+01                                            40280  3  605 
 6.3100E+00 2.8000E+01                                            40280  3  606 
 6.3200E+00 3.2000E+01                                            40280  3  607 
 6.3300E+00 4.2000E+01                                            40280  3  608 
 6.3400E+00 4.5000E+01                                            40280  3  609 
 6.3500E+00 4.7000E+01                                            40280  3  610 
 6.3600E+00 4.8000E+01                                            40280  3  611 
 6.3700E+00 5.9000E+01                                            40280  3  612 
 6.3800E+00 6.2000E+01                                            40280  3  613 
 6.3900E+00 6.8000E+01                                            40280  3  614 
 6.4000E+00 7.3000E+01                                            40280  3  615 
 6.4100E+00 9.1000E+01                                            40280  3  616 
 6.4200E+00 1.0100E+02                                            40280  3  617 
 6.4300E+00 1.3600E+02                                            40280  3  618 
 6.4400E+00 1.5600E+02                                            40280  3  619 
 6.4500E+00 1.6400E+02                                            40280  3  620 
 6.4600E+00 2.2000E+02                                            40280  3  621 
 6.4700E+00 2.9000E+02                                            40280  3  622 
 6.4800E+00 3.6700E+02                                            40280  3  623 
 6.4900E+00 4.4200E+02                                            40280  3  624 
 6.5000E+00 5.0200E+02                                            40280  3  625 
 6.5100E+00 6.1200E+02                                            40280  3  626 
 6.5200E+00 6.6700E+02                                            40280  3  627 
 6.5300E+00 6.9700E+02                                            40280  3  628 
 6.5400E+00 7.2300E+02                                            40280  3  629 
 6.5500E+00 7.6300E+02                                            40280  3  630 
 6.5600E+00 6.9800E+02                                            40280  3  631 
 6.5700E+00 6.7800E+02                                            40280  3  632 
 6.5800E+00 7.0600E+02                                            40280  3  633 
 6.5900E+00 6.5900E+02                                            40280  3  634 
 6.6000E+00 6.5300E+02                                            40280  3  635 
 6.6100E+00 6.1300E+02                                            40280  3  636 
 6.6200E+00 5.6000E+02                                            40280  3  637 
 6.6300E+00 4.9900E+02                                            40280  3  638 
 6.6400E+00 4.2500E+02                                            40280  3  639 
 6.6500E+00 3.6900E+02                                            40280  3  640 
 6.6600E+00 3.1000E+02                                            40280  3  641 
 6.6700E+00 2.5900E+02                                            40280  3  642 
 6.6800E+00 2.2300E+02                                            40280  3  643 
 6.6900E+00 1.8700E+02                                            40280  3  644 
 6.7000E+00 1.5700E+02                                            40280  3  645 
 6.7100E+00 1.3600E+02                                            40280  3  646 
 6.7200E+00 1.1600E+02                                            40280  3  647 
 6.7300E+00 1.0700E+02                                            40280  3  648 
 6.7400E+00 9.3000E+01                                            40280  3  649 
 6.7500E+00 9.6000E+01                                            40280  3  650 
 6.7600E+00 9.0000E+01                                            40280  3  651 
 6.7700E+00 7.2000E+01                                            40280  3  652 
 6.7800E+00 6.6000E+01                                            40280  3  653 
 6.7900E+00 5.6000E+01                                            40280  3  654 
 6.8000E+00 5.0000E+01                                            40280  3  655 
 6.8100E+00 4.8000E+01                                            40280  3  656 
 6.8200E+00 4.8000E+01                                            40280  3  657 
 6.8300E+00 4.7000E+01                                            40280  3  658 
 6.8400E+00 4.4000E+01                                            40280  3  659 
 6.8500E+00 4.4000E+01                                            40280  3  660 
 6.8600E+00 4.4000E+01                                            40280  3  661 
 6.8700E+00 4.2000E+01                                            40280  3  662 
 6.8800E+00 4.2000E+01                                            40280  3  663 
 6.8900E+00 4.2000E+01                                            40280  3  664 
 6.9000E+00 4.2000E+01                                            40280  3  665 
 6.9100E+00 4.2000E+01                                            40280  3  666 
 6.9200E+00 4.2000E+01                                            40280  3  667 
 6.9300E+00 4.4000E+01                                            40280  3  668 
 6.9400E+00 4.4000E+01                                            40280  3  669 
 6.9500E+00 4.5000E+01                                            40280  3  670 
 6.9600E+00 4.5000E+01                                            40280  3  671 
 6.9700E+00 4.8000E+01                                            40280  3  672 
 6.9800E+00 5.5000E+01                                            40280  3  673 
 6.9900E+00 6.4000E+01                                            40280  3  674 
 7.0000E+00 7.1000E+01                                            40280  3  675 
 7.0100E+00 9.5000E+01                                            40280  3  676 
 7.0200E+00 9.4000E+01                                            40280  3  677 
 7.0300E+00 1.0900E+02                                            40280  3  678 
 7.0400E+00 1.2000E+02                                            40280  3  679 
 7.0500E+00 1.3100E+02                                            40280  3  680 
 7.0600E+00 1.4000E+02                                            40280  3  681 
 7.0700E+00 1.4500E+02                                            40280  3  682 
 7.0800E+00 1.4300E+02                                            40280  3  683 
 7.0900E+00 1.4400E+02                                            40280  3  684 
 7.1000E+00 1.3300E+02                                            40280  3  685 
 7.1100E+00 1.2200E+02                                            40280  3  686 
 7.1200E+00 1.2300E+02                                            40280  3  687 
 7.1300E+00 1.2100E+02                                            40280  3  688 
 7.1400E+00 1.2000E+02                                            40280  3  689 
 7.1500E+00 9.8000E+01                                            40280  3  690 
 7.1600E+00 9.2000E+01                                            40280  3  691 
 7.1700E+00 7.3000E+01                                            40280  3  692 
 7.1800E+00 5.1000E+01                                            40280  3  693 
 7.1900E+00 5.0000E+01                                            40280  3  694 
 7.2000E+00 4.9000E+01                                            40280  3  695 
 7.2100E+00 4.9000E+01                                            40280  3  696 
 7.2200E+00 5.3000E+01                                            40280  3  697 
 7.2300E+00 4.7000E+01                                            40280  3  698 
 7.2400E+00 4.3000E+01                                            40280  3  699 
 7.2500E+00 3.9000E+01                                            40280  3  700 
 7.2600E+00 3.8000E+01                                            40280  3  701 
 7.2700E+00 3.9000E+01                                            40280  3  702 
 7.2800E+00 3.9000E+01                                            40280  3  703 
 7.2900E+00 3.7000E+01                                            40280  3  704 
 7.3000E+00 3.9000E+01                                            40280  3  705 
 7.3100E+00 3.4000E+01                                            40280  3  706 
 7.3200E+00 3.2000E+01                                            40280  3  707 
 7.3300E+00 3.3000E+01                                            40280  3  708 
 7.3400E+00 3.2000E+01                                            40280  3  709 
 7.3500E+00 2.8000E+01                                            40280  3  710 
 7.3600E+00 2.8000E+01                                            40280  3  711 
 7.3700E+00 2.7000E+01                                            40280  3  712 
 7.3800E+00 2.6000E+01                                            40280  3  713 
 7.3900E+00 2.8000E+01                                            40280  3  714 
 7.4000E+00 2.7000E+01                                            40280  3  715 
 7.4100E+00 2.8000E+01                                            40280  3  716 
 7.4200E+00 2.8000E+01                                            40280  3  717 
 7.4300E+00 2.9000E+01                                            40280  3  718 
 7.4400E+00 2.8000E+01                                            40280  3  719 
 7.4500E+00 2.9000E+01                                            40280  3  720 
 7.4600E+00 2.8000E+01                                            40280  3  721 
 7.4700E+00 2.9000E+01                                            40280  3  722 
 7.4800E+00 2.9000E+01                                            40280  3  723 
 7.4900E+00 3.1000E+01                                            40280  3  724 
 7.5000E+00 3.0000E+01                                            40280  3  725 
 7.5100E+00 2.9000E+01                                            40280  3  726 
 7.5200E+00 2.9000E+01                                            40280  3  727 
 7.5300E+00 3.1000E+01                                            40280  3  728 
 7.5400E+00 3.1000E+01                                            40280  3  729 
 7.5500E+00 3.1000E+01                                            40280  3  730 
 7.5600E+00 3.5000E+01                                            40280  3  731 
 7.5700E+00 1.2000E+01                                            40280  3  732 
 7.5800E+00 1.1000E+01                                            40280  3  733 
 7.5900E+00 4.3000E+01                                            40280  3  734 
 7.6000E+00 4.5000E+01                                            40280  3  735 
 7.6100E+00 4.5000E+01                                            40280  3  736 
 7.6200E+00 5.0000E+01                                            40280  3  737 
 7.6300E+00 5.0000E+01                                            40280  3  738 
 7.6400E+00 5.3000E+01                                            40280  3  739 
 7.6500E+00 5.7000E+01                                            40280  3  740 
 7.6600E+00 6.6000E+01                                            40280  3  741 
 7.6700E+00 7.2000E+01                                            40280  3  742 
 7.6800E+00 8.0000E+01                                            40280  3  743 
 7.6900E+00 8.2000E+01                                            40280  3  744 
 7.7000E+00 9.5000E+01                                            40280  3  745 
 7.7100E+00 1.1100E+02                                            40280  3  746 
 7.7200E+00 1.2800E+02                                            40280  3  747 
 7.7300E+00 1.5600E+02                                            40280  3  748 
 7.7400E+00 1.8300E+02                                            40280  3  749 
 7.7500E+00 2.0000E+02                                            40280  3  750 
 7.7600E+00 2.1900E+02                                            40280  3  751 
 7.7700E+00 2.7000E+02                                            40280  3  752 
 7.7800E+00 3.0000E+02                                            40280  3  753 
 7.7900E+00 3.2300E+02                                            40280  3  754 
 7.8000E+00 3.9100E+02                                            40280  3  755 
 7.8100E+00 4.0600E+02                                            40280  3  756 
 7.8200E+00 4.6000E+02                                            40280  3  757 
 7.8300E+00 5.4700E+02                                            40280  3  758 
 7.8400E+00 5.8000E+02                                            40280  3  759 
 7.8500E+00 6.0800E+02                                            40280  3  760 
 7.8600E+00 7.0000E+02                                            40280  3  761 
 7.8700E+00 6.8700E+02                                            40280  3  762 
 7.8800E+00 6.9100E+02                                            40280  3  763 
 7.8900E+00 6.7300E+02                                            40280  3  764 
 7.9000E+00 6.9300E+02                                            40280  3  765 
 7.9200E+00 6.6000E+02                                            40280  3  766 
 7.9300E+00 6.7100E+02                                            40280  3  767 
 7.9400E+00 6.8290E+02                                            40280  3  768 
 7.9500E+00 6.2750E+02                                            40280  3  769 
 7.9600E+00 4.4280E+02                                            40280  3  770 
 7.9700E+00 3.7950E+02                                            40280  3  771 
 7.9800E+00 3.6410E+02                                            40280  3  772 
 7.9900E+00 2.7610E+02                                            40280  3  773 
 8.0000E+00 2.5050E+02                                            40280  3  774 
 8.0100E+00 1.9740E+02                                            40280  3  775 
 8.0200E+00 1.7950E+02                                            40280  3  776 
 8.0300E+00 1.3950E+02                                            40280  3  777 
 8.0400E+00 1.2610E+02                                            40280  3  778 
 8.0500E+00 1.1100E+02                                            40280  3  779 
 8.0600E+00 1.0050E+02                                            40280  3  780 
 8.0700E+00 9.1000E+01                                            40280  3  781 
 8.0800E+00 7.4800E+01                                            40280  3  782 
 8.0900E+00 7.4800E+01                                            40280  3  783 
 8.1000E+00 7.1100E+01                                            40280  3  784 
 8.1100E+00 6.2900E+01                                            40280  3  785 
 8.1200E+00 6.2000E+01                                            40280  3  786 
 8.1300E+00 5.4800E+01                                            40280  3  787 
 8.1400E+00 5.0700E+01                                            40280  3  788 
 8.1500E+00 5.3000E+01                                            40280  3  789 
 8.1600E+00 5.2100E+01                                            40280  3  790 
 8.1700E+00 4.5600E+01                                            40280  3  791 
 8.1800E+00 4.6200E+01                                            40280  3  792 
 8.1900E+00 4.3900E+01                                            40280  3  793 
 8.2000E+00 3.6900E+01                                            40280  3  794 
 8.2100E+00 3.6400E+01                                            40280  3  795 
 8.2200E+00 4.6300E+01                                            40280  3  796 
 8.2300E+00 3.6500E+01                                            40280  3  797 
 8.2400E+00 3.3000E+01                                            40280  3  798 
 8.2500E+00 3.7500E+01                                            40280  3  799 
 8.2600E+00 3.1700E+01                                            40280  3  800 
 8.2700E+00 3.4600E+01                                            40280  3  801 
 8.2800E+00 3.7400E+01                                            40280  3  802 
 8.2900E+00 3.1700E+01                                            40280  3  803 
 8.3000E+00 3.4400E+01                                            40280  3  804 
 8.3100E+00 3.5600E+01                                            40280  3  805 
 8.3200E+00 3.2500E+01                                            40280  3  806 
 8.3300E+00 3.5100E+01                                            40280  3  807 
 8.3400E+00 3.2000E+01                                            40280  3  808 
 8.3500E+00 3.3700E+01                                            40280  3  809 
 8.3600E+00 3.3800E+01                                            40280  3  810 
 8.3700E+00 3.7200E+01                                            40280  3  811 
 8.3800E+00 4.5200E+01                                            40280  3  812 
 8.3900E+00 4.0800E+01                                            40280  3  813 
 8.4000E+00 3.9600E+01                                            40280  3  814 
 8.4100E+00 3.7300E+01                                            40280  3  815 
 8.4200E+00 3.9400E+01                                            40280  3  816 
 8.4300E+00 3.4300E+01                                            40280  3  817 
 8.4400E+00 3.3800E+01                                            40280  3  818 
 8.4500E+00 3.6200E+01                                            40280  3  819 
 8.4600E+00 3.3700E+01                                            40280  3  820 
 8.4700E+00 2.8100E+01                                            40280  3  821 
 8.4800E+00 2.6300E+01                                            40280  3  822 
 8.4900E+00 2.4700E+01                                            40280  3  823 
 8.5000E+00 2.9600E+01                                            40280  3  824 
 8.5100E+00 2.5300E+01                                            40280  3  825 
 8.5200E+00 2.7200E+01                                            40280  3  826 
 8.5300E+00 3.0100E+01                                            40280  3  827 
 8.5400E+00 2.6300E+01                                            40280  3  828 
 8.5500E+00 2.5200E+01                                            40280  3  829 
 8.5600E+00 2.1000E+01                                            40280  3  830 
 8.5700E+00 1.9900E+01                                            40280  3  831 
 8.5800E+00 2.3900E+01                                            40280  3  832 
 8.5900E+00 2.5200E+01                                            40280  3  833 
 8.6000E+00 2.6300E+01                                            40280  3  834 
 8.6100E+00 2.8400E+01                                            40280  3  835 
 8.6200E+00 2.8100E+01                                            40280  3  836 
 8.6300E+00 3.3900E+01                                            40280  3  837 
 8.6400E+00 2.7800E+01                                            40280  3  838 
 8.6500E+00 3.4400E+01                                            40280  3  839 
 8.6600E+00 4.2700E+01                                            40280  3  840 
 8.6700E+00 4.4900E+01                                            40280  3  841 
 8.6800E+00 4.6600E+01                                            40280  3  842 
 8.6900E+00 6.7100E+01                                            40280  3  843 
 8.7000E+00 7.0500E+01                                            40280  3  844 
 8.7100E+00 8.2100E+01                                            40280  3  845 
 8.7200E+00 9.4700E+01                                            40280  3  846 
 8.7300E+00 1.1690E+02                                            40280  3  847 
 8.7400E+00 1.2840E+02                                            40280  3  848 
 8.7500E+00 1.4650E+02                                            40280  3  849 
 8.7600E+00 1.6630E+02                                            40280  3  850 
 8.7700E+00 1.7710E+02                                            40280  3  851 
 8.7800E+00 1.7800E+02                                            40280  3  852 
 8.7900E+00 1.7450E+02                                            40280  3  853 
 8.8000E+00 1.6490E+02                                            40280  3  854 
 8.8100E+00 1.5440E+02                                            40280  3  855 
 8.8200E+00 1.4750E+02                                            40280  3  856 
 8.8300E+00 1.2280E+02                                            40280  3  857 
 8.8400E+00 1.0960E+02                                            40280  3  858 
 8.8500E+00 8.6900E+01                                            40280  3  859 
 8.8600E+00 7.7900E+01                                            40280  3  860 
 8.8700E+00 6.5000E+01                                            40280  3  861 
 8.8800E+00 5.8800E+01                                            40280  3  862 
 8.8900E+00 5.3300E+01                                            40280  3  863 
 8.9000E+00 4.5100E+01                                            40280  3  864 
 8.9100E+00 3.8000E+01                                            40280  3  865 
 8.9200E+00 3.1900E+01                                            40280  3  866 
 8.9300E+00 3.2500E+01                                            40280  3  867 
 8.9400E+00 2.8400E+01                                            40280  3  868 
 8.9500E+00 2.1700E+01                                            40280  3  869 
 8.9600E+00 2.6300E+01                                            40280  3  870 
 8.9700E+00 2.2100E+01                                            40280  3  871 
 8.9800E+00 2.6800E+01                                            40280  3  872 
 8.9900E+00 1.8900E+01                                            40280  3  873 
 9.0000E+00 1.9200E+01                                            40280  3  874 
 9.0100E+00 2.2300E+01                                            40280  3  875 
 9.0200E+00 2.3200E+01                                            40280  3  876 
 9.0300E+00 1.7000E+01                                            40280  3  877 
 9.0400E+00 2.2700E+01                                            40280  3  878 
 9.0500E+00 1.5700E+01                                            40280  3  879 
 9.0600E+00 2.3000E+01                                            40280  3  880 
 9.0700E+00 2.1700E+01                                            40280  3  881 
 9.0800E+00 2.3100E+01                                            40280  3  882 
 9.0900E+00 2.2900E+01                                            40280  3  883 
 9.1000E+00 2.6400E+01                                            40280  3  884 
 9.1100E+00 2.2800E+01                                            40280  3  885 
 9.1200E+00 2.5200E+01                                            40280  3  886 
 9.1300E+00 2.1400E+01                                            40280  3  887 
 9.1400E+00 2.4500E+01                                            40280  3  888 
 9.1500E+00 2.9200E+01                                            40280  3  889 
 9.1600E+00 3.2900E+01                                            40280  3  890 
 9.1700E+00 3.1000E+01                                            40280  3  891 
 9.1800E+00 3.0900E+01                                            40280  3  892 
 9.2000E+00 3.4400E+01                                            40280  3  893 
 9.2100E+00 3.9800E+01                                            40280  3  894 
 9.2200E+00 4.2100E+01                                            40280  3  895 
 9.2300E+00 4.6200E+01                                            40280  3  896 
 9.2400E+00 6.5400E+01                                            40280  3  897 
 9.2500E+00 7.5400E+01                                            40280  3  898 
 9.2600E+00 9.1800E+01                                            40280  3  899 
 9.2700E+00 1.0410E+02                                            40280  3  900 
 9.2800E+00 1.3450E+02                                            40280  3  901 
 9.2900E+00 1.5160E+02                                            40280  3  902 
 9.3000E+00 1.7060E+02                                            40280  3  903 
 9.3100E+00 1.7560E+02                                            40280  3  904 
 9.3200E+00 1.8670E+02                                            40280  3  905 
 9.3300E+00 1.9170E+02                                            40280  3  906 
 9.3400E+00 1.8900E+02                                            40280  3  907 
 9.3500E+00 1.8340E+02                                            40280  3  908 
 9.3600E+00 1.7420E+02                                            40280  3  909 
 9.3700E+00 1.6860E+02                                            40280  3  910 
 9.3800E+00 1.5280E+02                                            40280  3  911 
 9.3900E+00 1.4210E+02                                            40280  3  912 
 9.4000E+00 1.0350E+02                                            40280  3  913 
 9.4100E+00 8.8800E+01                                            40280  3  914 
 9.4200E+00 7.2400E+01                                            40280  3  915 
 9.4300E+00 6.4100E+01                                            40280  3  916 
 9.4400E+00 5.3700E+01                                            40280  3  917 
 9.4500E+00 4.8200E+01                                            40280  3  918 
 9.4600E+00 3.7300E+01                                            40280  3  919 
 9.4700E+00 3.0200E+01                                            40280  3  920 
 9.4800E+00 3.1900E+01                                            40280  3  921 
 9.4900E+00 2.6400E+01                                            40280  3  922 
 9.5000E+00 2.7800E+01                                            40280  3  923 
 9.5100E+00 2.3300E+01                                            40280  3  924 
 9.5200E+00 2.4100E+01                                            40280  3  925 
 9.5300E+00 2.3700E+01                                            40280  3  926 
 9.5400E+00 2.2800E+01                                            40280  3  927 
 9.5500E+00 1.8500E+01                                            40280  3  928 
 9.5600E+00 1.1600E+01                                            40280  3  929 
 9.5700E+00 1.9700E+01                                            40280  3  930 
 9.5800E+00 2.0400E+01                                            40280  3  931 
 9.5900E+00 2.0400E+01                                            40280  3  932 
 9.6000E+00 1.7200E+01                                            40280  3  933 
 9.6100E+00 2.0500E+01                                            40280  3  934 
 9.6200E+00 1.7600E+01                                            40280  3  935 
 9.6300E+00 1.7300E+01                                            40280  3  936 
 9.6400E+00 1.7000E+01                                            40280  3  937 
 9.6500E+00 1.9100E+01                                            40280  3  938 
 9.6600E+00 1.8800E+01                                            40280  3  939 
 9.6700E+00 1.4400E+01                                            40280  3  940 
 9.6800E+00 1.8500E+01                                            40280  3  941 
 9.6900E+00 1.5900E+01                                            40280  3  942 
 9.7000E+00 1.8000E+01                                            40280  3  943 
 9.7100E+00 1.7000E+01                                            40280  3  944 
 9.7200E+00 1.5200E+01                                            40280  3  945 
 9.7300E+00 1.6800E+01                                            40280  3  946 
 9.7400E+00 1.7400E+01                                            40280  3  947 
 9.7500E+00 1.5600E+01                                            40280  3  948 
 9.7600E+00 1.5800E+01                                            40280  3  949 
 9.7700E+00 1.6600E+01                                            40280  3  950 
 9.7800E+00 2.1000E+01                                            40280  3  951 
 9.7900E+00 1.4000E+01                                            40280  3  952 
 9.8000E+00 1.6200E+01                                            40280  3  953 
 9.8100E+00 1.4400E+01                                            40280  3  954 
 9.8200E+00 2.0400E+01                                            40280  3  955 
 9.8300E+00 1.8400E+01                                            40280  3  956 
 9.8400E+00 1.7800E+01                                            40280  3  957 
 9.8500E+00 1.9200E+01                                            40280  3  958 
 9.8600E+00 1.6300E+01                                            40280  3  959 
 9.8700E+00 2.0300E+01                                            40280  3  960 
 9.8800E+00 1.7600E+01                                            40280  3  961 
 9.8900E+00 2.2200E+01                                            40280  3  962 
 9.9000E+00 1.4500E+01                                            40280  3  963 
 9.9100E+00 1.6500E+01                                            40280  3  964 
 9.9200E+00 1.8600E+01                                            40280  3  965 
 9.9300E+00 1.9200E+01                                            40280  3  966 
 9.9400E+00 1.8900E+01                                            40280  3  967 
 9.9500E+00 1.8200E+01                                            40280  3  968 
 9.9600E+00 1.8700E+01                                            40280  3  969 
 9.9700E+00 1.8400E+01                                            40280  3  970 
 9.9800E+00 1.7700E+01                                            40280  3  971 
 9.9900E+00 2.2800E+01                                            40280  3  972 
 1.0000E+01 1.7000E+01                                            40280  3  973 
 1.0010E+01 2.2000E+01                                            40280  3  974 
 1.0020E+01 2.3300E+01                                            40280  3  975 
 1.0030E+01 2.2200E+01                                            40280  3  976 
 1.0040E+01 2.3400E+01                                            40280  3  977 
 1.0050E+01 2.3900E+01                                            40280  3  978 
 1.0060E+01 2.1000E+01                                            40280  3  979 
 1.0070E+01 2.6400E+01                                            40280  3  980 
 1.0080E+01 2.1900E+01                                            40280  3  981 
 1.0090E+01 2.7600E+01                                            40280  3  982 
 1.0100E+01 2.9900E+01                                            40280  3  983 
 1.0110E+01 2.7500E+01                                            40280  3  984 
 1.0120E+01 3.0000E+01                                            40280  3  985 
 1.0130E+01 3.4300E+01                                            40280  3  986 
 1.0140E+01 3.7600E+01                                            40280  3  987 
 1.0150E+01 3.9600E+01                                            40280  3  988 
 1.0160E+01 4.5300E+01                                            40280  3  989 
 1.0170E+01 5.0100E+01                                            40280  3  990 
 1.0180E+01 5.7000E+01                                            40280  3  991 
 1.0190E+01 6.8600E+01                                            40280  3  992 
 1.0200E+01 7.9300E+01                                            40280  3  993 
 1.0210E+01 9.7400E+01                                            40280  3  994 
 1.0220E+01 1.1370E+02                                            40280  3  995 
 1.0230E+01 1.3910E+02                                            40280  3  996 
 1.0240E+01 1.6500E+02                                            40280  3  997 
 1.0250E+01 1.8800E+02                                            40280  3  998 
 1.0260E+01 2.2680E+02                                            40280  3  999 
 1.0270E+01 2.6310E+02                                            40280  3 1000 
 1.0280E+01 3.4260E+02                                            40280  3 1001 
 1.0290E+01 3.4680E+02                                            40280  3 1002 
 1.0300E+01 3.9660E+02                                            40280  3 1003 
 1.0310E+01 3.9940E+02                                            40280  3 1004 
 1.0320E+01 3.8710E+02                                            40280  3 1005 
 1.0330E+01 4.0070E+02                                            40280  3 1006 
 1.0340E+01 3.6870E+02                                            40280  3 1007 
 1.0350E+01 3.6750E+02                                            40280  3 1008 
 1.0360E+01 3.3720E+02                                            40280  3 1009 
 1.0370E+01 3.1020E+02                                            40280  3 1010 
 1.0380E+01 2.7150E+02                                            40280  3 1011 
 1.0390E+01 2.4110E+02                                            40280  3 1012 
 1.0400E+01 2.1410E+02                                            40280  3 1013 
 1.0410E+01 1.8620E+02                                            40280  3 1014 
 1.0420E+01 1.7800E+02                                            40280  3 1015 
 1.0430E+01 1.5720E+02                                            40280  3 1016 
 1.0440E+01 1.3890E+02                                            40280  3 1017 
 1.0450E+01 1.1090E+02                                            40280  3 1018 
 1.0460E+01 9.7100E+01                                            40280  3 1019 
 1.0470E+01 8.3400E+01                                            40280  3 1020 
 1.0480E+01 7.3000E+01                                            40280  3 1021 
 1.0490E+01 5.9100E+01                                            40280  3 1022 
 1.0500E+01 5.2100E+01                                            40280  3 1023 
 1.0510E+01 4.6500E+01                                            40280  3 1024 
 1.0520E+01 4.0000E+01                                            40280  3 1025 
 1.0530E+01 3.6500E+01                                            40280  3 1026 
 1.0540E+01 3.3600E+01                                            40280  3 1027 
 1.0550E+01 3.1600E+01                                            40280  3 1028 
 1.0560E+01 2.5000E+01                                            40280  3 1029 
 1.0570E+01 2.3000E+01                                            40280  3 1030 
 1.0580E+01 2.5700E+01                                            40280  3 1031 
 1.0590E+01 2.4900E+01                                            40280  3 1032 
 1.0600E+01 2.3500E+01                                            40280  3 1033 
 1.0610E+01 2.1400E+01                                            40280  3 1034 
 1.0620E+01 2.1000E+01                                            40280  3 1035 
 1.0630E+01 2.3800E+01                                            40280  3 1036 
 1.0640E+01 2.0600E+01                                            40280  3 1037 
 1.0650E+01 2.5200E+01                                            40280  3 1038 
 1.0660E+01 1.6500E+01                                            40280  3 1039 
 1.0670E+01 1.8600E+01                                            40280  3 1040 
 1.0680E+01 1.8600E+01                                            40280  3 1041 
 1.0690E+01 1.8200E+01                                            40280  3 1042 
 1.0700E+01 1.9300E+01                                            40280  3 1043 
 1.0710E+01 2.1200E+01                                            40280  3 1044 
 1.0720E+01 1.6100E+01                                            40280  3 1045 
 1.0730E+01 1.8000E+01                                            40280  3 1046 
 1.0740E+01 2.0300E+01                                            40280  3 1047 
 1.0750E+01 1.9000E+01                                            40280  3 1048 
 1.0760E+01 1.7700E+01                                            40280  3 1049 
 1.0770E+01 1.9100E+01                                            40280  3 1050 
 1.0780E+01 2.1000E+01                                            40280  3 1051 
 1.0790E+01 1.6600E+01                                            40280  3 1052 
 1.0800E+01 1.9700E+01                                            40280  3 1053 
 1.0810E+01 1.9800E+01                                            40280  3 1054 
 1.0820E+01 1.8600E+01                                            40280  3 1055 
 1.0830E+01 2.2400E+01                                            40280  3 1056 
 1.0840E+01 2.5500E+01                                            40280  3 1057 
 1.0850E+01 2.7900E+01                                            40280  3 1058 
 1.0860E+01 2.5700E+01                                            40280  3 1059 
 1.0870E+01 3.0100E+01                                            40280  3 1060 
 1.0880E+01 3.0000E+01                                            40280  3 1061 
 1.0890E+01 3.1300E+01                                            40280  3 1062 
 1.0900E+01 2.9500E+01                                            40280  3 1063 
 1.0910E+01 3.1700E+01                                            40280  3 1064 
 1.0920E+01 2.9600E+01                                            40280  3 1065 
 1.0930E+01 2.7200E+01                                            40280  3 1066 
 1.0940E+01 3.1400E+01                                            40280  3 1067 
 1.0950E+01 2.8600E+01                                            40280  3 1068 
 1.0960E+01 2.5500E+01                                            40280  3 1069 
 1.0970E+01 2.8200E+01                                            40280  3 1070 
 1.0980E+01 2.6200E+01                                            40280  3 1071 
 1.0990E+01 2.6700E+01                                            40280  3 1072 
 1.1000E+01 2.3900E+01                                            40280  3 1073 
 1.1010E+01 2.4000E+01                                            40280  3 1074 
 1.1020E+01 2.4300E+01                                            40280  3 1075 
 1.1030E+01 2.7200E+01                                            40280  3 1076 
 1.1040E+01 2.7200E+01                                            40280  3 1077 
 1.1050E+01 2.4300E+01                                            40280  3 1078 
 1.1060E+01 2.2100E+01                                            40280  3 1079 
 1.1070E+01 2.4600E+01                                            40280  3 1080 
 1.1080E+01 2.4300E+01                                            40280  3 1081 
 1.1090E+01 3.0500E+01                                            40280  3 1082 
 1.1100E+01 2.9700E+01                                            40280  3 1083 
 1.1110E+01 2.8800E+01                                            40280  3 1084 
 1.1120E+01 3.1300E+01                                            40280  3 1085 
 1.1130E+01 3.5000E+01                                            40280  3 1086 
 1.1140E+01 3.8200E+01                                            40280  3 1087 
 1.1150E+01 4.3900E+01                                            40280  3 1088 
 1.1160E+01 4.6900E+01                                            40280  3 1089 
 1.1170E+01 5.6600E+01                                            40280  3 1090 
 1.1180E+01 7.2700E+01                                            40280  3 1091 
 1.1190E+01 8.0600E+01                                            40280  3 1092 
 1.1200E+01 9.5000E+01                                            40280  3 1093 
 1.1210E+01 1.0030E+02                                            40280  3 1094 
 1.1220E+01 1.2440E+02                                            40280  3 1095 
 1.1230E+01 1.5250E+02                                            40280  3 1096 
 1.1240E+01 1.7390E+02                                            40280  3 1097 
 1.1250E+01 2.0270E+02                                            40280  3 1098 
 1.1260E+01 2.2940E+02                                            40280  3 1099 
 1.1270E+01 2.4260E+02                                            40280  3 1100 
 1.1280E+01 2.5390E+02                                            40280  3 1101 
 1.1290E+01 2.5500E+02                                            40280  3 1102 
 1.1300E+01 2.5960E+02                                            40280  3 1103 
 1.1310E+01 2.5400E+02                                            40280  3 1104 
 1.1320E+01 2.4340E+02                                            40280  3 1105 
 1.1330E+01 2.2410E+02                                            40280  3 1106 
 1.1340E+01 2.0850E+02                                            40280  3 1107 
 1.1350E+01 1.8000E+02                                            40280  3 1108 
 1.1360E+01 1.5660E+02                                            40280  3 1109 
 1.1370E+01 1.4900E+02                                            40280  3 1110 
 1.1380E+01 1.3150E+02                                            40280  3 1111 
 1.1390E+01 1.1240E+02                                            40280  3 1112 
 1.1400E+01 9.3800E+01                                            40280  3 1113 
 1.1410E+01 7.4600E+01                                            40280  3 1114 
 1.1420E+01 6.6400E+01                                            40280  3 1115 
 1.1430E+01 5.1200E+01                                            40280  3 1116 
 1.1440E+01 4.9000E+01                                            40280  3 1117 
 1.1450E+01 4.6900E+01                                            40280  3 1118 
 1.1460E+01 3.8400E+01                                            40280  3 1119 
 1.1470E+01 3.7300E+01                                            40280  3 1120 
 1.1480E+01 3.5400E+01                                            40280  3 1121 
 1.1490E+01 3.0300E+01                                            40280  3 1122 
 1.1500E+01 2.6300E+01                                            40280  3 1123 
 1.1510E+01 2.6000E+01                                            40280  3 1124 
 1.1520E+01 2.6100E+01                                            40280  3 1125 
 1.1530E+01 3.1300E+01                                            40280  3 1126 
 1.1540E+01 2.6000E+01                                            40280  3 1127 
 1.1550E+01 2.9800E+01                                            40280  3 1128 
 1.1560E+01 2.7700E+01                                            40280  3 1129 
 1.1570E+01 2.9000E+01                                            40280  3 1130 
 1.1580E+01 3.3000E+01                                            40280  3 1131 
 1.1590E+01 3.6700E+01                                            40280  3 1132 
 1.1600E+01 4.1400E+01                                            40280  3 1133 
 1.1610E+01 4.4200E+01                                            40280  3 1134 
 1.1620E+01 5.4700E+01                                            40280  3 1135 
 1.1630E+01 6.0800E+01                                            40280  3 1136 
 1.1640E+01 6.5000E+01                                            40280  3 1137 
 1.1650E+01 7.2000E+01                                            40280  3 1138 
 1.1660E+01 8.2400E+01                                            40280  3 1139 
 1.1670E+01 8.8800E+01                                            40280  3 1140 
 1.1680E+01 1.0100E+02                                            40280  3 1141 
 1.1690E+01 1.0650E+02                                            40280  3 1142 
 1.1700E+01 1.0980E+02                                            40280  3 1143 
 1.1710E+01 1.0500E+02                                            40280  3 1144 
 1.1720E+01 1.0290E+02                                            40280  3 1145 
 1.1730E+01 1.0520E+02                                            40280  3 1146 
 1.1740E+01 9.2900E+01                                            40280  3 1147 
 1.1750E+01 8.8100E+01                                            40280  3 1148 
 1.1760E+01 7.9000E+01                                            40280  3 1149 
 1.1770E+01 7.7100E+01                                            40280  3 1150 
 1.1780E+01 7.0700E+01                                            40280  3 1151 
 1.1790E+01 5.6500E+01                                            40280  3 1152 
 1.1800E+01 4.8700E+01                                            40280  3 1153 
 1.1810E+01 4.7000E+01                                            40280  3 1154 
 1.1820E+01 4.5600E+01                                            40280  3 1155 
 1.1830E+01 3.8200E+01                                            40280  3 1156 
 1.1840E+01 3.4400E+01                                            40280  3 1157 
 1.1850E+01 3.0800E+01                                            40280  3 1158 
 1.1860E+01 2.6900E+01                                            40280  3 1159 
 1.1870E+01 2.7000E+01                                            40280  3 1160 
 1.1880E+01 2.8300E+01                                            40280  3 1161 
 1.1890E+01 2.6100E+01                                            40280  3 1162 
 1.1900E+01 2.3500E+01                                            40280  3 1163 
 1.1910E+01 2.2200E+01                                            40280  3 1164 
 1.1920E+01 2.2000E+01                                            40280  3 1165 
 1.1930E+01 2.3000E+01                                            40280  3 1166 
 1.1940E+01 2.3500E+01                                            40280  3 1167 
 1.1950E+01 2.5000E+01                                            40280  3 1168 
 1.1960E+01 2.6000E+01                                            40280  3 1169 
 1.1970E+01 2.5000E+01                                            40280  3 1170 
 1.1980E+01 2.9000E+01                                            40280  3 1171 
 1.1990E+01 2.8200E+01                                            40280  3 1172 
 1.2000E+01 3.1400E+01                                            40280  3 1173 
 1.2010E+01 4.0500E+01                                            40280  3 1174 
 1.2020E+01 4.3000E+01                                            40280  3 1175 
 1.2030E+01 4.5000E+01                                            40280  3 1176 
 1.2040E+01 5.5700E+01                                            40280  3 1177 
 1.2050E+01 6.2000E+01                                            40280  3 1178 
 1.2060E+01 7.3200E+01                                            40280  3 1179 
 1.2070E+01 7.8000E+01                                            40280  3 1180 
 1.2080E+01 8.8800E+01                                            40280  3 1181 
 1.2090E+01 1.0350E+02                                            40280  3 1182 
 1.2100E+01 1.2090E+02                                            40280  3 1183 
 1.2110E+01 1.3460E+02                                            40280  3 1184 
 1.2120E+01 1.3800E+02                                            40280  3 1185 
 1.2130E+01 1.4490E+02                                            40280  3 1186 
 1.2140E+01 1.5020E+02                                            40280  3 1187 
 1.2150E+01 1.4770E+02                                            40280  3 1188 
 1.2160E+01 1.4900E+02                                            40280  3 1189 
 1.2170E+01 1.5280E+02                                            40280  3 1190 
 1.2180E+01 1.4050E+02                                            40280  3 1191 
 1.2190E+01 1.2900E+02                                            40280  3 1192 
 1.2200E+01 8.6200E+01                                            40280  3 1193 
 1.2210E+01 9.0000E+01                                            40280  3 1194 
 1.2220E+01 1.0030E+02                                            40280  3 1195 
 1.2230E+01 8.1800E+01                                            40280  3 1196 
 1.2240E+01 6.9400E+01                                            40280  3 1197 
 1.2250E+01 6.2200E+01                                            40280  3 1198 
 1.2260E+01 5.5000E+01                                            40280  3 1199 
 1.2270E+01 5.1800E+01                                            40280  3 1200 
 1.2280E+01 4.2800E+01                                            40280  3 1201 
 1.2290E+01 3.8000E+01                                            40280  3 1202 
 1.2300E+01 3.3300E+01                                            40280  3 1203 
 1.2310E+01 3.1000E+01                                            40280  3 1204 
 1.2320E+01 3.2100E+01                                            40280  3 1205 
 1.2330E+01 2.8800E+01                                            40280  3 1206 
 1.2340E+01 2.8000E+01                                            40280  3 1207 
 1.2350E+01 2.7900E+01                                            40280  3 1208 
 1.2360E+01 3.0100E+01                                            40280  3 1209 
 1.2370E+01 2.6900E+01                                            40280  3 1210 
 1.2380E+01 2.4800E+01                                            40280  3 1211 
 1.2390E+01 2.6000E+01                                            40280  3 1212 
 1.2400E+01 2.8400E+01                                            40280  3 1213 
 1.2410E+01 2.3200E+01                                            40280  3 1214 
 1.2420E+01 2.7100E+01                                            40280  3 1215 
 1.2430E+01 2.5000E+01                                            40280  3 1216 
 1.2440E+01 2.4700E+01                                            40280  3 1217 
 1.2450E+01 2.7800E+01                                            40280  3 1218 
 1.2460E+01 2.7600E+01                                            40280  3 1219 
 1.2470E+01 2.7000E+01                                            40280  3 1220 
 1.2480E+01 2.7700E+01                                            40280  3 1221 
 1.2490E+01 2.7800E+01                                            40280  3 1222 
 1.2500E+01 3.0200E+01                                            40280  3 1223 
 1.2510E+01 3.0000E+01                                            40280  3 1224 
 1.2520E+01 3.1500E+01                                            40280  3 1225 
 1.2530E+01 3.3800E+01                                            40280  3 1226 
 1.2540E+01 3.2500E+01                                            40280  3 1227 
 1.2550E+01 3.8000E+01                                            40280  3 1228 
 1.2560E+01 4.0200E+01                                            40280  3 1229 
 1.2570E+01 4.1500E+01                                            40280  3 1230 
 1.2580E+01 3.7400E+01                                            40280  3 1231 
 1.2590E+01 4.0000E+01                                            40280  3 1232 
 1.2600E+01 4.3300E+01                                            40280  3 1233 
 1.2610E+01 4.4300E+01                                            40280  3 1234 
 1.2620E+01 4.8700E+01                                            40280  3 1235 
 1.2640E+01 5.2000E+01                                            40280  3 1236 
 1.2650E+01 5.9700E+01                                            40280  3 1237 
 1.2660E+01 6.6400E+01                                            40280  3 1238 
 1.2680E+01 7.3000E+01                                            40280  3 1239 
 1.2690E+01 9.0200E+01                                            40280  3 1240 
 1.2710E+01 9.8700E+01                                            40280  3 1241 
 1.2720E+01 1.1540E+02                                            40280  3 1242 
 1.2730E+01 1.4120E+02                                            40280  3 1243 
 1.2740E+01 1.7260E+02                                            40280  3 1244 
 1.2760E+01 2.1330E+02                                            40280  3 1245 
 1.2770E+01 2.6700E+02                                            40280  3 1246 
 1.2790E+01 3.1360E+02                                            40280  3 1247 
 1.2800E+01 3.9670E+02                                            40280  3 1248 
 1.2820E+01 4.6070E+02                                            40280  3 1249 
 1.2830E+01 5.3870E+02                                            40280  3 1250 
 1.2840E+01 6.1650E+02                                            40280  3 1251 
 1.2860E+01 6.6500E+02                                            40280  3 1252 
 1.2870E+01 6.2940E+02                                            40280  3 1253 
 1.2880E+01 6.7660E+02                                            40280  3 1254 
 1.2900E+01 5.9020E+02                                            40280  3 1255 
 1.2910E+01 6.5610E+02                                            40280  3 1256 
 1.2930E+01 5.7690E+02                                            40280  3 1257 
 1.2940E+01 6.7490E+02                                            40280  3 1258 
 1.2950E+01 8.0070E+02                                            40280  3 1259 
 1.2970E+01 5.8630E+02                                            40280  3 1260 
 1.2980E+01 8.5240E+02                                            40280  3 1261 
 1.3000E+01 5.0940E+02                                            40280  3 1262 
 1.3010E+01 4.5640E+02                                            40280  3 1263 
 1.3020E+01 4.4790E+02                                            40280  3 1264 
 1.3040E+01 4.1940E+02                                            40280  3 1265 
 1.3050E+01 4.1720E+02                                            40280  3 1266 
 1.3070E+01 4.0240E+02                                            40280  3 1267 
 1.3080E+01 4.3060E+02                                            40280  3 1268 
 1.3100E+01 4.2860E+02                                            40280  3 1269 
 1.3110E+01 4.3140E+02                                            40280  3 1270 
 1.3120E+01 5.0020E+02                                            40280  3 1271 
 1.3140E+01 5.3720E+02                                            40280  3 1272 
 1.3150E+01 5.5630E+02                                            40280  3 1273 
 1.3170E+01 5.1070E+02                                            40280  3 1274 
 1.3180E+01 5.0380E+02                                            40280  3 1275 
 1.3200E+01 5.3380E+02                                            40280  3 1276 
 1.3210E+01 4.8620E+02                                            40280  3 1277 
 1.3220E+01 4.7360E+02                                            40280  3 1278 
 1.3240E+01 4.3900E+02                                            40280  3 1279 
 1.3250E+01 3.7750E+02                                            40280  3 1280 
 1.3270E+01 3.3570E+02                                            40280  3 1281 
 1.3280E+01 2.8220E+02                                            40280  3 1282 
 1.3300E+01 2.3260E+02                                            40280  3 1283 
 1.3310E+01 1.9540E+02                                            40280  3 1284 
 1.3330E+01 1.6100E+02                                            40280  3 1285 
 1.3340E+01 1.3550E+02                                            40280  3 1286 
 1.3360E+01 1.1310E+02                                            40280  3 1287 
 1.3370E+01 9.4900E+01                                            40280  3 1288 
 1.3390E+01 7.7400E+01                                            40280  3 1289 
 1.3400E+01 7.0500E+01                                            40280  3 1290 
 1.3410E+01 6.4600E+01                                            40280  3 1291 
 1.3430E+01 5.8600E+01                                            40280  3 1292 
 1.3440E+01 4.9100E+01                                            40280  3 1293 
 1.3460E+01 4.7300E+01                                            40280  3 1294 
 1.3470E+01 4.4900E+01                                            40280  3 1295 
 1.3490E+01 4.0200E+01                                            40280  3 1296 
 1.3500E+01 4.3200E+01                                            40280  3 1297 
 1.3520E+01 3.9200E+01                                            40280  3 1298 
 1.3530E+01 3.8500E+01                                            40280  3 1299 
 1.3550E+01 3.6300E+01                                            40280  3 1300 
 1.3560E+01 3.2300E+01                                            40280  3 1301 
 1.3580E+01 3.1000E+01                                            40280  3 1302 
 1.3590E+01 2.9100E+01                                            40280  3 1303 
 1.3610E+01 2.8300E+01                                            40280  3 1304 
 1.3620E+01 2.8600E+01                                            40280  3 1305 
 1.3640E+01 3.0800E+01                                            40280  3 1306 
 1.3650E+01 2.6100E+01                                            40280  3 1307 
 1.3670E+01 2.6600E+01                                            40280  3 1308 
 1.3680E+01 2.6400E+01                                            40280  3 1309 
 1.3700E+01 2.5700E+01                                            40280  3 1310 
 1.3720E+01 2.5800E+01                                            40280  3 1311 
 1.3730E+01 2.1800E+01                                            40280  3 1312 
 1.3750E+01 2.4100E+01                                            40280  3 1313 
 1.3760E+01 2.3300E+01                                            40280  3 1314 
 1.3780E+01 2.1600E+01                                            40280  3 1315 
 1.3790E+01 2.0300E+01                                            40280  3 1316 
 1.3810E+01 2.1900E+01                                            40280  3 1317 
 1.3820E+01 2.4900E+01                                            40280  3 1318 
 1.3840E+01 1.8600E+01                                            40280  3 1319 
 1.3850E+01 2.1000E+01                                            40280  3 1320 
 1.3870E+01 2.3700E+01                                            40280  3 1321 
 1.3880E+01 2.0300E+01                                            40280  3 1322 
 1.3900E+01 2.0900E+01                                            40280  3 1323 
 1.3920E+01 1.9700E+01                                            40280  3 1324 
 1.3930E+01 1.8400E+01                                            40280  3 1325 
 1.3950E+01 1.8300E+01                                            40280  3 1326 
 1.3960E+01 1.9400E+01                                            40280  3 1327 
 1.3980E+01 2.0800E+01                                            40280  3 1328 
 1.3990E+01 1.7300E+01                                            40280  3 1329 
 1.4010E+01 2.0200E+01                                            40280  3 1330 
 1.4030E+01 1.7700E+01                                            40280  3 1331 
 1.4040E+01 1.8600E+01                                            40280  3 1332 
 1.4060E+01 1.5300E+01                                            40280  3 1333 
 1.4070E+01 1.6800E+01                                            40280  3 1334 
 1.4090E+01 1.8200E+01                                            40280  3 1335 
 1.4110E+01 1.7100E+01                                            40280  3 1336 
 1.4120E+01 1.9200E+01                                            40280  3 1337 
 1.4140E+01 1.5300E+01                                            40280  3 1338 
 1.4150E+01 1.7100E+01                                            40280  3 1339 
 1.4170E+01 1.6100E+01                                            40280  3 1340 
 1.4190E+01 1.4900E+01                                            40280  3 1341 
 1.4200E+01 1.5700E+01                                            40280  3 1342 
 1.4220E+01 1.5600E+01                                            40280  3 1343 
 1.4230E+01 1.6200E+01                                            40280  3 1344 
 1.4250E+01 1.6200E+01                                            40280  3 1345 
 1.4270E+01 1.7000E+01                                            40280  3 1346 
 1.4280E+01 1.3800E+01                                            40280  3 1347 
 1.4300E+01 1.7700E+01                                            40280  3 1348 
 1.4310E+01 1.5900E+01                                            40280  3 1349 
 1.4330E+01 1.8300E+01                                            40280  3 1350 
 1.4350E+01 1.6900E+01                                            40280  3 1351 
 1.4360E+01 1.5800E+01                                            40280  3 1352 
 1.4380E+01 1.8900E+01                                            40280  3 1353 
 1.4400E+01 1.6700E+01                                            40280  3 1354 
 1.4410E+01 1.5400E+01                                            40280  3 1355 
 1.4430E+01 1.4600E+01                                            40280  3 1356 
 1.4450E+01 1.5900E+01                                            40280  3 1357 
 1.4460E+01 1.9100E+01                                            40280  3 1358 
 1.4480E+01 1.5600E+01                                            40280  3 1359 
 1.4500E+01 1.5200E+01                                            40280  3 1360 
 1.4510E+01 1.6900E+01                                            40280  3 1361 
 1.4530E+01 1.5600E+01                                            40280  3 1362 
 1.4550E+01 1.5200E+01                                            40280  3 1363 
 1.4560E+01 1.5600E+01                                            40280  3 1364 
 1.4580E+01 1.6600E+01                                            40280  3 1365 
 1.4600E+01 1.7800E+01                                            40280  3 1366 
 1.4610E+01 1.4800E+01                                            40280  3 1367 
 1.4630E+01 2.1200E+01                                            40280  3 1368 
 1.4650E+01 2.1700E+01                                            40280  3 1369 
 1.4660E+01 2.2900E+01                                            40280  3 1370 
 1.4680E+01 2.2600E+01                                            40280  3 1371 
 1.4700E+01 2.2500E+01                                            40280  3 1372 
 1.4710E+01 2.1500E+01                                            40280  3 1373 
 1.4730E+01 2.1700E+01                                            40280  3 1374 
 1.4750E+01 2.1800E+01                                            40280  3 1375 
 1.4760E+01 2.0500E+01                                            40280  3 1376 
 1.4780E+01 2.0400E+01                                            40280  3 1377 
 1.4800E+01 2.3200E+01                                            40280  3 1378 
 1.4820E+01 1.8300E+01                                            40280  3 1379 
 1.4830E+01 2.2900E+01                                            40280  3 1380 
 1.4850E+01 2.1700E+01                                            40280  3 1381 
 1.4870E+01 2.0000E+01                                            40280  3 1382 
 1.4880E+01 2.0100E+01                                            40280  3 1383 
 1.4900E+01 2.1000E+01                                            40280  3 1384 
 1.4920E+01 2.0000E+01                                            40280  3 1385 
 1.4940E+01 2.4300E+01                                            40280  3 1386 
 1.4950E+01 2.4100E+01                                            40280  3 1387 
 1.4970E+01 2.6200E+01                                            40280  3 1388 
 1.4990E+01 2.8100E+01                                            40280  3 1389 
 1.5010E+01 3.2300E+01                                            40280  3 1390 
 1.5020E+01 3.6700E+01                                            40280  3 1391 
 1.5040E+01 4.3200E+01                                            40280  3 1392 
 1.5060E+01 4.8800E+01                                            40280  3 1393 
 1.5080E+01 5.8800E+01                                            40280  3 1394 
 1.5090E+01 6.2700E+01                                            40280  3 1395 
 1.5110E+01 7.0600E+01                                            40280  3 1396 
 1.5130E+01 7.4900E+01                                            40280  3 1397 
 1.5150E+01 7.7500E+01                                            40280  3 1398 
 1.5160E+01 8.1100E+01                                            40280  3 1399 
 1.5180E+01 8.1900E+01                                            40280  3 1400 
 1.5200E+01 8.8600E+01                                            40280  3 1401 
 1.5220E+01 9.6000E+01                                            40280  3 1402 
 1.5240E+01 1.1400E+02                                            40280  3 1403 
 1.5250E+01 1.3730E+02                                            40280  3 1404 
 1.5270E+01 1.6690E+02                                            40280  3 1405 
 1.5290E+01 2.0330E+02                                            40280  3 1406 
 1.5310E+01 2.5250E+02                                            40280  3 1407 
 1.5330E+01 3.1350E+02                                            40280  3 1408 
 1.5340E+01 3.7100E+02                                            40280  3 1409 
 1.5360E+01 4.2470E+02                                            40280  3 1410 
 1.5380E+01 4.6710E+02                                            40280  3 1411 
 1.5400E+01 4.7990E+02                                            40280  3 1412 
 1.5420E+01 4.4880E+02                                            40280  3 1413 
 1.5430E+01 4.3390E+02                                            40280  3 1414 
 1.5450E+01 3.9540E+02                                            40280  3 1415 
 1.5470E+01 3.4240E+02                                            40280  3 1416 
 1.5490E+01 2.8020E+02                                            40280  3 1417 
 1.5510E+01 2.2910E+02                                            40280  3 1418 
 1.5530E+01 1.8550E+02                                            40280  3 1419 
 1.5540E+01 1.4980E+02                                            40280  3 1420 
 1.5560E+01 1.1870E+02                                            40280  3 1421 
 1.5580E+01 9.4400E+01                                            40280  3 1422 
 1.5600E+01 7.3800E+01                                            40280  3 1423 
 1.5620E+01 5.9300E+01                                            40280  3 1424 
 1.5640E+01 5.2000E+01                                            40280  3 1425 
 1.5660E+01 4.6000E+01                                            40280  3 1426 
 1.5670E+01 3.8700E+01                                            40280  3 1427 
 1.5690E+01 3.5000E+01                                            40280  3 1428 
 1.5710E+01 3.3900E+01                                            40280  3 1429 
 1.5730E+01 2.9700E+01                                            40280  3 1430 
 1.5750E+01 2.9500E+01                                            40280  3 1431 
 1.5770E+01 2.8300E+01                                            40280  3 1432 
 1.5790E+01 2.8400E+01                                            40280  3 1433 
 1.5810E+01 2.6400E+01                                            40280  3 1434 
 1.5820E+01 2.5200E+01                                            40280  3 1435 
 1.5840E+01 2.6500E+01                                            40280  3 1436 
 1.5860E+01 2.6000E+01                                            40280  3 1437 
 1.5880E+01 2.5700E+01                                            40280  3 1438 
 1.5900E+01 2.4000E+01                                            40280  3 1439 
 1.5920E+01 2.6500E+01                                            40280  3 1440 
 1.5940E+01 2.7900E+01                                            40280  3 1441 
 1.5960E+01 2.5100E+01                                            40280  3 1442 
 1.5980E+01 2.7100E+01                                            40280  3 1443 
 1.6000E+01 3.4200E+01                                            40280  3 1444 
 1.6020E+01 3.8800E+01                                            40280  3 1445 
 1.6040E+01 4.8200E+01                                            40280  3 1446 
 1.6050E+01 5.8000E+01                                            40280  3 1447 
 1.6070E+01 8.0600E+01                                            40280  3 1448 
 1.6090E+01 9.6000E+01                                            40280  3 1449 
 1.6110E+01 1.2610E+02                                            40280  3 1450 
 1.6130E+01 1.5650E+02                                            40280  3 1451 
 1.6150E+01 1.9350E+02                                            40280  3 1452 
 1.6170E+01 2.2110E+02                                            40280  3 1453 
 1.6190E+01 2.4090E+02                                            40280  3 1454 
 1.6210E+01 2.5840E+02                                            40280  3 1455 
 1.6230E+01 2.5820E+02                                            40280  3 1456 
 1.6250E+01 2.3900E+02                                            40280  3 1457 
 1.6270E+01 2.0360E+02                                            40280  3 1458 
 1.6290E+01 1.6540E+02                                            40280  3 1459 
 1.6310E+01 1.3910E+02                                            40280  3 1460 
 1.6330E+01 1.1460E+02                                            40280  3 1461 
 1.6350E+01 9.2600E+01                                            40280  3 1462 
 1.6370E+01 7.6100E+01                                            40280  3 1463 
 1.6390E+01 6.2400E+01                                            40280  3 1464 
 1.6410E+01 5.8300E+01                                            40280  3 1465 
 1.6430E+01 5.5600E+01                                            40280  3 1466 
 1.6450E+01 5.7500E+01                                            40280  3 1467 
 1.6470E+01 6.7100E+01                                            40280  3 1468 
 1.6490E+01 7.4700E+01                                            40280  3 1469 
 1.6510E+01 8.6100E+01                                            40280  3 1470 
 1.6530E+01 9.8100E+01                                            40280  3 1471 
 1.6550E+01 1.0640E+02                                            40280  3 1472 
 1.6570E+01 1.1040E+02                                            40280  3 1473 
 1.6590E+01 1.1170E+02                                            40280  3 1474 
 1.6610E+01 1.0290E+02                                            40280  3 1475 
 1.6630E+01 8.8900E+01                                            40280  3 1476 
 1.6650E+01 8.1400E+01                                            40280  3 1477 
 1.6670E+01 6.5300E+01                                            40280  3 1478 
 1.6690E+01 5.3500E+01                                            40280  3 1479 
 1.6710E+01 4.3500E+01                                            40280  3 1480 
 1.6730E+01 3.8600E+01                                            40280  3 1481 
 1.6750E+01 2.8400E+01                                            40280  3 1482 
 1.6770E+01 2.3600E+01                                            40280  3 1483 
 1.6790E+01 2.2100E+01                                            40280  3 1484 
 1.6820E+01 2.1900E+01                                            40280  3 1485 
 1.6840E+01 1.9800E+01                                            40280  3 1486 
 1.6860E+01 1.8900E+01                                            40280  3 1487 
 1.6880E+01 1.6400E+01                                            40280  3 1488 
 1.6900E+01 1.6100E+01                                            40280  3 1489 
 1.6920E+01 1.8000E+01                                            40280  3 1490 
 1.6940E+01 1.6800E+01                                            40280  3 1491 
 1.6960E+01 1.8100E+01                                            40280  3 1492 
 1.6980E+01 1.5200E+01                                            40280  3 1493 
 1.7000E+01 1.7700E+01                                            40280  3 1494 
 1.7020E+01 1.7200E+01                                            40280  3 1495 
 1.7050E+01 1.5500E+01                                            40280  3 1496 
 1.7070E+01 1.4200E+01                                            40280  3 1497 
 1.7090E+01 1.4600E+01                                            40280  3 1498 
 1.7110E+01 1.6700E+01                                            40280  3 1499 
 1.7130E+01 1.5800E+01                                            40280  3 1500 
 1.7150E+01 1.6100E+01                                            40280  3 1501 
 1.7170E+01 1.6000E+01                                            40280  3 1502 
 1.7200E+01 1.6700E+01                                            40280  3 1503 
 1.7220E+01 1.7600E+01                                            40280  3 1504 
 1.7240E+01 1.6400E+01                                            40280  3 1505 
 1.7260E+01 1.5300E+01                                            40280  3 1506 
 1.7280E+01 1.5400E+01                                            40280  3 1507 
 1.7300E+01 1.4400E+01                                            40280  3 1508 
 1.7320E+01 1.4200E+01                                            40280  3 1509 
 1.7350E+01 1.4900E+01                                            40280  3 1510 
 1.7370E+01 1.2800E+01                                            40280  3 1511 
 1.7390E+01 1.4100E+01                                            40280  3 1512 
 1.7410E+01 1.4200E+01                                            40280  3 1513 
 1.7430E+01 1.3900E+01                                            40280  3 1514 
 1.7460E+01 1.3000E+01                                            40280  3 1515 
 1.7480E+01 1.2500E+01                                            40280  3 1516 
 1.7500E+01 1.5300E+01                                            40280  3 1517 
 1.7520E+01 1.3300E+01                                            40280  3 1518 
 1.7540E+01 1.6000E+01                                            40280  3 1519 
 1.7570E+01 1.7500E+01                                            40280  3 1520 
 1.7590E+01 1.5500E+01                                            40280  3 1521 
 1.7610E+01 1.3200E+01                                            40280  3 1522 
 1.7630E+01 1.9100E+01                                            40280  3 1523 
 1.7650E+01 2.2800E+01                                            40280  3 1524 
 1.7680E+01 2.3400E+01                                            40280  3 1525 
 1.7700E+01 2.9700E+01                                            40280  3 1526 
 1.7720E+01 3.6400E+01                                            40280  3 1527 
 1.7740E+01 4.9700E+01                                            40280  3 1528 
 1.7770E+01 5.9300E+01                                            40280  3 1529 
 1.7790E+01 7.3000E+01                                            40280  3 1530 
 1.7810E+01 8.9900E+01                                            40280  3 1531 
 1.7830E+01 9.6900E+01                                            40280  3 1532 
 1.7860E+01 1.0600E+02                                            40280  3 1533 
 1.7880E+01 1.0730E+02                                            40280  3 1534 
 1.7900E+01 9.7800E+01                                            40280  3 1535 
 1.7930E+01 9.0200E+01                                            40280  3 1536 
 1.7950E+01 7.8000E+01                                            40280  3 1537 
 1.7970E+01 6.2700E+01                                            40280  3 1538 
 1.7990E+01 5.2300E+01                                            40280  3 1539 
 1.8020E+01 4.5000E+01                                            40280  3 1540 
 1.8040E+01 3.9000E+01                                            40280  3 1541 
 1.8060E+01 3.6300E+01                                            40280  3 1542 
 1.8090E+01 3.3900E+01                                            40280  3 1543 
 1.8110E+01 3.5100E+01                                            40280  3 1544 
 1.8130E+01 3.5700E+01                                            40280  3 1545 
 1.8160E+01 3.4400E+01                                            40280  3 1546 
 1.8180E+01 3.4600E+01                                            40280  3 1547 
 1.8200E+01 3.4400E+01                                            40280  3 1548 
 1.8220E+01 2.9900E+01                                            40280  3 1549 
 1.8250E+01 2.7000E+01                                            40280  3 1550 
 1.8270E+01 2.5500E+01                                            40280  3 1551 
 1.8300E+01 2.1500E+01                                            40280  3 1552 
 1.8320E+01 1.9200E+01                                            40280  3 1553 
 1.8340E+01 1.6300E+01                                            40280  3 1554 
 1.8370E+01 1.5600E+01                                            40280  3 1555 
 1.8390E+01 1.6900E+01                                            40280  3 1556 
 1.8410E+01 1.1500E+01                                            40280  3 1557 
 1.8440E+01 1.3400E+01                                            40280  3 1558 
 1.8460E+01 1.3900E+01                                            40280  3 1559 
 1.8490E+01 1.2300E+01                                            40280  3 1560 
 1.8510E+01 1.5500E+01                                            40280  3 1561 
 1.8530E+01 1.4600E+01                                            40280  3 1562 
 1.8560E+01 1.0100E+01                                            40280  3 1563 
 1.8580E+01 1.1600E+01                                            40280  3 1564 
 1.8610E+01 1.2300E+01                                            40280  3 1565 
 1.8630E+01 1.4800E+01                                            40280  3 1566 
 1.8650E+01 1.3200E+01                                            40280  3 1567 
 1.8680E+01 1.2500E+01                                            40280  3 1568 
 1.8700E+01 1.1400E+01                                            40280  3 1569 
 1.8730E+01 1.2000E+01                                            40280  3 1570 
 1.8750E+01 1.5800E+01                                            40280  3 1571 
 1.8780E+01 1.1200E+01                                            40280  3 1572 
 1.8800E+01 1.2000E+01                                            40280  3 1573 
 1.8820E+01 1.1100E+01                                            40280  3 1574 
 1.8850E+01 1.1100E+01                                            40280  3 1575 
 1.8870E+01 1.2200E+01                                            40280  3 1576 
 1.8900E+01 1.2700E+01                                            40280  3 1577 
 1.8920E+01 1.4600E+01                                            40280  3 1578 
 1.8940E+01 1.0000E+01                                            40280  3 1579 
 1.8970E+01 1.0500E+01                                            40280  3 1580 
 1.9000E+01 1.1100E+01                                            40280  3 1581 
 1.9020E+01 1.1500E+01                                            40280  3 1582 
 1.9050E+01 1.2400E+01                                            40280  3 1583 
 1.9070E+01 1.1900E+01                                            40280  3 1584 
 1.9100E+01 1.4000E+01                                            40280  3 1585 
 1.9120E+01 1.3900E+01                                            40280  3 1586 
 1.9140E+01 1.3300E+01                                            40280  3 1587 
 1.9170E+01 1.2400E+01                                            40280  3 1588 
 1.9200E+01 1.5700E+01                                            40280  3 1589 
 1.9220E+01 1.4000E+01                                            40280  3 1590 
 1.9250E+01 1.7000E+01                                            40280  3 1591 
 1.9270E+01 1.6700E+01                                            40280  3 1592 
 1.9300E+01 1.9300E+01                                            40280  3 1593 
 1.9330E+01 2.0600E+01                                            40280  3 1594 
 1.9350E+01 2.6400E+01                                            40280  3 1595 
 1.9380E+01 3.2700E+01                                            40280  3 1596 
 1.9400E+01 4.1300E+01                                            40280  3 1597 
 1.9430E+01 5.3900E+01                                            40280  3 1598 
 1.9450E+01 6.7300E+01                                            40280  3 1599 
 1.9480E+01 7.8500E+01                                            40280  3 1600 
 1.9510E+01 8.8600E+01                                            40280  3 1601 
 1.9530E+01 9.4800E+01                                            40280  3 1602 
 1.9550E+01 8.9600E+01                                            40280  3 1603 
 1.9580E+01 8.4800E+01                                            40280  3 1604 
 1.9610E+01 7.4200E+01                                            40280  3 1605 
 1.9640E+01 6.3100E+01                                            40280  3 1606 
 1.9660E+01 4.9800E+01                                            40280  3 1607 
 1.9690E+01 4.0100E+01                                            40280  3 1608 
 1.9710E+01 3.1300E+01                                            40280  3 1609 
 1.9740E+01 3.0700E+01                                            40280  3 1610 
 1.9770E+01 3.0100E+01                                            40280  3 1611 
 1.9790E+01 3.4200E+01                                            40280  3 1612 
 1.9820E+01 3.7100E+01                                            40280  3 1613 
 1.9850E+01 4.2800E+01                                            40280  3 1614 
 1.9870E+01 4.2700E+01                                            40280  3 1615 
 1.9900E+01 4.8700E+01                                            40280  3 1616 
 1.9930E+01 4.4600E+01                                            40280  3 1617 
 1.9950E+01 4.4700E+01                                            40280  3 1618 
 1.9980E+01 3.9200E+01                                            40280  3 1619 
 2.0000E+01 3.3000E+01                                            40280  3 1620 
 2.0030E+01 3.0600E+01                                            40280  3 1621 
 2.0060E+01 2.3600E+01                                            40280  3 1622 
 2.0090E+01 2.1000E+01                                            40280  3 1623 
 2.0110E+01 1.7100E+01                                            40280  3 1624 
 2.0140E+01 1.7100E+01                                            40280  3 1625 
 2.0170E+01 1.4900E+01                                            40280  3 1626 
 2.0200E+01 1.3900E+01                                            40280  3 1627 
 2.0220E+01 1.8700E+01                                            40280  3 1628 
 2.0250E+01 1.4600E+01                                            40280  3 1629 
 2.0280E+01 1.0200E+01                                            40280  3 1630 
 2.0300E+01 1.3100E+01                                            40280  3 1631 
 2.0330E+01 1.2800E+01                                            40280  3 1632 
 2.0360E+01 1.4200E+01                                            40280  3 1633 
 2.0390E+01 1.5800E+01                                            40280  3 1634 
 2.0420E+01 1.5500E+01                                            40280  3 1635 
 2.0440E+01 1.5300E+01                                            40280  3 1636 
 2.0470E+01 1.5900E+01                                            40280  3 1637 
 2.0500E+01 1.4000E+01                                            40280  3 1638 
 2.0530E+01 1.7000E+01                                            40280  3 1639 
 2.0560E+01 1.6700E+01                                            40280  3 1640 
 2.0580E+01 1.7800E+01                                            40280  3 1641 
 2.0610E+01 1.6100E+01                                            40280  3 1642 
 2.0640E+01 1.8500E+01                                            40280  3 1643 
 2.0670E+01 1.9800E+01                                            40280  3 1644 
 2.0690E+01 2.2000E+01                                            40280  3 1645 
 2.0720E+01 2.6400E+01                                            40280  3 1646 
 2.0750E+01 3.3800E+01                                            40280  3 1647 
 2.0780E+01 4.2300E+01                                            40280  3 1648 
 2.0810E+01 5.6400E+01                                            40280  3 1649 
 2.0840E+01 7.7900E+01                                            40280  3 1650 
 2.0870E+01 1.0210E+02                                            40280  3 1651 
 2.0900E+01 1.3120E+02                                            40280  3 1652 
 2.0930E+01 1.6600E+02                                            40280  3 1653 
 2.0950E+01 2.0710E+02                                            40280  3 1654 
 2.0980E+01 2.4460E+02                                            40280  3 1655 
 2.1010E+01 2.9380E+02                                            40280  3 1656 
 2.1040E+01 3.2680E+02                                            40280  3 1657 
 2.1070E+01 3.4850E+02                                            40280  3 1658 
 2.1100E+01 3.4000E+02                                            40280  3 1659 
 2.1130E+01 3.1390E+02                                            40280  3 1660 
 2.1160E+01 2.6130E+02                                            40280  3 1661 
 2.1190E+01 2.1815E+02                                            40280  3 1662 
 2.1220E+01 1.7170E+02                                            40280  3 1663 
 2.1250E+01 1.2870E+02                                            40280  3 1664 
 2.1280E+01 9.8400E+01                                            40280  3 1665 
 2.1310E+01 7.3100E+01                                            40280  3 1666 
 2.1330E+01 5.5600E+01                                            40280  3 1667 
 2.1360E+01 4.3400E+01                                            40280  3 1668 
 2.1390E+01 3.4800E+01                                            40280  3 1669 
 2.1420E+01 3.0600E+01                                            40280  3 1670 
 2.1450E+01 2.4600E+01                                            40280  3 1671 
 2.1480E+01 2.4200E+01                                            40280  3 1672 
 2.1510E+01 2.0900E+01                                            40280  3 1673 
 2.1540E+01 2.0100E+01                                            40280  3 1674 
 2.1570E+01 2.0700E+01                                            40280  3 1675 
 2.1600E+01 2.1500E+01                                            40280  3 1676 
 2.1630E+01 2.1100E+01                                            40280  3 1677 
 2.1660E+01 4.7400E+01                                            40280  3 1678 
 2.1690E+01 2.4800E+01                                            40280  3 1679 
 2.1720E+01 3.0400E+01                                            40280  3 1680 
 2.1760E+01 3.7500E+01                                            40280  3 1681 
 2.1790E+01 4.7100E+01                                            40280  3 1682 
 2.1820E+01 5.5200E+01                                            40280  3 1683 
 2.1850E+01 6.3300E+01                                            40280  3 1684 
 2.1880E+01 6.3900E+01                                            40280  3 1685 
 2.1910E+01 6.3000E+01                                            40280  3 1686 
 2.1940E+01 5.9800E+01                                            40280  3 1687 
 2.1970E+01 5.0200E+01                                            40280  3 1688 
 2.2000E+01 4.4700E+01                                            40280  3 1689 
 2.2030E+01 3.6700E+01                                            40280  3 1690 
 2.2060E+01 2.8600E+01                                            40280  3 1691 
 2.2100E+01 2.4200E+01                                            40280  3 1692 
 2.2130E+01 2.0900E+01                                            40280  3 1693 
 2.2160E+01 1.9800E+01                                            40280  3 1694 
 2.2190E+01 1.8800E+01                                            40280  3 1695 
 2.2220E+01 1.9600E+01                                            40280  3 1696 
 2.2250E+01 2.0200E+01                                            40280  3 1697 
 2.2280E+01 2.0500E+01                                            40280  3 1698 
 2.2320E+01 2.3800E+01                                            40280  3 1699 
 2.2350E+01 2.6800E+01                                            40280  3 1700 
 2.2380E+01 3.6500E+01                                            40280  3 1701 
 2.2410E+01 4.4200E+01                                            40280  3 1702 
 2.2440E+01 5.6400E+01                                            40280  3 1703 
 2.2480E+01 8.2100E+01                                            40280  3 1704 
 2.2510E+01 1.0880E+02                                            40280  3 1705 
 2.2540E+01 1.4740E+02                                            40280  3 1706 
 2.2570E+01 1.8820E+02                                            40280  3 1707 
 2.2600E+01 2.3650E+02                                            40280  3 1708 
 2.2640E+01 2.8630E+02                                            40280  3 1709 
 2.2670E+01 3.2960E+02                                            40280  3 1710 
 2.2700E+01 3.3950E+02                                            40280  3 1711 
 2.2730E+01 3.2450E+02                                            40280  3 1712 
 2.2770E+01 2.8700E+02                                            40280  3 1713 
 2.2800E+01 2.3550E+02                                            40280  3 1714 
 2.2830E+01 1.8710E+02                                            40280  3 1715 
 2.2860E+01 1.4310E+02                                            40280  3 1716 
 2.2900E+01 1.1040E+02                                            40280  3 1717 
 2.2930E+01 7.9600E+01                                            40280  3 1718 
 2.2960E+01 6.1700E+01                                            40280  3 1719 
 2.3000E+01 4.4900E+01                                            40280  3 1720 
 2.3030E+01 3.4800E+01                                            40280  3 1721 
 2.3060E+01 2.7800E+01                                            40280  3 1722 
 2.3100E+01 2.3400E+01                                            40280  3 1723 
 2.3130E+01 2.1900E+01                                            40280  3 1724 
 2.3160E+01 2.0700E+01                                            40280  3 1725 
 2.3200E+01 1.9200E+01                                            40280  3 1726 
 2.3230E+01 1.9400E+01                                            40280  3 1727 
 2.3260E+01 1.6700E+01                                            40280  3 1728 
 2.3300E+01 1.8400E+01                                            40280  3 1729 
 2.3360E+01 1.6300E+01                                            40280  3 1730 
 2.3400E+01 1.6600E+01                                            40280  3 1731 
 2.3430E+01 1.4100E+01                                            40280  3 1732 
 2.3440E+01 1.4300E+01                                            40280  3 1733 
 2.3500E+01 1.5400E+01                                            40280  3 1734 
 2.3540E+01 1.6500E+01                                            40280  3 1735 
 2.3570E+01 1.3500E+01                                            40280  3 1736 
 2.3610E+01 1.4200E+01                                            40280  3 1737 
 2.3640E+01 1.3800E+01                                            40280  3 1738 
 2.3670E+01 1.4800E+01                                            40280  3 1739 
 2.3710E+01 1.2900E+01                                            40280  3 1740 
 2.3740E+01 1.4400E+01                                            40280  3 1741 
 2.3770E+01 1.4700E+01                                            40280  3 1742 
 2.3810E+01 1.3700E+01                                            40280  3 1743 
 2.3850E+01 1.5000E+01                                            40280  3 1744 
 2.3880E+01 1.5700E+01                                            40280  3 1745 
 2.3920E+01 1.5300E+01                                            40280  3 1746 
 2.3950E+01 1.6400E+01                                            40280  3 1747 
 2.3990E+01 1.7400E+01                                            40280  3 1748 
 2.4020E+01 1.5600E+01                                            40280  3 1749 
 2.4060E+01 2.0100E+01                                            40280  3 1750 
 2.4100E+01 2.0300E+01                                            40280  3 1751 
 2.4130E+01 2.4600E+01                                            40280  3 1752 
 2.4170E+01 2.8100E+01                                            40280  3 1753 
 2.4200E+01 3.7300E+01                                            40280  3 1754 
 2.4230E+01 4.7700E+01                                            40280  3 1755 
 2.4270E+01 6.9500E+01                                            40280  3 1756 
 2.4310E+01 9.3500E+01                                            40280  3 1757 
 2.4350E+01 1.2320E+02                                            40280  3 1758 
 2.4380E+01 1.5370E+02                                            40280  3 1759 
 2.4410E+01 1.8160E+02                                            40280  3 1760 
 2.4460E+01 1.9530E+02                                            40280  3 1761 
 2.4490E+01 1.8160E+02                                            40280  3 1762 
 2.4530E+01 1.5430E+02                                            40280  3 1763 
 2.4560E+01 1.1990E+02                                            40280  3 1764 
 2.4600E+01 7.9700E+01                                            40280  3 1765 
 2.4640E+01 7.0900E+01                                            40280  3 1766 
 2.4670E+01 4.9500E+01                                            40280  3 1767 
 2.4710E+01 3.9600E+01                                            40280  3 1768 
 2.4750E+01 2.7900E+01                                            40280  3 1769 
 2.4790E+01 2.2900E+01                                            40280  3 1770 
 2.4820E+01 2.0700E+01                                            40280  3 1771 
 2.4860E+01 1.8100E+01                                            40280  3 1772 
 2.4900E+01 1.8000E+01                                            40280  3 1773 
 2.4940E+01 1.6800E+01                                            40280  3 1774 
 2.4970E+01 1.7100E+01                                            40280  3 1775 
 2.5000E+01 1.5900E+01                                            40280  3 1776 
 2.5050E+01 1.5700E+01                                            40280  3 1777 
 2.5090E+01 1.6700E+01                                            40280  3 1778 
 2.5120E+01 1.8000E+01                                            40280  3 1779 
 2.5160E+01 1.8400E+01                                            40280  3 1780 
 2.5200E+01 2.1300E+01                                            40280  3 1781 
 2.5240E+01 2.4100E+01                                            40280  3 1782 
 2.5280E+01 2.9900E+01                                            40280  3 1783 
 2.5320E+01 3.7700E+01                                            40280  3 1784 
 2.5350E+01 4.2100E+01                                            40280  3 1785 
 2.5390E+01 4.2700E+01                                            40280  3 1786 
 2.5430E+01 4.4400E+01                                            40280  3 1787 
 2.5470E+01 4.1600E+01                                            40280  3 1788 
 2.5510E+01 3.8500E+01                                            40280  3 1789 
 2.5540E+01 3.4100E+01                                            40280  3 1790 
 2.5580E+01 3.0300E+01                                            40280  3 1791 
 2.5620E+01 2.1200E+01                                            40280  3 1792 
 2.5660E+01 2.0400E+01                                            40280  3 1793 
 2.5700E+01 1.5900E+01                                            40280  3 1794 
 2.5740E+01 1.5900E+01                                            40280  3 1795 
 2.5780E+01 1.6500E+01                                            40280  3 1796 
 2.5820E+01 1.3600E+01                                            40280  3 1797 
 2.5860E+01 1.4700E+01                                            40280  3 1798 
 2.5900E+01 1.5300E+01                                            40280  3 1799 
 2.5940E+01 1.3800E+01                                            40280  3 1800 
 2.5980E+01 1.6000E+01                                            40280  3 1801 
 2.6020E+01 1.4900E+01                                            40280  3 1802 
 2.6060E+01 1.6300E+01                                            40280  3 1803 
 2.6100E+01 1.8500E+01                                            40280  3 1804 
 2.6140E+01 2.0100E+01                                            40280  3 1805 
 2.6170E+01 2.1900E+01                                            40280  3 1806 
 2.6220E+01 2.5400E+01                                            40280  3 1807 
 2.6260E+01 2.6700E+01                                            40280  3 1808 
 2.6300E+01 2.7300E+01                                            40280  3 1809 
 2.6340E+01 2.8300E+01                                            40280  3 1810 
 2.6380E+01 2.9000E+01                                            40280  3 1811 
 2.6420E+01 3.3500E+01                                            40280  3 1812 
 2.6460E+01 4.1500E+01                                            40280  3 1813 
 2.6500E+01 5.1200E+01                                            40280  3 1814 
 2.6540E+01 7.2800E+01                                            40280  3 1815 
 2.6600E+01 1.0270E+02                                            40280  3 1816 
 2.6620E+01 1.3950E+02                                            40280  3 1817 
 2.6670E+01 1.8300E+02                                            40280  3 1818 
 2.6710E+01 2.1630E+02                                            40280  3 1819 
 2.6750E+01 2.4270E+02                                            40280  3 1820 
 2.6790E+01 2.2140E+02                                            40280  3 1821 
 2.6830E+01 1.8840E+02                                            40280  3 1822 
 2.6880E+01 1.4650E+02                                            40280  3 1823 
 2.6920E+01 1.0860E+02                                            40280  3 1824 
 2.6960E+01 8.2100E+01                                            40280  3 1825 
 2.7000E+01 6.1000E+01                                            40280  3 1826 
 2.7040E+01 5.1400E+01                                            40280  3 1827 
 2.7090E+01 4.6300E+01                                            40280  3 1828 
 2.7130E+01 4.9200E+01                                            40280  3 1829 
 2.7170E+01 5.7000E+01                                            40280  3 1830 
 2.7210E+01 7.1200E+01                                            40280  3 1831 
 2.7260E+01 8.2200E+01                                            40280  3 1832 
 2.7300E+01 9.4300E+01                                            40280  3 1833 
 2.7340E+01 9.8300E+01                                            40280  3 1834 
 2.7390E+01 9.8100E+01                                            40280  3 1835 
 2.7430E+01 8.2100E+01                                            40280  3 1836 
 2.7470E+01 7.0600E+01                                            40280  3 1837 
 2.7520E+01 5.4400E+01                                            40280  3 1838 
 2.7560E+01 4.0000E+01                                            40280  3 1839 
 2.7600E+01 2.9400E+01                                            40280  3 1840 
 2.7650E+01 2.2700E+01                                            40280  3 1841 
 2.7680E+01 2.1100E+01                                            40280  3 1842 
 2.7730E+01 1.4200E+01                                            40280  3 1843 
 2.7780E+01 1.4700E+01                                            40280  3 1844 
 2.7820E+01 1.3100E+01                                            40280  3 1845 
 2.7870E+01 1.1900E+01                                            40280  3 1846 
 2.7910E+01 1.3900E+01                                            40280  3 1847 
 2.7950E+01 1.2600E+01                                            40280  3 1848 
 2.8000E+01 1.4000E+01                                            40280  3 1849 
 2.8040E+01 1.4900E+01                                            40280  3 1850 
 2.8090E+01 1.4600E+01                                            40280  3 1851 
 2.8130E+01 1.4400E+01                                            40280  3 1852 
 2.8180E+01 1.4400E+01                                            40280  3 1853 
 2.8220E+01 1.6100E+01                                            40280  3 1854 
 2.8270E+01 1.8300E+01                                            40280  3 1855 
 2.8310E+01 2.0200E+01                                            40280  3 1856 
 2.8360E+01 2.1100E+01                                            40280  3 1857 
 2.8400E+01 2.5100E+01                                            40280  3 1858 
 2.8450E+01 3.4100E+01                                            40280  3 1859 
 2.8500E+01 4.6700E+01                                            40280  3 1860 
 2.8540E+01 6.6100E+01                                            40280  3 1861 
 2.8590E+01 9.0400E+01                                            40280  3 1862 
 2.8630E+01 1.2560E+02                                            40280  3 1863 
 2.8680E+01 1.4900E+02                                            40280  3 1864 
 2.8730E+01 1.6440E+02                                            40280  3 1865 
 2.8770E+01 1.5690E+02                                            40280  3 1866 
 2.8820E+01 1.3210E+02                                            40280  3 1867 
 2.8870E+01 1.0820E+02                                            40280  3 1868 
 2.8910E+01 8.1200E+01                                            40280  3 1869 
 2.8960E+01 6.4000E+01                                            40280  3 1870 
 2.9000E+01 5.6000E+01                                            40280  3 1871 
 2.9050E+01 5.6200E+01                                            40280  3 1872 
 2.9100E+01 6.5100E+01                                            40280  3 1873 
 2.9150E+01 8.0500E+01                                            40280  3 1874 
 2.9190E+01 9.9700E+01                                            40280  3 1875 
 2.9240E+01 1.1370E+02                                            40280  3 1876 
 2.9290E+01 1.1950E+02                                            40280  3 1877 
 2.9340E+01 1.1220E+02                                            40280  3 1878 
 2.9390E+01 9.6400E+01                                            40280  3 1879 
 2.9430E+01 7.3100E+01                                            40280  3 1880 
 2.9480E+01 5.9700E+01                                            40280  3 1881 
 2.9530E+01 4.1200E+01                                            40280  3 1882 
 2.9580E+01 3.1900E+01                                            40280  3 1883 
 2.9630E+01 2.4400E+01                                            40280  3 1884 
 2.9670E+01 2.1800E+01                                            40280  3 1885 
 2.9720E+01 1.8800E+01                                            40280  3 1886 
 2.9770E+01 1.9500E+01                                            40280  3 1887 
 2.9800E+01 2.6100E+01                                            40280  3 1888 
 2.9860E+01 3.2100E+01                                            40280  3 1889 
 2.9910E+01 4.2700E+01                                            40280  3 1890 
 2.9960E+01 6.0600E+01                                            40280  3 1891 
 3.0010E+01 7.6900E+01                                            40280  3 1892 
 3.0070E+01 8.8200E+01                                            40280  3 1893 
 3.0110E+01 9.2400E+01                                            40280  3 1894 
 3.0170E+01 8.5200E+01                                            40280  3 1895 
 3.0210E+01 7.3200E+01                                            40280  3 1896 
 3.0270E+01 5.8000E+01                                            40280  3 1897 
 3.0320E+01 4.6900E+01                                            40280  3 1898 
 3.0360E+01 3.5300E+01                                            40280  3 1899 
 3.0420E+01 2.6800E+01                                            40280  3 1900 
 3.0470E+01 2.2800E+01                                            40280  3 1901 
 3.0520E+01 1.8300E+01                                            40280  3 1902 
 3.0570E+01 1.8200E+01                                            40280  3 1903 
 3.0620E+01 1.9400E+01                                            40280  3 1904 
 3.0670E+01 2.0600E+01                                            40280  3 1905 
 3.0720E+01 2.4300E+01                                            40280  3 1906 
 3.0770E+01 2.9500E+01                                            40280  3 1907 
 3.0820E+01 4.5800E+01                                            40280  3 1908 
 3.0880E+01 6.1000E+01                                            40280  3 1909 
 3.0930E+01 8.0200E+01                                            40280  3 1910 
 3.0980E+01 1.0200E+02                                            40280  3 1911 
 3.1030E+01 1.1470E+02                                            40280  3 1912 
 3.1080E+01 1.1420E+02                                            40280  3 1913 
 3.1140E+01 1.0320E+02                                            40280  3 1914 
 3.1190E+01 8.5600E+01                                            40280  3 1915 
 3.1240E+01 7.4300E+01                                            40280  3 1916 
 3.1290E+01 6.0500E+01                                            40280  3 1917 
 3.1350E+01 5.1000E+01                                            40280  3 1918 
 3.1400E+01 4.9000E+01                                            40280  3 1919 
 3.1450E+01 4.1400E+01                                            40280  3 1920 
 3.1500E+01 4.0100E+01                                            40280  3 1921 
 3.1560E+01 3.2500E+01                                            40280  3 1922 
 3.1610E+01 2.7800E+01                                            40280  3 1923 
 3.1670E+01 2.5500E+01                                            40280  3 1924 
 3.1720E+01 2.0600E+01                                            40280  3 1925 
 3.1770E+01 1.6600E+01                                            40280  3 1926 
 3.1830E+01 1.5200E+01                                            40280  3 1927 
 3.1880E+01 1.4700E+01                                            40280  3 1928 
 3.1930E+01 1.3800E+01                                            40280  3 1929 
 3.1990E+01 1.4200E+01                                            40280  3 1930 
 3.2040E+01 1.7100E+01                                            40280  3 1931 
 3.2100E+01 1.6300E+01                                            40280  3 1932 
 3.2150E+01 2.0100E+01                                            40280  3 1933 
 3.2210E+01 2.2400E+01                                            40280  3 1934 
 3.2260E+01 2.5200E+01                                            40280  3 1935 
 3.2320E+01 3.2000E+01                                            40280  3 1936 
 3.2370E+01 3.1000E+01                                            40280  3 1937 
 3.2430E+01 3.3000E+01                                            40280  3 1938 
 3.2480E+01 2.9500E+01                                            40280  3 1939 
 3.2540E+01 2.6400E+01                                            40280  3 1940 
 3.2600E+01 2.2400E+01                                            40280  3 1941 
 3.2650E+01 2.2300E+01                                            40280  3 1942 
 3.2700E+01 2.0300E+01                                            40280  3 1943 
 3.2760E+01 1.9500E+01                                            40280  3 1944 
 3.2820E+01 2.5800E+01                                            40280  3 1945 
 3.2880E+01 3.3200E+01                                            40280  3 1946 
 3.2930E+01 4.5000E+01                                            40280  3 1947 
 3.2990E+01 6.3400E+01                                            40280  3 1948 
 3.3050E+01 8.5700E+01                                            40280  3 1949 
 3.3110E+01 1.0270E+02                                            40280  3 1950 
 3.3160E+01 1.1120E+02                                            40280  3 1951 
 3.3220E+01 1.1200E+02                                            40280  3 1952 
 3.3280E+01 9.8400E+01                                            40280  3 1953 
 3.3340E+01 8.2200E+01                                            40280  3 1954 
 3.3390E+01 6.4600E+01                                            40280  3 1955 
 3.3450E+01 5.0500E+01                                            40280  3 1956 
 3.3510E+01 4.4000E+01                                            40280  3 1957 
 3.3570E+01 4.4900E+01                                            40280  3 1958 
 3.3630E+01 5.3800E+01                                            40280  3 1959 
 3.3680E+01 6.7900E+01                                            40280  3 1960 
 3.3740E+01 9.6800E+01                                            40280  3 1961 
 3.3800E+01 1.2320E+02                                            40280  3 1962 
 3.3860E+01 1.4850E+02                                            40280  3 1963 
 3.3920E+01 1.6810E+02                                            40280  3 1964 
 3.3980E+01 1.6020E+02                                            40280  3 1965 
 3.4040E+01 1.3140E+02                                            40280  3 1966 
 3.4100E+01 1.0040E+02                                            40280  3 1967 
 3.4160E+01 7.3600E+01                                            40280  3 1968 
 3.4220E+01 5.3400E+01                                            40280  3 1969 
 3.4280E+01 3.8800E+01                                            40280  3 1970 
 3.4340E+01 2.9800E+01                                            40280  3 1971 
 3.4400E+01 2.2400E+01                                            40280  3 1972 
 3.4460E+01 2.1800E+01                                            40280  3 1973 
 3.4520E+01 2.4200E+01                                            40280  3 1974 
 3.4590E+01 2.4100E+01                                            40280  3 1975 
 3.4640E+01 3.0500E+01                                            40280  3 1976 
 3.4700E+01 4.3200E+01                                            40280  3 1977 
 3.4760E+01 5.8500E+01                                            40280  3 1978 
 3.4830E+01 7.8200E+01                                            40280  3 1979 
 3.4890E+01 9.5900E+01                                            40280  3 1980 
 3.4960E+01 1.0450E+02                                            40280  3 1981 
 3.5020E+01 9.8600E+01                                            40280  3 1982 
ENDDATA           1974          0                                 40280  3 1983 
ENDSUBENT         1982          0                                 40280  399999 
SUBENT        40280004   20151215                             417340280  4    1 
BIB                  4          8                                 40280  4    2 
REACTION   (95-AM-243(N,0),,STF)                                  40280  4    3 
STATUS     (DEP,40280002) Res.parameters.                         40280  4    4 
           (TABLE) Table 2 of SJA,40,368,1976                     40280  4    5 
ERR-ANALYS (DATA-ERR) Includes stat.error, error associated with  40280  4    6 
           the determination of the shape resolution function,    40280  4    7 
           error due to correction for Am-241 contribution in     40280  4    8 
           transmission.                                          40280  4    9 
HISTORY    (20151210C) M.M.                                       40280  4   10 
ENDBIB               8          0                                 40280  4   11 
NOCOMMON             0          0                                 40280  4   12 
DATA                 5          1                                 40280  4   13 
EN-RES-MIN EN-RES-MAX MOMENTUM L DATA       DATA-ERR              40280  4   14 
EV         EV         NO-DIM     NO-DIM     NO-DIM                40280  4   15 
 0.4        35.        0.            0.89E-4    0.19E-4           40280  4   16 
ENDDATA              3          0                                 40280  4   17 
ENDSUBENT           16          0                                 40280  499999 
SUBENT        40280005   20151215                             417340280  5    1 
BIB                  4          8                                 40280  5    2 
REACTION   (95-AM-243(N,0),,D)                                    40280  5    3 
STATUS     (DEP,40280002) Res.parameters.                         40280  5    4 
           (TABLE) Table 2 of SJA,40,368,1976                     40280  5    5 
ERR-ANALYS (DATA-ERR) Includes stat.error, error associated with  40280  5    6 
           the determination of the shape resolution function,    40280  5    7 
           error due to correction for Am-241 contribution in     40280  5    8 
           transmission.                                          40280  5    9 
HISTORY    (20151210C) M.M.                                       40280  5   10 
ENDBIB               8          0                                 40280  5   11 
NOCOMMON             0          0                                 40280  5   12 
DATA                 4          1                                 40280  5   13 
EN-RES-MIN EN-RES-MAX DATA       DATA-ERR                         40280  5   14 
EV         EV         EV         EV                               40280  5   15 
 0.4        35.        0.71       0.10                            40280  5   16 
ENDDATA              3          0                                 40280  5   17 
ENDSUBENT           16          0                                 40280  599999 
ENDENTRY             5          0                                 4028099999999 
