ENTRY            40418   20140703                             41644041800000001 
SUBENT        40418001   20140703                             41644041800100001 
BIB                  6         25                                 4041800100002 
INSTITUTE  (4RUSRI)                                               4041800100003 
REFERENCE  (C,73KIEV,4,138,197305) Preliminary data - figures only4041800100004 
            , relative to Li-6(n,a) reaction.                     4041800100005 
           (C,77KIEV,3,197,197704) Curve is given up to 10 MeV.   4041800100006 
            Relative to U-235(n,f) reaction.                      4041800100007 
           (C,82ANTWER,,479,1982) Details of measurement relative 4041800100008 
            to U-235.                                             4041800100009 
           (P,YFI-25,43,197712)    Data for  0.015 - 2.14 MeV     4041800100010 
AUTHOR     (M.V.Blinov,V.A.Vitenko,V.T.Tuz,N.M.Kazarinov,         4041800100011 
           I.T.Krisyuk)                                           4041800100012 
TITLE       Measurement of neutron spectrum from spontaneous      4041800100013 
            fission of Cf-252 in a broad energy range             4041800100014 
METHOD     (TOF)  Time-of-flight                                  4041800100015 
HISTORY    (19790208C)                                            4041800100016 
           (20111219A) Upper -> lower case correction.            4041800100017 
            Dates were corrected for 4-digits year.               4041800100018 
            DATA-ERR -> ERR-S.                                    4041800100019 
            Reaction of Subent 002 was corrected ,DE,N, -> NU/DE,,4041800100020 
            Subent 003 was added.                                 4041800100021 
           (20120303A) M.M. Subent 003 was corrected.             4041800100022 
            Reference C,82ANTWER,,479,1982 was added.             4041800100023 
           (20140603A) Subent 006 was added.                      4041800100024 
            Subent 004 data for flight path 50.cm were moved in   4041800100025 
            Subent 005 (according to recommendation of NDS,IAEA,  4041800100026 
            see memo CP-D/714 .                                   4041800100027 
ENDBIB              25          0                                 4041800100028 
NOCOMMON             0          0                                 4041800100029 
ENDSUBENT           28          0                                 4041800199999 
SUBENT        40418002   20111219                             41554041800200001 
BIB                  6          8                                 4041800200002 
REACTION   (98-CF-252(0,F),,NU/DE,,REL)                           4041800200003 
            Reference quantity not given                          4041800200004 
DETECTOR   (SOLST)  Li-I crystal with Eu - LiI(Eu)                4041800200005 
MONITOR    (3-LI-6(N,T)2-HE-4,,SIG)                               4041800200006 
            For neutron detector efficiency.                      4041800200007 
MONIT-REF  (,,3,ENDF/B-IV,,1974)                                  4041800200008 
ERR-ANALYS (ERR-S)     Statistical Error                          4041800200009 
STATUS     (TABLE) Table of P,YFI-25,43,1977.                     4041800200010 
ENDBIB               8          0                                 4041800200011 
NOCOMMON             0          0                                 4041800200012 
DATA                 3         29                                 4041800200013 
E          DATA       ERR-S                                       4041800200014 
MEV        ARB-UNITS  ARB-UNITS                                   4041800200015 
 1.5000E-02 1.1400E+02 2.0000E+01                                 4041800200016 
 2.5000E-02 1.5200E+02 1.8000E+01                                 4041800200017 
 4.0000E-02 1.9300E+02 1.6000E+01                                 4041800200018 
 6.7000E-02 2.4000E+02 1.6000E+01                                 4041800200019 
 9.0000E-02 2.6500E+02 1.7000E+01                                 4041800200020 
 1.1300E-01 2.9000E+02 1.7000E+01                                 4041800200021 
 1.2700E-01 3.4000E+02 1.5000E+01                                 4041800200022 
 1.6300E-01 3.5600E+02 1.3000E+01                                 4041800200023 
 1.9700E-01 3.8300E+02 1.2000E+01                                 4041800200024 
 2.4300E-01 3.9000E+02 8.0000E+00                                 4041800200025 
 2.6000E-01 4.0200E+02 8.0000E+00                                 4041800200026 
 2.8800E-01 4.3000E+02 9.0000E+00                                 4041800200027 
 3.1700E-01 4.6200E+02 1.0000E+01                                 4041800200028 
 3.5200E-01 4.6000E+02 1.2000E+01                                 4041800200029 
 3.9200E-01 4.9600E+02 1.4000E+01                                 4041800200030 
 4.3800E-01 5.0800E+02 1.6000E+01                                 4041800200031 
 4.9700E-01 4.9500E+02 1.5000E+01                                 4041800200032 
 5.7000E-01 5.0500E+02 1.5000E+01                                 4041800200033 
 6.5000E-01 5.2300E+02 1.4000E+01                                 4041800200034 
 7.4200E-01 5.2900E+02 1.4000E+01                                 4041800200035 
 8.4600E-01 5.0400E+02 1.3000E+01                                 4041800200036 
 9.7000E-01 5.0200E+02 1.3000E+01                                 4041800200037 
 1.1200E+00 4.7500E+02 1.2000E+01                                 4041800200038 
 1.2200E+00 4.6600E+02 1.1000E+01                                 4041800200039 
 1.3500E+00 4.4000E+02 1.0000E+01                                 4041800200040 
 1.5000E+00 4.2800E+02 9.0000E+00                                 4041800200041 
 1.6800E+00 3.8100E+02 8.0000E+00                                 4041800200042 
 1.8800E+00 3.6100E+02 7.0000E+00                                 4041800200043 
 2.1400E+00 3.3000E+02 6.0000E+00                                 4041800200044 
ENDDATA             31          0                                 4041800200045 
ENDSUBENT           44          0                                 4041800299999 
SUBENT        40418003   20120303                             41564041800300001 
BIB                  8         31                                 4041800300002 
REACTION  1(98-CF-252(0,F)0-NN-1,,KEM) Spectrum temperature.      4041800300003 
          2(98-CF-252(0,F)0-NN-1,,KEM) Spectrum temperature.      4041800300004 
DETECTOR  1(SOLST)  Li-I crystal with Eu - LiI(Eu)                4041800300005 
          2(IOCH)   Ionization chamber with U-235 films           4041800300006 
MONITOR   1(3-LI-6(N,T)2-HE-4,,SIG)                               4041800300007 
            For neutron detector efficiency.                      4041800300008 
          2(92-U-235(N,F),,SIG)                                   4041800300009 
MONIT-REF 1(,,3,ENDF/B-IV,,1974)                                  4041800300010 
          2(,,3,ENDF/B-V,,1978)                                   4041800300011 
            G.V.Antcipov+,J,YK,1975,(20),1,1975 - was used in     4041800300012 
            P,YFI-25,43,1977 .                                    4041800300013 
CORRECTION2 For neutron scattering by detectors and environment : 4041800300014 
           from 3% at 10 keV to 0.7% at 1 MeV for detectors,      4041800300015 
           from 30% at 10 kev to 0.5 % at 1 MeV for air medium.   4041800300016 
                      For time resolution                         4041800300017 
ERR-ANALYS (DATA-ERR) Not specified.                              4041800300018 
            Error of DATA 1 is 5.- 7. % .                         4041800300019 
          2(MONIT-ERR,,4.) Max.uncertainty of U-235 fis.c-s.      4041800300020 
           (ERR-1,6.,16.) Error of intensity registration         4041800300021 
            from 16.% at 10 keV to 6 % at 1 MeV - one sigma.      4041800300022 
STATUS     (TABLE)                                                4041800300023 
          1(DEP,40418002)                                         4041800300024 
           Text  of P,YFI-25,43,1977                              4041800300025 
          2(DEP,40418004)                                         4041800300026 
           Text of C,82ANTWER,,479,982 .                          4041800300027 
            Ratio of measured spectrum to Maxwellian one of       4041800300028 
            T=1.42 MeV is given on Fig.4 of C,82ANTWER,           4041800300029 
            together with other measurements and evaluation -     4041800300030 
            quality of plot is not enough good for digitizing.    4041800300031 
HISTORY    (20120303A) DATA 2 value 1.41+-0.03 of P,YFI-25,43,19774041800300032 
            was replaced by that of C,282ANTWER,,479,1982.        4041800300033 
ENDBIB              31          0                                 4041800300034 
NOCOMMON             0          0                                 4041800300035 
DATA                 3          1                                 4041800300036 
DATA      1DATA      2DATA-ERR  2                                 4041800300037 
MEV        MEV        MEV                                         4041800300038 
 1.38       1.418      0.024                                      4041800300039 
ENDDATA              3          0                                 4041800300040 
ENDSUBENT           39          0                                 4041800399999 
SUBENT        40418004   20140703                             41644041800400001 
BIB                  8         13                                 4041800400002 
REACTION   (98-CF-252(0,F),,NU/DE,,REL)                           4041800400003 
            Data are given on fig. in arbitrary units.            4041800400004 
DETECTOR   (IOCH)   Ionization chamber with U-235 films           4041800400005 
MONITOR    (92-U-235(N,F),,SIG)                                   4041800400006 
MONIT-REF  (,G.V.Antcipov+,J,YK,1975,(20),1,1975)                 4041800400007 
MISC-COL   (MISC) TOF base.                                       4041800400008 
ERR-ANALYS (DATA-ERR) Not specified. Error bars digitized.        4041800400009 
           (ERR-DIG) Error of digitizing of DATA and DATA-ERR.    4041800400010 
           (E-ERR-DIG) Error of digitizing of E .                 4041800400011 
STATUS     (CURVE) Fig. of C,77KIEV,3,197,1977 was digitized.     4041800400012 
           (COREL,40418005) 50 cm flight path data                4041800400013 
HISTORY    (20140603A) Data for flight path 50.cm were moved in   4041800400014 
            Subent 005 .                                          4041800400015 
ENDBIB              13          0                                 4041800400016 
COMMON               3          3                                 4041800400017 
E-ERR-DIG  ERR-DIG    MISC                                        4041800400018 
PER-CENT   ARB-UNITS  CM                                          4041800400019 
   0.38E-02   0.72E-02 25.                                        4041800400020 
ENDCOMMON            3          0                                 4041800400021 
DATA                 3         35                                 4041800400022 
E          DATA       DATA-ERR                                    4041800400023 
MEV        ARB-UNITS  ARB-UNITS                                   4041800400024 
  0.140E-01  1.999     0.893                                      4041800400025 
  0.250E-01  3.186     0.680                                      4041800400026 
  0.349E-01  2.665     0.595                                      4041800400027 
  0.503E-01  3.363     0.397                                      4041800400028 
  0.699E-01  4.318     0.397                                      4041800400029 
  0.911E-01  4.224     0.354                                      4041800400030 
  0.117      5.677     0.397                                      4041800400031 
  0.152      5.698     0.425                                      4041800400032 
  0.182      6.855     0.397                                      4041800400033 
  0.223      6.693     0.354                                      4041800400034 
  0.275      7.353     0.326                                      4041800400035 
  0.336      7.844     0.425                                      4041800400036 
  0.384      8.549     0.383                                      4041800400037 
  0.435      7.892     0.397                                      4041800400038 
  0.490      8.910     0.440                                      4041800400039 
  0.535      8.936     0.397                                      4041800400040 
  0.569      8.352     0.397                                      4041800400041 
  0.627      8.945     0.326                                      4041800400042 
  0.677      8.716     0.368                                      4041800400043 
  0.749      8.954     0.354                                      4041800400044 
  0.818      8.922     0.312                                      4041800400045 
  0.900      7.912     0.255                                      4041800400046 
  1.008      8.193     0.283                                      4041800400047 
  1.124      7.650     0.255                                      4041800400048 
  1.252      7.888     0.227                                      4041800400049 
  1.415      7.672     0.212                                      4041800400050 
  1.625      7.086     0.170                                      4041800400051 
  1.841      6.188                                                4041800400052 
  2.161      5.233                                                4041800400053 
  2.552      4.363                                                4041800400054 
  2.977      3.393                                                4041800400055 
  3.686      2.507                                                4041800400056 
  4.613      1.479                                                4041800400057 
  5.746      0.635                                                4041800400058 
  7.700      0.229                                                4041800400059 
ENDDATA             37          0                                 4041800400060 
ENDSUBENT           59          0                                 4041800499999 
SUBENT        40418005   20140703                             41644041800500001 
BIB                  8         12                                 4041800500002 
REACTION   (98-CF-252(0,F),,NU/DE,,REL)                           4041800500003 
            Data are given on fig. in arbitrary units.            4041800500004 
DETECTOR   (IOCH)   Ionization chamber with U-235 films           4041800500005 
MONITOR    (92-U-235(N,F),,SIG)                                   4041800500006 
MONIT-REF  (,G.V.Antcipov+,J,YK,1975,(20),1,1975)                 4041800500007 
MISC-COL   (MISC) TOF base.                                       4041800500008 
ERR-ANALYS (DATA-ERR) Not specified. Error bars digitized.        4041800500009 
           (ERR-DIG) Error of digitizing of DATA and DATA-ERR.    4041800500010 
           (E-ERR-DIG) Error of digitizing of E .                 4041800500011 
STATUS     (CURVE) Fig. of C,77KIEV,3,197,1977 was digitized.     4041800500012 
           (COREL,40418004) 25 cm flight path data                4041800500013 
HISTORY    (20140703T) Data were moved from Subent 004.           4041800500014 
ENDBIB              12          0                                 4041800500015 
COMMON               3          3                                 4041800500016 
E-ERR-DIG  ERR-DIG    MISC                                        4041800500017 
PER-CENT   ARB-UNITS  CM                                          4041800500018 
   0.38E-02   0.72E-02 50.                                        4041800500019 
ENDCOMMON            3          0                                 4041800500020 
DATA                 3         33                                 4041800500021 
E          DATA       DATA-ERR                                    4041800500022 
MEV        ARB-UNITS  ARB-UNITS                                   4041800500023 
  0.0536     4.397     0.680                                      4041800500024 
  0.0846     4.680     0.652                                      4041800500025 
  0.124      4.498     0.397                                      4041800500026 
  0.175      6.615     0.482                                      4041800500027 
  0.252      7.072     0.368                                      4041800500028 
  0.362      7.912     0.411                                      4041800500029 
  0.459      7.962     0.312                                      4041800500030 
  0.567      7.629     0.297                                      4041800500031 
  0.670      8.007     0.439                                      4041800500032 
  0.768      8.144     0.312                                      4041800500033 
  0.969      7.470     0.255                                      4041800500034 
  1.160      8.032     0.397                                      4041800500035 
  1.242      7.520     0.382                                      4041800500036 
  1.328      7.957     0.354                                      4041800500037 
  1.378      7.133     0.368                                      4041800500038 
  1.504      6.932     0.297                                      4041800500039 
  1.580      7.299     0.255                                      4041800500040 
  1.710      6.715     0.283                                      4041800500041 
  1.817      5.919     0.269                                      4041800500042 
  1.964      6.129     0.255                                      4041800500043 
  2.138      5.474     0.241                                      4041800500044 
  2.304      5.117     0.198                                      4041800500045 
  2.465      4.520     0.170                                      4041800500046 
  2.703      4.049     0.156                                      4041800500047 
  2.981      3.620                                                4041800500048 
  3.283      2.922                                                4041800500049 
  3.575      2.295                                                4041800500050 
  3.940      1.739                                                4041800500051 
  4.423      1.324                                                4041800500052 
  5.551      0.807                                                4041800500053 
  6.420      0.433                                                4041800500054 
  7.219      0.288                                                4041800500055 
  8.710      0.126                                                4041800500056 
ENDDATA             35          0                                 4041800500057 
ENDSUBENT           56          0                                 4041800599999 
SUBENT        40418006   20140703                             41644041800600001 
BIB                 11         37                                 4041800600002 
REACTION   (98-CF-252(0,F),PR,NU/DE,,MXD)                         4041800600003 
            Ratio of Cf spectrum ( average for three flight bases 4041800600004 
           25,50,100 cm) to Maxwellian of 1.42 MeV.               4041800600005 
DETECTOR   (IOCH)   Ionization chamber with U-235 films.          4041800600006 
            Fast ionization chamber with Cf layers.               4041800600007 
MONITOR    (92-U-235(N,F),,SIG)                                   4041800600008 
            for dependence of neutron detector efficiency on      4041800600009 
           energy of neutrons.                                    4041800600010 
MONIT-REF  (,,3,ENDF/B-V,,1978)                                   4041800600011 
SAMPLE     Cf layers of 4cm diameter, 0.75 microg (5.1E+5 fis/sec)4041800600012 
           and 0.3 microg (2.0E+5 fis/sec) in weight.             4041800600013 
CORRECTION For neutron scattering by the fragment and neutron     4041800600014 
           detectors - 3% at 10 keV to 0.7% at 1 MeV -            4041800600015 
           and by environment  (air) - from 30% at 10 keV to 0.5% 4041800600016 
           at 1 MeV for 25 cm flight base.                        4041800600017 
           For time resolution.                                   4041800600018 
ERR-ANALYS (DATA-ERR) Total error bars digitized, where given .   4041800600019 
           Total error in spectrum determination from 16% ( one   4041800600020 
           sigma) at 10 keV to 5% at higher energy.               4041800600021 
           (ERR-DIG) Error of digitizing of DATA and DATA-ERR.    4041800600022 
           (E-ERR-DIG) Error of digitizing of E .                 4041800600023 
           Quantization error for scale X 0.247 %.                4041800600024 
           Quantization error for scale Y 0.1641 %.               4041800600025 
           Calibration of the time scale was done with accuracy   4041800600026 
           0.1% with quartz generator.                            4041800600027 
           (MONIT-ERR,,4.) U-235 fis.c-s uncertainty < 4.% .      4041800600028 
MISC-COL   (MISC) Data digitized as they given on figure -        4041800600029 
           deviation from Maxwellian spectrum in per-cents.       4041800600030 
COMMENT    Of compiler. Data were digitized from figure according 4041800600031 
           to proposal of NDS,IAEA (N.Otsuka, R.Capote).          4041800600032 
           Quality of digitized data is not very good due to      4041800600033 
           overlapping of symbols on figure.                      4041800600034 
           To obtain NU/DE,,MXD the digitized data were multiplied4041800600035 
           by 100. ( for NO-DIM) and then were summed with 1. at  4041800600036 
           each point ( for real ratio) .                         4041800600037 
STATUS     (CURVE) Fig.4 of C,82ANTWER,,479,1982. Solid circles.  4041800600038 
HISTORY    (20140603C) Subent was added.                          4041800600039 
ENDBIB              37          0                                 4041800600040 
COMMON               3          3                                 4041800600041 
E-ERR-DIG  MISC-ERR-D KT-NRM                                      4041800600042 
PER-CENT   SEE TEXT   MEV                                         4041800600043 
 1.603     0.255       1.42                                       4041800600044 
ENDCOMMON            3          0                                 4041800600045 
DATA                 5         98                                 4041800600046 
E          DATA       DATA-ERR   MISC       MISC-ERR              4041800600047 
MEV        NO-DIM     NO-DIM     SEE TEXT   SEE TEXT              4041800600048 
  11.57    0.97373     0.14212    -2.6270     14.212              4041800600049 
  16.08    0.93643                -6.3568                         4041800600050 
  20.33    1.11426                 11.426                         4041800600051 
  24.85    0.98973                -1.0269                         4041800600052 
  28.57    1.05875     0.08593     5.8748      8.593              4041800600053 
  34.14    0.93263                -6.7366                         4041800600054 
  38.14    1.00173                 0.17326                        4041800600055 
  47.43    1.04078                 4.0776                         4041800600056 
  56.63    1.05515                 5.5146                         4041800600057 
  65.27    1.03821                 3.8214                         4041800600058 
  76.05    1.00472                 0.47243                        4041800600059 
  85.87    1.05065                 5.0654                         4041800600060 
  87.97    1.09190                 9.1903                         4041800600061 
  97.49    0.92469                -7.5313                         4041800600062 
 101.07    0.98078                -1.9224                         4041800600063 
 106.53    1.01864                 1.8639                         4041800600064 
 112.23    1.04163                 4.1628                         4041800600065 
 120.77    1.01663                 1.6629                         4041800600066 
 133.15    1.03618                 3.6183                         4041800600067 
 144.17    1.02439                 2.4388                         4041800600068 
 148.24    1.00613                 0.61285                        4041800600069 
 153.60    1.04239                 4.2387                         4041800600070 
 161.79    1.06207                 6.2071                         4041800600071 
 168.99    0.99914                -0.08554                        4041800600072 
 178.69    0.96263                -3.7374                         4041800600073 
 179.06    1.02377                 2.3770                         4041800600074 
 187.44    1.02695                 2.6945                         4041800600075 
 194.04    1.03842                 3.8416                         4041800600076 
 200.74    1.03006                 3.0056                         4041800600077 
 204.46    1.06636                 6.6363                         4041800600078 
 207.37    0.97873                -2.1271                         4041800600079 
 213.51    0.99848                -0.15215                        4041800600080 
 216.21    1.03315                 3.3149                         4041800600081 
 227.40    1.00656                 0.65624                        4041800600082 
 232.75    1.01972                 1.9718                         4041800600083 
 245.04    1.02288                 2.2877                         4041800600084 
 259.06    0.98140                -1.8599                         4041800600085 
 261.18    1.05410                 5.4096                         4041800600086 
 273.08    1.02257                 2.2568                         4041800600087 
 286.06    1.04557                 4.5574                         4041800600088 
 299.20    1.02396                 2.3961                         4041800600089 
 302.95    1.05533                 5.5326                         4041800600090 
 322.49    1.04854                 4.8537                         4041800600091 
 343.07    1.02192                 2.1918                         4041800600092 
 357.38    1.04990                 4.9898                         4041800600093 
 359.08    1.02179                 2.1788                         4041800600094 
 376.25    1.05306                 5.3056                         4041800600095 
 389.07    1.03148                 3.1476                         4041800600096 
 418.92    1.02466                 2.4655                         4041800600097 
 443.36    1.01458                 1.4577                         4041800600098 
 469.51    1.02268                 2.2677                         4041800600099 
 475.38    1.05239                 5.2390                         4041800600100 
 502.57    1.01091                 1.0914                         4041800600101 
 526.07    1.01244                 1.2437                         4041800600102 
 541.41    1.01897                 1.8966                         4041800600103 
 579.47    1.00390                 0.38979                        4041800600104 
 620.66    1.01031                 1.0313                         4041800600105 
 660.55    0.99691                -0.30860                        4041800600106 
 699.63    1.00997                 0.99719                        4041800600107 
 719.31    0.98676                -1.3245                         4041800600108 
 740.49    1.00155                 0.15467                        4041800600109 
 785.10    1.04435                 4.4350                         4041800600110 
 789.10    1.02616                 2.6156                         4041800600111 
 802.23    1.00793                 0.79294                        4041800600112 
 830.95    1.03593                 3.5925                         4041800600113 
 874.62    1.03247                 3.2474                         4041800600114 
 919.40    0.99101                -0.89860                        4041800600115 
 991.33    1.02551                 2.5506                         4041800600116 
1031.4     1.01713                 1.7130                         4041800600117 
1042.6     0.99727                -0.27333                        4041800600118 
1091.8     1.01201                 1.2010                         4041800600119 
1110.0     0.99544                -0.45645                        4041800600120 
1169.1     1.01181                 1.1815                         4041800600121 
1259.0     1.00830                 0.82984                        4041800600122 
1267.4     1.03638                 3.6375                         4041800600123 
1380.0     1.02291                 2.2911                         4041800600124 
1469.9     1.03430                 3.4300                         4041800600125 
1637.7     1.02573                 2.5729                         4041800600126 
1695.6     1.04216                 4.2157                         4041800600127 
1824.5     1.01551                 1.5505                         4041800600128 
1954.2     1.02192                 2.1920                         4041800600129 
2033.0     1.01024                 1.0239                         4041800600130 
2093.1     1.02834                 2.8335                         4041800600131 
2165.1     1.01667                 1.6670                         4041800600132 
2254.3     1.02978                 2.9777                         4041800600133 
2331.6     1.01481                 1.4806                         4041800600134 
2483.2     1.02124                 2.1238                         4041800600135 
2659.8     1.02931                 2.9306                         4041800600136 
2798.5     1.01429                 1.4286                         4041800600137 
3016.1     1.03556                 3.5558                         4041800600138 
3190.4     1.01061                 1.0608                         4041800600139 
3514.5     1.00372                 0.37213                        4041800600140 
3762.4     0.99526                -0.47364                        4041800600141 
4076.8     1.00660                 0.66040                        4041800600142 
4813.9     1.02927                 2.9268                         4041800600143 
5271.5     1.01579                 1.5788                         4041800600144 
5841.1     1.01384                 1.3843                         4041800600145 
6696.1     1.00519                 0.51904                        4041800600146 
ENDDATA            100          0                                 4041800600147 
ENDSUBENT          146          0                                 4041800699999 
ENDENTRY             6          0                                 4041899999999 
