ENTRY            41160   20010515                             00004116000000001 
SUBENT        41160001   20010515                             00004116000100001 
BIB                 10         21                                 4116000100002 
INSTITUTE  (4RUSKUR)  Demidov, Mikhaylov                          4116000100003 
           (3LIBLIB)  Al-Khamidi,Dufani,El-Akhrash,Zlitni,Rateb,  4116000100004 
                      Sergiva,Shermit - Tazhura Nuclear Resarch   4116000100005 
                      Centre                                      4116000100006 
REFERENCE  (J,YF,57,(4),579,199404)  Data Table is Given          4116000100007 
           (J,IZV,51,45,198601)    Experimental Details           4116000100008 
AUTHOR     (M.M.AL-KHAMIDI,A.M.DEMIDOV,M.M.DUFANI,M.S.EL-AKHRASH, 4116000100009 
           S.M.ZLITNI,I.V.MIKHAYLOV,D.M.RATEB,S.M.SERGIVA,        4116000100010 
           A.M.SHERMIT)                                           4116000100011 
TITLE       Investigation of Ba-136 Gamma-Transitions in the      4116000100012 
            (N,N'GAMMA) Reaction                                  4116000100013 
FACILITY   (REAC,4RUSKUR)                                         4116000100014 
INC-SPECT   Fast Neutrons of the Thermal Reactor Ir-8             4116000100015 
SAMPLE      Ba-C-O3 Salt, Mass 19.57 Gram, Thickness 1.19 Gram/Cm 4116000100016 
            Ba-136 Content is 93 Pc, Ba-135 Content is 0.72 Pc,   4116000100017 
            Ba-137 Content is 290 Pc, Ba-138 Content is 3.38 Pc   4116000100018 
DETECTOR   (GE-IN)                                                4116000100019 
STATUS      Data are Taken from the Reference One                 4116000100020 
HISTORY    (19941012C)  + + Compiled at the Centre - CJD + +      4116000100021 
           (20010311A) Date is Corrected                          4116000100022 
           (20010515U) Last checking has been done.               4116000100023 
ENDBIB              21          0                                 4116000100024 
COMMON               1          3                                 4116000100025 
EN-DUMMY                                                          4116000100026 
EV                                                                4116000100027 
     1.E+06                                                       4116000100028 
ENDCOMMON            3          0                                 4116000100029 
ENDSUBENT           28          0                                 4116000199999 
SUBENT        41160002   20010515                             00004116000200001 
BIB                  4         10                                 4116000200002 
REACTION   ((56-BA-136(N,INL)56-BA-136,,SPC,,FIS)//               4116000200003 
           (56-BA-136(N,INL)56-BA-136,,SPC,,FIS)) Measurements    4116000200004 
              Are Made Relative to the Line 818.53 KeV            4116000200005 
EN-SEC     (E-DN,G)  GAMMA ENERGY IN DENOMINATOR                  4116000200006 
           (E-NM,G)  GAMMA ENERGY IN NOMINATOR                    4116000200007 
           (E-LVL-INI,56-BA-136)                                  4116000200008 
ERR-ANALYS (DATA-ERR)  Errors are not Specified                   4116000200009 
           (E-ERR)   NOMINATOR ENERGY ERROR                       4116000200010 
HISTORY    (20010311A) Data are Given  As Ratio                   4116000200011 
           (20010515U) Last checking has been done.               4116000200012 
ENDBIB              10          0                                 4116000200013 
COMMON               2          3                                 4116000200014 
E-DN       E-RSL                                                  4116000200015 
KEV        KEV                                                    4116000200016 
     818.53        2.1                                            4116000200017 
ENDCOMMON            3          0                                 4116000200018 
DATA                 5        149                                 4116000200019 
E-NM       E-ERR      E-LVL-INI  DATA       DATA-ERR              4116000200020 
KEV        KEV        KEV        NO-DIM     NO-DIM                4116000200021 
     153.92       0.08      2207.     0.23-2     0.02-2           4116000200022 
     158.44       0.02      2299.     1.58-2     0.08-2           4116000200023 
     163.95       0.05      2031.     0.42-2     0.03-2           4116000200024 
     166.61       0.04      2374.     0.41-2     0.03-2           4116000200025 
     169.22       0.18               0.030-2    0.009-2           4116000200026 
     176.68       0.05      2207.     0.38-2     0.03-2           4116000200027 
     187.24        0.1      2054.     0.21-2     0.02-2           4116000200028 
      234.1        0.3      2374.    0.097-2    0.011-2           4116000200029 
      262.4        0.3               0.054-2    0.010-2           4116000200030 
      268.3        0.3      2299.    0.027-2    0.010-2           4116000200031 
     273.65       0.02      2140.     2.66-2     0.18-2           4116000200032 
     287.56       0.06      2820.    0.263-2    0.016-2           4116000200033 
     302.61       0.08      2356.    0.277-2    0.014-2           4116000200034 
     319.88       0.04      2374.     0.42-2     0.03-2           4116000200035 
     336.97       0.07      2391.    0.269-2    0.016-2           4116000200036 
     340.55       0.03      2207.     1.23-2     0.07-2           4116000200037 
      389.5        0.2      2820.    0.067-2    0.010-2           4116000200038 
     427.53       0.17               0.138-2    0.012-2           4116000200039 
      467.1        0.2               0.058-2    0.009-2           4116000200040 
     487.47       0.07      2695.    0.189-2    0.013-2           4116000200041 
     489.93       0.05      2356.     0.51-2     0.03-2           4116000200042 
     507.12       0.07      2374.     0.75-2                      4116000200043 
     528.94       0.08      2080.    0.245-2    0.015-2           4116000200044 
      546.4       0.14               0.144-2    0.013-2           4116000200045 
     556.92       0.07               0.258-2    0.015-2           4116000200046 
      605.4        0.2               0.123-2    0.012-2           4116000200047 
     616.57       0.15               0.135-2    0.012-2           4116000200048 
     640.72       0.06      2695.    0.310-2    0.015-2           4116000200049 
     658.33       0.15                 0.143      0.012           4116000200050 
     671.73       0.03      2223.     1.13-2     0.06-2           4116000200051 
     677.85       0.16               0.114-2    0.011-2           4116000200052 
      715.3        0.3               0.085-2    0.010-2           4116000200053 
     720.54       0.04      2587.     0.75-2     0.04-2           4116000200054 
     732.46       0.02      1551.      8.0-2      0.4-2           4116000200055 
      740.1        0.3      2820.    0.049-2    0.008-2           4116000200056 
      746.9       0.11               0.247-2    0.014-2           4116000200057 
     760.49       0.02      1579.     3.14-2     0.10-2           4116000200058 
     764.48        0.1               0.226-2    0.013-2           4116000200059 
     793.16       0.05      2660.     0.60-2     0.03-2           4116000200060 
     805.55       0.16      2934.     0.30-2     0.02-2           4116000200061 
     818.51       0.02       819.         1.                      4116000200062 
     839.82       0.11      2391.    0.066-2    0.008-2           4116000200063 
      859.4        0.3               0.027-2    0.006-2           4116000200064 
     879.93       0.03      2431.     0.84-2     0.05-2           4116000200065 
      955.2        0.2               0.084-2    0.008-2           4116000200066 
      974.1       0.15      2841.    0.285-2    0.013-2           4116000200067 
      981.6       0.06      2532.     0.64-2     0.03-2           4116000200068 
     993.44       0.04      2544.     1.04-2     0.05-2           4116000200069 
    1048.07       0.02      1867.     14.6-2      0.7-2           4116000200070 
    1068.65       0.11               0.059-2    0.014-2           4116000200071 
    1092.05       0.16               0.098-2    0.009-2           4116000200072 
    1110.26       0.14      2977.     0.25-2     0.02-2           4116000200073 
    1118.32       0.14      2985.    0.155-2    0.011-2           4116000200074 
     1132.2        0.2               0.147-2    0.011-2           4116000200075 
    1142.37       0.13      2694.    0.253-2    0.014-2           4116000200076 
    1159.98       0.15               0.035-2    0.007-2           4116000200077 
    1210.72       0.18      3077.    0.118-2    0.010-2           4116000200078 
     1222.6        0.2      2774.    0.114-2    0.011-2           4116000200079 
    1228.87       0.14      2780.    0.161-2    0.012-2           4116000200080 
    1235.26       0.03      2054.      7.5-2      0.4-2           4116000200081 
     1247.2        0.2               0.025-2    0.006-2           4116000200082 
    1261.49       0.03      2080.     2.31-2     0.10-2           4116000200083 
    1310.33       0.03      2129.     2.52-2     0.10-2           4116000200084 
    1322.87       0.04      2141.     0.83-2     0.04-2           4116000200085 
     1351.4        0.2               0.113-2    0.011-2           4116000200086 
     1364.2        0.3               0.109-2    0.010-2           4116000200087 
     1372.6        0.3               0.062-2    0.007-2           4116000200088 
     1382.3        0.2               0.053-2    0.009-2           4116000200089 
     1404.2       0.03      2223.     1.12-2     0.05-2           4116000200090 
     1426.4        0.3               0.083-2    0.009-2           4116000200091 
     1428.7        0.4      3509.    0.060-2    0.009-2           4116000200092 
    1444.74       0.13               0.159-2    0.010-2           4116000200093 
     1453.4        0.3               0.024-2    0.006-2           4116000200094 
     1494.1        0.6      3044.    0.062-2    0.009-2           4116000200095 
    1496.82       0.07      2315.       0.47       0.03           4116000200096 
     1516.3        0.4               0.033-2    0.005-2           4116000200097 
     1526.3        0.3               0.039-2    0.006-2           4116000200098 
    1537.98       0.04      2356.     0.87-2     0.04-2           4116000200099 
    1550.96       0.02      1551.      8.7-2      0.4-2           4116000200100 
    1572.28       0.03      2391.     1.48-2     0.06-2           4116000200101 
    1581.36       0.04      2400.     1.02-2     0.05-2           4116000200102 
    1612.37       0.04      2431.     0.71-2     0.04-2           4116000200103 
     1631.8        0.4               0.068-2    0.007-2           4116000200104 
    1666.44       0.04      2485.     0.91-2     0.05-2           4116000200105 
     1690.6        0.3               0.090-2    0.007-2           4116000200106 
     1714.1       0.04      2533.     1.00-2     0.06-2           4116000200107 
     1751.6        0.2                   0.1      0.009           4116000200108 
     1822.2       0.06      2641.     0.57-2     0.04-2           4116000200109 
    1842.85       0.05      2661.     0.77-2     0.04-2           4116000200110 
    1875.15       0.08      2694.    0.353-2    0.016-2           4116000200111 
    1955.05       0.08      2774.     0.41-2     0.02-2           4116000200112 
    1961.42       0.11      2780.    0.273-2    0.012-2           4116000200113 
     1965.9       0.13      2784.    0.182-2    0.010-2           4116000200114 
     1972.9        0.4               0.072-2    0.007-2           4116000200115 
    1993.42       0.07      2812.    0.327-2    0.014-2           4116000200116 
     1999.7        0.2      3551.    0.108-2    0.008-2           4116000200117 
     2010.3        0.2               0.056-2    0.006-2           4116000200118 
    2022.15       0.12      2841.    0.226-2    0.010-2           4116000200119 
    2080.04       0.03      2080.     1.40-2     0.05-2           4116000200120 
    2128.81       0.04      2129.     1.26-2     0.04-2           4116000200121 
     2158.6        0.3      2977.    0.070-2    0.007-2           4116000200122 
     2166.3        0.3      2985.    0.096-2    0.008-2           4116000200123 
     2190.6        0.3               0.089-2    0.008-2           4116000200124 
     2198.3        0.3                  0.04      0.006           4116000200125 
     2203.4       0.12      3022.    0.212-2    0.012-2           4116000200126 
     2244.8        0.4      3795.    0.016-2    0.005-2           4116000200127 
     2258.9        0.2      3077.    0.116-2    0.010-2           4116000200128 
     2287.9        0.4               0.069-2    0.008-2           4116000200129 
     2291.1        0.4      3109.    0.115-2    0.010-2           4116000200130 
     2297.4        0.4      3116.    0.005-2    0.004-2           4116000200131 
      2338.        0.3               0.092-2    0.008-2           4116000200132 
     2397.9        0.4               0.064-2    0.007-2           4116000200133 
     2413.7        0.4               0.044-2    0.006-2           4116000200134 
     2423.6        0.2      3242.    0.131-2    0.010-2           4116000200135 
     2475.7        0.3               0.055-2    0.006-2           4116000200136 
    2484.94        0.1      2485.       0.38       0.03           4116000200137 
     2517.1        0.3      3336.    0.127-2    0.010-2           4116000200138 
      2536.        0.3      3354.    0.126-2    0.010-2           4116000200139 
      2554.        0.5               0.035-2    0.006-2           4116000200140 
     2624.2        0.8               0.030-2    0.006-2           4116000200141 
     2661.7        0.6      2661.    0.039-2    0.006-2           4116000200142 
      2681.        0.4               0.092-2    0.010-2           4116000200143 
     2690.1        0.4      3509.    0.094-2    0.008-2           4116000200144 
      2694.        0.4      2694.    0.228-2    0.015-2           4116000200145 
      2709.        0.8      3527.    0.042-2    0.006-2           4116000200146 
      2723.        0.7               0.055-2    0.006-2           4116000200147 
    2773.53       0.25      2774.    0.185-2    0.014-2           4116000200148 
     2779.5        0.7      2780.    0.057-2    0.008-2           4116000200149 
     2914.9        0.6               0.048-2    0.006-2           4116000200150 
     2935.1        0.9      2934.    0.040-2    0.006-2           4116000200151 
     2958.1        0.6               0.035-2    0.006-2           4116000200152 
     2976.5        0.5      3795.    0.064-2    0.007-2           4116000200153 
     3021.9        0.9      3022.    0.021-2    0.005-2           4116000200154 
    3044.39       0.17      3044.    0.213-2    0.012-2           4116000200155 
     3064.3        0.4      3883.    0.064-2    0.007-2           4116000200156 
     3109.5        0.3      3109.    0.137-2    0.011-2           4116000200157 
     3115.8        0.2      3116.    0.245-2    0.016-2           4116000200158 
     3144.3        0.8      3963.    0.075-2    0.008-2           4116000200159 
     3195.8        0.6               0.068-2    0.007-2           4116000200160 
     3220.3        0.5               0.058-2    0.007-2           4116000200161 
     3350.8        0.5               0.024-2    0.006-2           4116000200162 
    3370.03       0.21      3370.    0.119-2    0.009-2           4116000200163 
     3435.5        0.3      3435.    0.112-2    0.009-2           4116000200164 
     3526.4        0.4      3527.    0.062-2    0.007-2           4116000200165 
     3683.6        0.5               0.060-2    0.007-2           4116000200166 
      3706.        0.6      3706.    0.069-2    0.008-2           4116000200167 
     3852.6        0.6      3853.    0.117-2    0.008-2           4116000200168 
      3979.         1.      3979.    0.031-2    0.007-2           4116000200169 
     3999.9         1.               0.022-2    0.006-2           4116000200170 
ENDDATA            151          0                                 4116000200171 
ENDSUBENT          170          0                                 4116000299999 
SUBENT        41160003   20010515                             00004116000300001 
BIB                  3          6                                 4116000300002 
REACTION   ((56-BA-136(N,INL)56-BA-136,PAR,DA,G,LEG/RS)//         4116000300003 
           (56-BA-136(N,INL)56-BA-136,PAR,DA,G,LEG/RS))           4116000300004 
EN-SEC     (E-DN,G)                                               4116000300005 
           (E-NM,G)                                               4116000300006 
ERR-ANALYS (ERR-S)  Errors are Statistical According to 68 Pc     4116000300007 
                    Confidence Interval                           4116000300008 
ENDBIB               6          0                                 4116000300009 
COMMON               1          3                                 4116000300010 
E-DN                                                              4116000300011 
KEV                                                               4116000300012 
  760.49                                                          4116000300013 
ENDCOMMON            3          0                                 4116000300014 
DATA                 4        140                                 4116000300015 
E-NM       NUMBER     DATA       ERR-S                            4116000300016 
KEV        NO-DIM     NO-DIM     NO-DIM                           4116000300017 
     158.44         2.     -0.052      0.007                      4116000300018 
     158.44         4.      0.004       0.01                      4116000300019 
     166.61         2.      -0.05       0.02                      4116000300020 
     166.61         4.      -0.06       0.04                      4116000300021 
     176.68         2.      -0.11       0.02                      4116000300022 
     176.68         4.         0.       0.03                      4116000300023 
     187.24         2.       0.27       0.04                      4116000300024 
     187.24         4.      -0.04       0.06                      4116000300025 
     273.65         2.     -0.205      0.009                      4116000300026 
     273.65         4.       0.01      0.013                      4116000300027 
     287.56         2.        0.3       0.02                      4116000300028 
     287.56         4.       0.03       0.03                      4116000300029 
     302.61         2.       0.33       0.03                      4116000300030 
     302.61         4.       0.03       0.04                      4116000300031 
     319.88         2.      -0.07       0.02                      4116000300032 
     319.88         4.       0.06       0.03                      4116000300033 
     336.97         2.      -0.09       0.05                      4116000300034 
     336.97         4.         0.                                 4116000300035 
     340.55         2.      0.282      0.012                      4116000300036 
     340.55         4.     -0.106      0.017                      4116000300037 
     487.47         2.      -0.28       0.04                      4116000300038 
     487.47         4.       0.07       0.06                      4116000300039 
     489.93         2.      0.377      0.017                      4116000300040 
     489.93         4.     -0.004       0.02                      4116000300041 
     528.94         2.         0.       0.03                      4116000300042 
     528.94         4.      -0.08       0.05                      4116000300043 
     640.72         2.      -0.69       0.03                      4116000300044 
     640.72         4.      -0.01       0.04                      4116000300045 
     671.73         2.      0.197      0.006                      4116000300046 
     671.73         4.     -0.012      0.012                      4116000300047 
     720.54         2.      0.239      0.011                      4116000300048 
     720.54         4.      -0.02      0.016                      4116000300049 
     732.46         2.     -0.205      0.006                      4116000300050 
     732.46         4.     -0.018      0.009                      4116000300051 
     793.16         2.      0.272      0.015                      4116000300052 
     793.16         4.      -0.01      0.022                      4116000300053 
     818.51         2.       0.21      0.005                      4116000300054 
     818.51         4.     -0.088      0.007                      4116000300055 
     879.93         2.      -0.37       0.02                      4116000300056 
     879.93         4.       0.09       0.03                      4116000300057 
      974.1         2.       0.16       0.03                      4116000300058 
      974.1         4.      -0.13       0.04                      4116000300059 
      981.6         2.     -0.078      0.014                      4116000300060 
      981.6         4.      0.002       0.02                      4116000300061 
     993.44         2.      0.328       0.01                      4116000300062 
     993.44         4.     -0.042      0.013                      4116000300063 
    1048.07         2.      0.277      0.005                      4116000300064 
    1048.07         4.     -0.054      0.007                      4116000300065 
    1110.26         2.       0.14       0.04                      4116000300066 
    1110.26         4.       0.03       0.05                      4116000300067 
    1118.32         2.      -0.01       0.03                      4116000300068 
    1118.32         4.       0.03       0.04                      4116000300069 
    1228.87         2.       0.05       0.04                      4116000300070 
    1228.87         4.         0.       0.05                      4116000300071 
    1235.26         2.      0.304      0.007                      4116000300072 
    1235.26         4.     -0.069      0.009                      4116000300073 
    1261.49         2.     -0.211      0.005                      4116000300074 
    1261.49         4.     -0.019      0.007                      4116000300075 
    1310.33         2.        0.2      0.007                      4116000300076 
    1310.33         4.     -0.012      0.009                      4116000300077 
    1322.87         2.      0.008       0.01                      4116000300078 
    1322.87         4.     -0.008      0.012                      4116000300079 
     1404.2         2.      0.251      0.008                      4116000300080 
     1404.2         4.       0.01      0.011                      4116000300081 
    1496.82         2.         0.       0.02                      4116000300082 
    1496.82         4.       0.02       0.03                      4116000300083 
    1537.98         2.      0.326      0.012                      4116000300084 
    1537.98         4.     -0.074      0.015                      4116000300085 
    1550.97         2.       0.26      0.007                      4116000300086 
    1550.97         4.     -0.102      0.008                      4116000300087 
    1572.28         2.     -0.286      0.006                      4116000300088 
    1572.28         4.     -0.007      0.009                      4116000300089 
    1581.36         2.     -0.027      0.006                      4116000300090 
    1581.36         4.     -0.012      0.008                      4116000300091 
    1612.37         2.     -0.193      0.013                      4116000300092 
    1612.37         4.      0.111      0.017                      4116000300093 
    1666.44         2.        0.2      0.009                      4116000300094 
    1666.44         4.     -0.002      0.012                      4116000300095 
     1714.1         2.     -0.197      0.004                      4116000300096 
     1714.1         4.      0.004      0.019                      4116000300097 
     1822.2         2.     -0.076      0.015                      4116000300098 
     1822.2         4.       0.02       0.02                      4116000300099 
    1842.85         2.       0.25       0.02                      4116000300100 
    1842.85         4.       0.01       0.03                      4116000300101 
    1875.15         2.         0.       0.02                      4116000300102 
    1875.15         4.       0.01       0.02                      4116000300103 
    1955.05         2.      0.236      0.017                      4116000300104 
    1955.05         4.     -0.043      0.026                      4116000300105 
    1961.42         2.      0.183      0.015                      4116000300106 
    1961.42         4.     -0.013       0.02                      4116000300107 
     1965.9         2.       0.01       0.05                      4116000300108 
     1965.9         4.         0.                                 4116000300109 
    1993.42         2.     -0.445      0.015                      4116000300110 
    1993.42         4.      0.103      0.021                      4116000300111 
     1999.7         2.       0.32       0.06                      4116000300112 
     1999.7         4.      -0.09       0.08                      4116000300113 
    2022.15         2.       0.21       0.03                      4116000300114 
    2022.15         4.      -0.05       0.04                      4116000300115 
    2080.04         2.      0.277      0.008                      4116000300116 
    2080.04         4.     -0.093       0.01                      4116000300117 
    2128.81         2.      0.288      0.008                      4116000300118 
    2128.81         4.     -0.121      0.012                      4116000300119 
     2203.4         2.         0.       0.03                      4116000300120 
     2203.4         4.      -0.01       0.04                      4116000300121 
     2258.9         2.       -0.2       0.07                      4116000300122 
     2258.9         4.       0.16       0.09                      4116000300123 
     2291.1         2.       0.04       0.06                      4116000300124 
     2291.1         4.      -0.07       0.08                      4116000300125 
     2423.6         2.       0.31       0.06                      4116000300126 
     2423.6         4.      -0.02       0.08                      4116000300127 
    2484.94         2.      0.179      0.015                      4116000300128 
    2484.94         4.     -0.079      0.021                      4116000300129 
     2517.1         2.         0.       0.04                      4116000300130 
     2517.1         4.      -0.01       0.05                      4116000300131 
     2690.1         2.       0.14       0.06                      4116000300132 
     2690.1         4.      -0.01       0.08                      4116000300133 
      2694.         2.       -0.1       0.03                      4116000300134 
      2694.         4.       0.01       0.04                      4116000300135 
    2773.56         2.       0.18       0.03                      4116000300136 
    2773.56         4.      -0.07       0.05                      4116000300137 
     2779.5         2.       0.15       0.13                      4116000300138 
     2779.5         4.      -0.03        0.2                      4116000300139 
    3044.39         2.      -0.14       0.03                      4116000300140 
    3044.39         4.         0.       0.04                      4116000300141 
     3064.3         2.      -0.03       0.08                      4116000300142 
     3064.3         4.      -0.03       0.12                      4116000300143 
     3109.5         2.       0.17       0.05                      4116000300144 
     3109.5         4.      -0.09       0.07                      4116000300145 
     3115.8         2.        0.2       0.06                      4116000300146 
     3115.8         4.      -0.08       0.07                      4116000300147 
    3370.03         2.      -0.11       0.05                      4116000300148 
    3370.03         4.       0.01       0.07                      4116000300149 
     3435.5         2.      -0.08       0.05                      4116000300150 
     3435.5         4.         0.       0.06                      4116000300151 
     3526.4         2.       0.21       0.06                      4116000300152 
     3526.4         4.      -0.07       0.09                      4116000300153 
      3706.         2.      -0.09       0.11                      4116000300154 
      3706.         4.         0.                                 4116000300155 
     3852.6         2.       0.23       0.05                      4116000300156 
     3852.6         4.      -0.14       0.06                      4116000300157 
ENDDATA            142          0                                 4116000300158 
ENDSUBENT          157          0                                 4116000399999 
ENDENTRY             3          0                                 4116099999999 
