ENTRY            41246   20091126                             41484124600000001 
SUBENT        41246001   20091126                             41484124600100001 
BIB                 13         38                                 4124600100002 
TITLE       Sn-117 resonance parameters measurement in the        4124600100003 
            energy range 40 - 5000 eV .                           4124600100004 
AUTHOR     (G.P.Georgiev, Kh.Faykov-Stanchik, Yu.V.Grigoriev,     4124600100005 
           G.V.Muradyan, N.B.Yaneva)                              4124600100006 
INSTITUTE  (4ZZZDUB)  Georgiev, Faykov-stanchik                   4124600100007 
           (4RUSFEI)  Grigoriev (=Grigor'ev)                      4124600100008 
           (4RUSKUR)  Muradyan                                    4124600100009 
           (3BULBLA)  Yaneva                                      4124600100010 
REFERENCE  (J,YK,1996,(2),64,199612) Main Reference,              4124600100011 
                                   data table is given            4124600100012 
REL-REF    (N,,G.V.Muradyan+,J,AE,50,394,1981)                    4124600100013 
                               Experimental method details .      4124600100014 
           (N,41527001,G.V.Muradyan+,J,NSE,90,60,1985)            4124600100015 
                              Experimental method details .       4124600100016 
FACILITY   (REAC,4ZZZDUB)  Fast Booster IBR-30                    4124600100017 
METHOD     (TOF)  Flight path 500 m. Time-of-fligth method was    4124600100018 
                  combined  with gamma-multiplicity measurements. 4124600100019 
              Time resolution 8 nsec/m .                          4124600100020 
MONITOR     Absolute measurements. Neutron flux monitoring was    4124600100021 
            performed by two He-3 proportional counters .         4124600100022 
            Measurements by carbon and U-238 -for incident neutron4124600100023 
            energy scade and background.                          4124600100024 
DETECTOR   (NAICR)  Na-I(Tl) 16-section gamma-ray detector        4124600100025 
                'ROMASHKA', total volume 36000 cm**3 .            4124600100026 
           (PROPC) Two He-3 counters for neutron flux monitoring .4124600100027 
SAMPLE      Tin oxide Sn-O2 powder in aluminium container having  4124600100028 
            diameter 70 mm. Sn-117 content is 86.5 %, thickness   4124600100029 
            5.78E-4 atoms/barn. Other admixtures -                4124600100030 
            Sn-116 content is 2.8 % , Sn-118 content is 6.8 % ,   4124600100031 
            Sn-119 content is 2. % , Sn-120 content is 1.2 % ,    4124600100032 
            Sn-122 content is 0.6 % .                             4124600100033 
ERR-ANALYS (DATA-ERR)  Errors are not specified                   4124600100034 
STATUS      Data are taken from the main reference                4124600100035 
HISTORY    (19970615C)  + + Compiled at the centre - CJD + +      4124600100036 
           (19990824U)  . . Dates corrected                       4124600100037 
           (20091126A) Subent 002 was corrected.                  4124600100038 
            BIB information was updated.                          4124600100039 
            Free text was corrected to be human-readable.         4124600100040 
ENDBIB              38          0                                 4124600100041 
NOCOMMON             0          0                                 4124600100042 
ENDSUBENT           41          0                                 4124600199999 
SUBENT        41246002   20091126                             41484124600200001 
BIB                  5         14                                 4124600200002 
REACTION  1(50-SN-117(N,0),,EN)  Resonance energy                 4124600200003 
          2(50-SN-117(N,0),,J)   Spin of the resonance            4124600200004 
          3(50-SN-117(N,0),,L)   Angular momentum of the resonance4124600200005 
          4(50-SN-117(N,G),,WID) Gamma-width of the resonance     4124600200006 
          5(50-SN-117(N,G)50-SN-118,,MLT,,RES) Gamma-multiplicity 4124600200007 
                                      at  the resonance           4124600200008 
ANALYSIS   (AREA)                                                 4124600200009 
FLAG       (1.)    Spin J determined indefinitely .               4124600200010 
           (2.)    Angular momentun determined indefinitely .     4124600200011 
           (3.)    Both spin J and angular momentum determined    4124600200012 
                   indefinitely .                                 4124600200013 
STATUS     (TABLE) Table of J,YK,1996,(2),64,1996 .               4124600200014 
HISTORY    (20091126A) DATA-ERR -> DATA-ERR 4 .                   4124600200015 
             MISC -> DATA 5 , MISC-ERR -> DATA-ERR 5 .            4124600200016 
ENDBIB              14          0                                 4124600200017 
NOCOMMON             0          0                                 4124600200018 
DATA                 9         78                                 4124600200019 
DATA      1DATA-ERR  1DATA      2DATA      3DATA      4DATA-ERR  44124600200020 
DATA      5DATA-ERR  5FLAG                                        4124600200021 
EV         EV         NO-DIM     NO-DIM     MILLI-EV   MILLI-EV   4124600200022 
PRT/REAC   PRT/REAC   NO-DIM                                      4124600200023 
   38.82     0.03       1.         0.          72.        12.     4124600200024 
2.783      0.007                                                  4124600200025 
   74.52     0.20                                                 4124600200026 
2.475      0.129                                                  4124600200027 
  111.20     0.20       0.         1.                             4124600200028 
2.405      0.029             2.                                   4124600200029 
  120.54     0.15       1.         0.          51.        11.     4124600200030 
2.782      0.011                                                  4124600200031 
  123.9      0.2        0.         0.          55.        10.     4124600200032 
2.434      0.016                                                  4124600200033 
  147.9      0.3                   1.                             4124600200034 
2.300      0.131             2.                                   4124600200035 
  166.3      0.3                   1.                             4124600200036 
2.274      0.064                                                  4124600200037 
  196.1      0.3        1.         0.          70.        15.     4124600200038 
2.744      0.011                                                  4124600200039 
  200.8      0.4                   1.                             4124600200040 
2.644      0.062                                                  4124600200041 
  221.0      0.5                                                  4124600200042 
2.665      0.158                                                  4124600200043 
  275.1      0.6                                                  4124600200044 
2.437      0.118                                                  4124600200045 
  297.5      0.7                                                  4124600200046 
2.642      0.120                                                  4124600200047 
  341.5      0.7                                                  4124600200048 
                                                                  4124600200049 
  358.0      1.0                   1.                             4124600200050 
2.664      0.032                                                  4124600200051 
  401.       1.         0.         0.                             4124600200052 
2.495      0.038                                                  4124600200053 
  420.9      1.0        1.         0.          87.        13.     4124600200054 
2.775      0.014                                                  4124600200055 
  460.       1.         1.         0.          65.        18.     4124600200056 
2.774      0.025                                                  4124600200057 
  527.2      1.0                   1.                             4124600200058 
2.615      0.103             2.                                   4124600200059 
  532.6      1.0        0.         0.                             4124600200060 
2.465      0.076                                                  4124600200061 
  557.8      1.0                                                  4124600200062 
2.467      0.142                                                  4124600200063 
  578.9      1.0                   1.          45.        15.     4124600200064 
2.580      0.033             2.                                   4124600200065 
  647.6      1.0        0.         0.                             4124600200066 
2.456      0.116             3.                                   4124600200067 
  658.7      1.0                   1.                             4124600200068 
2.567      0.099             2.                                   4124600200069 
  687.6      1.0                                                  4124600200070 
2.530      0.140                                                  4124600200071 
  705.9      1.0                                                  4124600200072 
2.637      0.103                                                  4124600200073 
  789.4      1.0                   1.                             4124600200074 
2.638      0.049                                                  4124600200075 
  811.9      2.0        1.         0.          83.        22.     4124600200076 
2.758      0.025                                                  4124600200077 
  865.6      2.0        1.         0.                             4124600200078 
2.727      0.056                                                  4124600200079 
  882.7      2.0                   1.                             4124600200080 
2.315      0.081             2.                                   4124600200081 
  940.5      3.0        1.         0.                             4124600200082 
2.754      0.040                                                  4124600200083 
  990.       3.0                   1.                             4124600200084 
2.632      0.035                                                  4124600200085 
  997.       3.         1.         0.                             4124600200086 
2.784      0.039                                                  4124600200087 
 1102.       4.                    1.                             4124600200088 
2.312      0.082                                                  4124600200089 
 1166.       3.                    1.                             4124600200090 
2.269      0.059                                                  4124600200091 
 1188.       4.         1.         0.                             4124600200092 
2.794      0.097             3.                                   4124600200093 
 1220.       5.         1.         0.                             4124600200094 
2.746      0.093             3.                                   4124600200095 
 1279.       4.                    1.                             4124600200096 
2.607      0.081                                                  4124600200097 
 1318.       4.                    1.                             4124600200098 
2.666      0.119             2.                                   4124600200099 
 1358.       4.         1.         0.          67.        15.     4124600200100 
2.796      0.041                                                  4124600200101 
 1443.       5.                                                   4124600200102 
                                                                  4124600200103 
 1488.       4.                    1.          52.        20.     4124600200104 
2.612      0.076             2.                                   4124600200105 
 1534.       7.                                                   4124600200106 
2.486      0.141                                                  4124600200107 
 1552.       4.                                                   4124600200108 
                                                                  4124600200109 
 1624.       4.                    1.                             4124600200110 
2.592      0.080                                                  4124600200111 
 1668.       5.                    1.                             4124600200112 
2.680      0.094                                                  4124600200113 
 1746.       5.         1.         0.                             4124600200114 
2.757      0.066                                                  4124600200115 
 1804.       5.         1.         0.                             4124600200116 
2.789      0.086                                                  4124600200117 
 1874.       5.         1.         0.                             4124600200118 
2.822      0.140             3.                                   4124600200119 
 1901.       6.         1.         0.                             4124600200120 
2.756      0.071                                                  4124600200121 
 1948.       6.                                                   4124600200122 
                                                                  4124600200123 
 2006.       6.         0.         0.                             4124600200124 
2.469      0.079                                                  4124600200125 
 2046.       6.                                                   4124600200126 
2.676      0.202                                                  4124600200127 
 2077.       6.         1.         0.                             4124600200128 
2.728      0.059                                                  4124600200129 
 2152.       7.         1.         0.                             4124600200130 
2.811      0.092             3.                                   4124600200131 
 2186.       7.                                                   4124600200132 
2.700      0.076                                                  4124600200133 
 2279.       7.                                                   4124600200134 
2.857      0.131                                                  4124600200135 
 2316.       7.                                                   4124600200136 
2.890      0.129                                                  4124600200137 
 2418.       8.                                                   4124600200138 
                                                                  4124600200139 
 2583.       8.                    1.                             4124600200140 
2.356      0.116             2.                                   4124600200141 
 2657.       9.                    1.                             4124600200142 
2.215      0.096                                                  4124600200143 
 2751.       9.         0.         0.                             4124600200144 
2.459      0.139             3.                                   4124600200145 
 2900.      10.         0.         0.                             4124600200146 
2.474      0.093             3.                                   4124600200147 
 2970.      10.                    1.                             4124600200148 
2.591      0.053             2.                                   4124600200149 
 3081.      10.                                                   4124600200150 
2.301      0.142                                                  4124600200151 
 3258.      12.                                                   4124600200152 
2.761      0.103                                                  4124600200153 
 3496.      12.                                                   4124600200154 
2.665       .095                                                  4124600200155 
 3566.      12.         1.         0.                             4124600200156 
2.768      0.142             3.                                   4124600200157 
 3788.      14.                                                   4124600200158 
2.762      0.159                                                  4124600200159 
 3894.      14.         1.         0.                             4124600200160 
2.771      0.125             3.                                   4124600200161 
 4059.      15.         1.         0.                             4124600200162 
2.782      0.103             3.                                   4124600200163 
 4146.      15.                                                   4124600200164 
2.910      0.103                                                  4124600200165 
 4236.      16.                    1.                             4124600200166 
2.683      0.103                                                  4124600200167 
 4393.      16.                                                   4124600200168 
                                                                  4124600200169 
 4733.      18.                                                   4124600200170 
                                                                  4124600200171 
 5075.      20.                    1.                             4124600200172 
2.604      0.082                                                  4124600200173 
 5410.      22.                                                   4124600200174 
2.706      0.095                                                  4124600200175 
 5544.      23.                                                   4124600200176 
2.615      0.121                                                  4124600200177 
 5979.       5.         0.                                        4124600200178 
2.262      0.114             1.                                   4124600200179 
ENDDATA            160          0                                 4124600200180 
ENDSUBENT          179          0                                 4124600299999 
ENDENTRY             2          0                                 4124699999999 
