ENTRY            41357   20090820                             41474135700000001 
SUBENT        41357001   20090820                             41474135700100001 
BIB                 13         33                                 4135700100002 
TITLE       Investigation of the Fragment Angular Anisotropy in   4135700100003 
            Resonance-Neutron-Induced Fission of the Aligned      4135700100004 
            235-U Target,and a Role of Jk Channels                4135700100005 
AUTHOR     (Yu.N.Kopach, A.B.Popov, V.I.Furman, N.N.Gonin,        4135700100006 
            L.K.Kozlovskiy, D.I.Tambovtsev, J.Kliman)             4135700100007 
INSTITUTE  (4ZZZDUB)  Kopach, Popov, Furman and experimental site 4135700100008 
           (4RUSFEI)  Gonin, Kozlovsky, Tambovtsev                4135700100009 
           (3SLKSLO)  Kliman                                      4135700100010 
REFERENCE  (J,YF,62,(5),900,199905)  Main Reference               4135700100011 
           (W,KOZLOVSKIY,20000425) Data for A2 given on diskette  4135700100012 
           (J,PAN,62,840,1999) English translation of Main Ref.   4135700100013 
REL-REF    (N,41295001,D.I.Tambovtsev+,J,YF,60,(6),981,1997)      4135700100014 
                 Experimental details .                           4135700100015 
FACILITY   (REAC,4ZZZDUB)  Reactor IBR-30                         4135700100016 
           (LINAC,4ZZZDUB) Linear Electron Accelerator LUE-40     4135700100017 
DETECTOR   (SOLST)  Planar detectors specially designed for low   4135700100018 
                    temperature measurements .                    4135700100019 
INC-SOURCE (POLTR)                                                4135700100020 
SAMPLE      Uranil-rubidium nitrate (U-O2-RB(N-O3)*3) by low      4135700100021 
            temperatures allowing U-235 spin aligning in a plane  4135700100022 
            perpendicular to C-Axe uranil monocrystal.            4135700100023 
            U-234 content is 0.42+-0.01%                          4135700100024 
            U-235 content is 99.4+-0.2%  ,                        4135700100025 
            U-236 content is 0.15+-0.01% ,                        4135700100026 
            U-238 content is less than 0.015 %                    4135700100027 
ADD-RES    (THEO)  Contribution of the nucleus' states with       4135700100028 
                   different spin (J) and its projection (K)      4135700100029 
STATUS     (COREL,41295001)                                       4135700100030 
ERR-ANALYS  Errors, if given, are not specified .                 4135700100031 
HISTORY    (20000426C)  + +  Compiled at CJD                      4135700100032 
           (20000426U)  Last checking has been done.              4135700100033 
           (20061027U) Reference J,PAN,62,840,1999)was added. M.M.4135700100034 
           (20090820A) Page number was corrected in last reference4135700100035 
ENDBIB              33          0                                 4135700100036 
NOCOMMON             0          0                                 4135700100037 
ENDSUBENT           36          0                                 4135700199999 
SUBENT        41357002   20091109                             41474135700200001 
BIB                  3         11                                 4135700200002 
REACTION   (92-U-235(N,F),PRE,DA/TMP,FF,LEG/RS/FCT) Legendre Coef.4135700200003 
            for spin-aligned temperature dependent 235U fission   4135700200004 
            fragments angular distribution of the form            4135700200005 
            D-Sig/D-Omega= Sigma(E)/4Pi * (1+F2(T)*A2*            4135700200006 
            P2(COS(TETA))), A2 value given in data section,       4135700200007 
            F2(T) = -0.15                                         4135700200008 
FLAG       (1.)    Data determined inaccurately                   4135700200009 
STATUS     (APRVD)  Kozlovskiy, 20000425.                         4135700200010 
           (TABLE) From L.K.Kozlovskiy.                           4135700200011 
            Data are presented on Fig.1 of J,YF,62,(5),900,1999   4135700200012 
            for energy range 0 - 20 eV.                           4135700200013 
ENDBIB              11          0                                 4135700200014 
COMMON               2          3                                 4135700200015 
TEMP       NUMBER                                                 4135700200016 
K          NO-DIM                                                 4135700200017 
         1.    2.                                                 4135700200018 
ENDCOMMON            3          0                                 4135700200019 
DATA                 4        974                                 4135700200020 
EN         DATA       DATA-ERR   FLAG                             4135700200021 
EV         NO-DIM     NO-DIM     NO-DIM                           4135700200022 
       0.06      -1.75       0.07                                 4135700200023 
        0.1      -2.01       0.08                                 4135700200024 
       0.15      -2.08        0.1                                 4135700200025 
        0.2      -2.28       0.13                                 4135700200026 
       0.25      -1.92       0.14                                 4135700200027 
        0.3       -1.3       0.14                                 4135700200028 
       0.35      -1.07       0.17                                 4135700200029 
        0.4      -1.02       0.04                                 4135700200030 
       0.45      -0.96       0.04                                 4135700200031 
        0.5      -1.04       0.04                                 4135700200032 
       0.55      -0.99       0.04                                 4135700200033 
        0.6      -1.01       0.04                                 4135700200034 
       0.65      -1.13       0.04                                 4135700200035 
        0.7      -1.09       0.04                                 4135700200036 
       0.75      -1.18       0.05                                 4135700200037 
        0.8      -1.03       0.05                                 4135700200038 
       0.85       -1.3       0.05                                 4135700200039 
        0.9      -1.31       0.05                                 4135700200040 
       0.95      -1.32       0.05                                 4135700200041 
         1.      -1.35       0.05                                 4135700200042 
       1.05      -1.54       0.05                                 4135700200043 
        1.1      -1.84       0.04                                 4135700200044 
       1.15      -2.08       0.04                                 4135700200045 
        1.2      -2.36       0.05                                 4135700200046 
       1.25      -2.35       0.06                                 4135700200047 
        1.3      -2.11       0.07                                 4135700200048 
       1.35      -1.86       0.07                                 4135700200049 
        1.4      -1.72       0.08                                 4135700200050 
       1.45      -1.56       0.09                                 4135700200051 
        1.5      -1.42       0.09                                 4135700200052 
       1.55      -1.47       0.09                                 4135700200053 
        1.6      -1.31       0.09                                 4135700200054 
       1.65      -1.36        0.1                                 4135700200055 
        1.7       -1.2       0.09                                 4135700200056 
       1.75      -1.25       0.09                                 4135700200057 
        1.8      -1.21        0.1                                 4135700200058 
       1.85      -1.25        0.1                                 4135700200059 
        1.9       -1.3        0.1                                 4135700200060 
       1.95      -1.16       0.11                                 4135700200061 
         2.      -1.45        0.1                                 4135700200062 
       2.05      -1.89       0.09                                 4135700200063 
        2.1      -1.94       0.12                                 4135700200064 
       2.14      -1.59       0.12                                 4135700200065 
        2.2      -1.52        0.1                                 4135700200066 
       2.25      -1.31       0.12                                 4135700200067 
        2.3      -1.51       0.12                                 4135700200068 
       2.35      -1.33       0.13                                 4135700200069 
        2.4      -1.29       0.13                                 4135700200070 
       2.45      -1.37       0.14                                 4135700200071 
        2.5      -1.29       0.14                                 4135700200072 
       2.55      -1.41       0.15                                 4135700200073 
        2.6      -1.31       0.15                                 4135700200074 
       2.65      -1.17       0.16                                 4135700200075 
        2.7       -1.5       0.17                                 4135700200076 
       2.75      -1.26       0.16                                 4135700200077 
        2.8      -1.15       0.14                                 4135700200078 
       2.85      -1.34       0.13                                 4135700200079 
        2.9      -1.11       0.13                                 4135700200080 
       2.95      -1.36       0.13                                 4135700200081 
         3.      -1.43       0.12                                 4135700200082 
       3.05      -1.65       0.11                                 4135700200083 
        3.1      -1.76        0.1                                 4135700200084 
       3.15      -2.05       0.09                                 4135700200085 
        3.2      -2.15        0.1                                 4135700200086 
       3.25      -2.04       0.12                                 4135700200087 
        3.3      -2.22       0.13                                 4135700200088 
       3.35      -2.17       0.14                                 4135700200089 
        3.4      -1.97       0.13                                 4135700200090 
       3.45       -1.8       0.12                                 4135700200091 
        3.5      -1.91       0.11                                 4135700200092 
       3.55      -2.03       0.09                                 4135700200093 
        3.6      -2.16       0.08                                 4135700200094 
       3.65      -2.37       0.09                                 4135700200095 
        3.7      -2.35       0.12                                 4135700200096 
       3.75       -1.9       0.16                                 4135700200097 
        3.8      -2.01       0.18                                 4135700200098 
       3.85      -1.54       0.19                                 4135700200099 
        3.9      -2.04       0.21                                 4135700200100 
       3.95      -1.52       0.22                                 4135700200101 
         4.      -1.55       0.21                                 4135700200102 
       4.05       -1.9       0.23                                 4135700200103 
        4.1      -1.08       0.24                                 4135700200104 
       4.15      -1.26       0.23                                 4135700200105 
        4.2      -1.45       0.24                                 4135700200106 
       4.25      -1.57       0.24                                 4135700200107 
        4.3      -1.16       0.24                                 4135700200108 
       4.35      -1.27       0.24                                 4135700200109 
        4.4      -1.41       0.25                                 4135700200110 
       4.45      -1.76       0.25                                 4135700200111 
        4.5      -1.39       0.26                                 4135700200112 
       4.55      -1.69       0.26                                 4135700200113 
        4.6      -1.32       0.25                                 4135700200114 
       4.65      -1.05       0.25                                 4135700200115 
        4.7      -1.58       0.24                                 4135700200116 
       4.75        -2.       0.23                                 4135700200117 
        4.8      -1.86        0.2                                 4135700200118 
       4.85      -1.76       0.17                                 4135700200119 
        4.9      -1.35       0.19                                 4135700200120 
       4.95      -1.53       0.25                                 4135700200121 
         5.      -1.53       0.26                                 4135700200122 
       5.05      -1.65       0.27                                 4135700200123 
        5.1       -1.4       0.26                                 4135700200124 
       5.15       -1.4       0.25                                 4135700200125 
        5.2      -1.51       0.25                                 4135700200126 
       5.25      -1.51       0.23                                 4135700200127 
        5.3      -1.01       0.21                                 4135700200128 
       5.35      -1.84       0.22                                 4135700200129 
        5.4      -1.35        0.2                                 4135700200130 
       5.45      -1.02        0.2                                 4135700200131 
        5.5      -1.28       0.19                                 4135700200132 
       5.55      -1.12       0.18                                 4135700200133 
        5.6      -0.85       0.19                                 4135700200134 
       5.65      -0.99        0.2                                 4135700200135 
        5.7      -0.94       0.19                                 4135700200136 
       5.75      -0.67       0.19                                 4135700200137 
        5.8      -0.51       0.18                                 4135700200138 
       5.85      -0.73       0.19                                 4135700200139 
        5.9      -0.93       0.18                                 4135700200140 
       5.95      -0.97       0.17                                 4135700200141 
         6.      -1.12       0.16                                 4135700200142 
       6.05      -0.87       0.15                                 4135700200143 
        6.1      -1.02       0.14                                 4135700200144 
       6.15      -0.96       0.12                                 4135700200145 
        6.2      -1.08       0.12                                 4135700200146 
       6.25      -1.48       0.11                                 4135700200147 
        6.3      -1.61       0.11                                 4135700200148 
       6.34      -2.25        0.1                                 4135700200149 
        6.4      -2.21       0.09                                 4135700200150 
       6.45      -2.09       0.11                                 4135700200151 
        6.5      -2.08       0.16                                 4135700200152 
       6.55      -2.27       0.22                                 4135700200153 
        6.6      -1.49       0.24                                 4135700200154 
       6.64      -1.77       0.27                                 4135700200155 
       6.69      -2.17       0.27                                 4135700200156 
       6.74      -2.59       0.24                                 4135700200157 
        6.8      -2.39       0.22                                 4135700200158 
       6.84        -2.        0.2                                 4135700200159 
       6.89       -2.4       0.19                                 4135700200160 
       6.94      -2.36       0.17                                 4135700200161 
         7.      -2.48       0.14                                 4135700200162 
       7.05      -2.67       0.12                                 4135700200163 
       7.09      -2.33       0.11                                 4135700200164 
       7.15      -2.18       0.13                                 4135700200165 
        7.2      -1.99       0.19                                 4135700200166 
       7.25      -1.78       0.21                                 4135700200167 
        7.3      -1.65       0.26                                 4135700200168 
       7.34      -1.22       0.25                                 4135700200169 
       7.39      -1.41       0.25                                 4135700200170 
       7.45      -1.56       0.26                                 4135700200171 
        7.5      -0.85       0.27                                 4135700200172 
       7.54      -2.06       0.28                                 4135700200173 
       7.59      -1.97       0.29                                 4135700200174 
       7.64      -1.49       0.29                                 4135700200175 
       7.69      -1.45       0.29                                 4135700200176 
       7.74      -2.17       0.31                                 4135700200177 
       7.79      -1.58       0.29                                 4135700200178 
       7.85      -2.12        0.3                                 4135700200179 
       7.89      -2.04       0.31                                 4135700200180 
       7.94      -1.23       0.27                                 4135700200181 
       7.99      -1.54       0.26                                 4135700200182 
       8.05      -2.63       0.25                                 4135700200183 
        8.1      -2.05       0.25                                 4135700200184 
       8.15       -2.1       0.21                                 4135700200185 
       8.19      -1.92       0.22                                 4135700200186 
       8.24      -2.11       0.18                                 4135700200187 
        8.3      -2.22       0.18                                 4135700200188 
       8.34      -2.09       0.16                                 4135700200189 
       8.39      -2.18       0.13                                 4135700200190 
       8.44      -2.43       0.12                                 4135700200191 
       8.49      -2.41       0.11                                 4135700200192 
       8.54      -2.51       0.09                                 4135700200193 
        8.6      -2.19       0.08                                 4135700200194 
       8.64      -2.18       0.07                                 4135700200195 
       8.69      -2.14       0.06                                 4135700200196 
       8.74      -2.17       0.05                                 4135700200197 
       8.79      -2.12       0.05                                 4135700200198 
       8.84       -1.9       0.05                                 4135700200199 
       8.89      -1.75       0.06                                 4135700200200 
       8.94      -1.59       0.07                                 4135700200201 
       8.99      -1.56       0.09                                 4135700200202 
       9.04      -1.71       0.09                                 4135700200203 
       9.09      -1.85        0.1                                 4135700200204 
       9.14      -2.08        0.1                                 4135700200205 
        9.2      -2.43        0.1                                 4135700200206 
       9.24      -2.29       0.11                                 4135700200207 
       9.29      -2.17        0.1                                 4135700200208 
       9.34      -2.39        0.1                                 4135700200209 
        9.4        -2.       0.11                                 4135700200210 
       9.44      -2.12       0.14                                 4135700200211 
       9.49       -2.1       0.13                                 4135700200212 
       9.54      -2.24       0.16                                 4135700200213 
       9.59      -2.09       0.14                                 4135700200214 
       9.65      -2.28       0.14                                 4135700200215 
       9.69      -2.13       0.17                                 4135700200216 
       9.74      -1.93       0.15                                 4135700200217 
        9.8      -1.66       0.17                                 4135700200218 
       9.84      -1.91       0.17                                 4135700200219 
       9.89      -1.74       0.16                                 4135700200220 
       9.94      -1.76       0.18                                 4135700200221 
       9.99      -1.69       0.16                                 4135700200222 
      10.04      -2.01       0.18                                 4135700200223 
      10.09      -1.59       0.17                                 4135700200224 
      10.14      -2.09       0.14                                 4135700200225 
       10.2      -2.04       0.16                                 4135700200226 
      10.24      -1.83       0.16                                 4135700200227 
      10.29      -1.58       0.17                                 4135700200228 
      10.34       -1.3       0.17                                 4135700200229 
      10.39       -1.5       0.16                                 4135700200230 
      10.45       -1.5       0.19                                 4135700200231 
      10.49      -1.46       0.19                                 4135700200232 
      10.54      -1.67        0.2                                 4135700200233 
      10.59      -1.51        0.2                                 4135700200234 
      10.64      -1.25        0.2                                 4135700200235 
      10.69      -1.43        0.2                                 4135700200236 
      10.74      -1.71        0.2                                 4135700200237 
      10.79      -1.24        0.2                                 4135700200238 
      10.84      -1.42        0.2                                 4135700200239 
      10.89      -1.46       0.21                                 4135700200240 
      10.94      -1.79       0.21                                 4135700200241 
      10.99      -1.83       0.21                                 4135700200242 
      11.04      -1.47       0.21                                 4135700200243 
      11.09      -1.52       0.21                                 4135700200244 
      11.14      -1.48       0.24                                 4135700200245 
      11.19      -1.28       0.21                                 4135700200246 
      11.24      -1.25        0.2                                 4135700200247 
      11.29      -1.31       0.19                                 4135700200248 
      11.34      -1.59       0.19                                 4135700200249 
      11.39      -1.63       0.21                                 4135700200250 
      11.44      -1.48       0.18                                 4135700200251 
      11.49      -1.63       0.17                                 4135700200252 
      11.54      -1.49       0.15                                 4135700200253 
      11.59      -1.82       0.18                                 4135700200254 
      11.64      -1.72       0.14                                 4135700200255 
      11.69      -1.67       0.14                                 4135700200256 
      11.74       -1.9       0.18                                 4135700200257 
      11.79      -1.39       0.17                                 4135700200258 
      11.84      -1.12        0.2                                 4135700200259 
      11.89      -1.25       0.17                                 4135700200260 
      11.94      -1.14       0.16                                 4135700200261 
      11.99      -1.03       0.17                                 4135700200262 
      12.04       -1.1       0.13                                 4135700200263 
      12.09      -0.84       0.14                                 4135700200264 
      12.14      -0.89       0.11                                 4135700200265 
      12.19       -0.8       0.12                                 4135700200266 
      12.24      -0.79       0.09                                 4135700200267 
      12.29      -0.93       0.09                                 4135700200268 
      12.34      -0.97       0.07                                 4135700200269 
      12.39      -0.98       0.08                                 4135700200270 
      12.44      -0.79       0.08                                 4135700200271 
      12.49      -0.95       0.09                                 4135700200272 
      12.54      -1.09       0.13                                 4135700200273 
      12.59      -1.49       0.14                                 4135700200274 
      12.64       -1.4       0.19                                 4135700200275 
      12.69      -1.76       0.19                                 4135700200276 
      12.74      -1.83       0.16                                 4135700200277 
      12.79      -1.86       0.19                                 4135700200278 
      12.84      -1.83       0.19                                 4135700200279 
      12.89      -1.84       0.16                                 4135700200280 
      12.94      -1.45       0.19                                 4135700200281 
      12.99       -1.5        0.2                                 4135700200282 
      13.04      -1.25        0.2                                 4135700200283 
      13.09      -1.14       0.17                                 4135700200284 
      13.14      -0.86        0.2                                 4135700200285 
      13.19      -1.38        0.2                                 4135700200286 
      13.24      -1.52       0.19                                 4135700200287 
      13.29      -1.79       0.19                                 4135700200288 
      13.34      -1.25       0.16                                 4135700200289 
      13.39       -1.2       0.19                                 4135700200290 
      13.44      -1.11       0.19                                 4135700200291 
      13.49      -1.25       0.18                                 4135700200292 
      13.54       -0.9       0.17                                 4135700200293 
      13.59      -0.96       0.17                                 4135700200294 
      13.63      -1.23       0.16                                 4135700200295 
      13.68      -0.98       0.14                                 4135700200296 
      13.74      -1.17       0.12                                 4135700200297 
      13.79      -1.12       0.14                                 4135700200298 
      13.84      -1.19       0.14                                 4135700200299 
      13.89      -1.15       0.13                                 4135700200300 
      13.94      -0.99       0.13                                 4135700200301 
      13.99      -1.09       0.13                                 4135700200302 
      14.04      -1.02       0.14                                 4135700200303 
      14.09      -1.26       0.14                                 4135700200304 
      14.14      -1.25       0.15                                 4135700200305 
      14.19      -1.22       0.15                                 4135700200306 
      14.24      -1.16       0.16                                 4135700200307 
      14.29      -1.08       0.17                                 4135700200308 
      14.35      -0.92       0.17                                 4135700200309 
       14.4      -1.06       0.18                                 4135700200310 
      14.44      -1.08       0.18                                 4135700200311 
      14.48      -1.15       0.23                                 4135700200312 
      14.53      -1.24       0.19                                 4135700200313 
      14.58      -1.45       0.19                                 4135700200314 
      14.63      -1.43       0.21                                 4135700200315 
      14.69      -1.56       0.23                                 4135700200316 
      14.74      -1.53       0.23                                 4135700200317 
      14.79      -1.43       0.23                                 4135700200318 
      14.84      -1.47       0.23                                 4135700200319 
      14.89      -1.69        0.3                                 4135700200320 
      14.93      -1.69       0.25                                 4135700200321 
      14.98      -1.99       0.23                                 4135700200322 
      15.04      -2.17       0.23                                 4135700200323 
      15.09      -1.81       0.22                                 4135700200324 
      15.14      -2.32       0.21                                 4135700200325 
      15.19      -2.01       0.28                                 4135700200326 
      15.23      -2.25       0.19                                 4135700200327 
      15.29      -2.29       0.18                                 4135700200328 
      15.34      -2.33       0.17                                 4135700200329 
      15.39      -2.43       0.22                                 4135700200330 
      15.43      -1.99       0.17                                 4135700200331 
      15.48      -1.89       0.18                                 4135700200332 
      15.54      -2.11       0.21                                 4135700200333 
      15.58      -1.37       0.31                                 4135700200334 
      15.63      -1.91       0.23                                 4135700200335 
      15.69       -1.9       0.23                                 4135700200336 
      15.74      -1.72       0.31                                 4135700200337 
      15.78       -1.9       0.23                                 4135700200338 
      15.84      -1.93       0.21                                 4135700200339 
      15.89      -2.05        0.2                                 4135700200340 
      15.94      -2.41       0.27                                 4135700200341 
      15.98      -2.07       0.18                                 4135700200342 
      16.03      -2.45       0.22                                 4135700200343 
      16.08      -2.25       0.17                                 4135700200344 
      16.14      -2.38       0.16                                 4135700200345 
      16.19       -1.8       0.23                                 4135700200346 
      16.23      -2.01        0.2                                 4135700200347 
      16.29       -2.3       0.22                                 4135700200348 
      16.33      -1.76        0.3                                 4135700200349 
      16.38      -2.06       0.21                                 4135700200350 
      16.43      -2.11       0.26                                 4135700200351 
      16.48      -2.12        0.2                                 4135700200352 
      16.54      -1.88       0.17                                 4135700200353 
      16.59      -2.52       0.23                                 4135700200354 
      16.64      -2.64       0.16                                 4135700200355 
      16.68      -2.83       0.23                                 4135700200356 
      16.73      -2.61       0.17                                 4135700200357 
      16.78      -2.82       0.25                                 4135700200358 
      16.83      -2.26       0.19                                 4135700200359 
      16.88      -1.91       0.27                                 4135700200360 
      16.93      -2.42       0.24                                 4135700200361 
      16.98      -1.93        0.3                                 4135700200362 
      17.03       -2.4       0.26                                 4135700200363 
      17.08      -1.91       0.31                                 4135700200364 
      17.13      -2.29       0.27                                 4135700200365 
      17.18      -2.03       0.32                                 4135700200366 
      17.23      -2.09       0.26                                 4135700200367 
      17.28      -1.97       0.31                                 4135700200368 
      17.33      -2.32       0.25                                 4135700200369 
      17.38      -2.22       0.32                                 4135700200370 
      17.43      -2.31       0.23                                 4135700200371 
      17.48      -1.55       0.31                                 4135700200372 
      17.54       -2.4       0.22                                 4135700200373 
      17.59      -2.03       0.28                                 4135700200374 
      17.64      -2.17        0.2                                 4135700200375 
      17.69      -2.58       0.27                                 4135700200376 
      17.73      -2.21       0.24                                 4135700200377 
      17.78      -1.74       0.18                                 4135700200378 
      17.83       -2.3       0.23                                 4135700200379 
      17.89      -2.14       0.16                                 4135700200380 
      17.94      -1.86        0.2                                 4135700200381 
      17.98      -2.07       0.19                                 4135700200382 
      18.03      -2.15       0.15                                 4135700200383 
      18.08      -1.92       0.19                                 4135700200384 
      18.14      -1.87       0.14                                 4135700200385 
      18.19      -1.76       0.21                                 4135700200386 
      18.23       -1.8       0.21                                 4135700200387 
      18.29      -2.26       0.16                                 4135700200388 
      18.34      -2.22       0.22                                 4135700200389 
      18.38      -1.85       0.24                                 4135700200390 
      18.44      -1.84       0.16                                 4135700200391 
       18.5      -2.47        0.2                                 4135700200392 
      18.53      -2.18       0.22                                 4135700200393 
      18.59      -2.08       0.14                                 4135700200394 
      18.65      -2.17       0.18                                 4135700200395 
      18.68      -2.02       0.19                                 4135700200396 
      18.74       -2.1       0.12                                 4135700200397 
      18.79      -2.26       0.16                                 4135700200398 
      18.84      -2.34       0.11                                 4135700200399 
      18.89      -1.66       0.21                                 4135700200400 
      18.94      -2.18        0.1                                 4135700200401 
        19.      -2.31       0.09                                 4135700200402 
      19.03      -1.67       0.36                                 4135700200403 
      19.09       -2.4       0.08                                 4135700200404 
      19.14      -2.16       0.11                                 4135700200405 
       19.2      -2.37       0.07                                 4135700200406 
      19.24      -2.05       0.41                                 4135700200407 
      19.29      -2.46       0.07                                 4135700200408 
      19.34      -2.24       0.09                                 4135700200409 
       19.4      -2.24       0.07                                 4135700200410 
      19.44      -2.93       0.54                                 4135700200411 
      19.49       -1.9       0.09                                 4135700200412 
      19.54      -1.38       0.16                                 4135700200413 
      19.59      -1.77       0.17                                 4135700200414 
      19.65      -2.13       0.16                                 4135700200415 
      19.68      -1.87       0.34                                 4135700200416 
      19.74      -1.73       0.16                                 4135700200417 
      19.79      -1.99       0.23                                 4135700200418 
      19.85       -1.8       0.16                                 4135700200419 
      19.91      -2.14       0.25                                 4135700200420 
      19.93      -1.63       0.36                                 4135700200421 
      19.99      -1.77       0.17                                 4135700200422 
      20.04      -2.07       0.23                                 4135700200423 
      20.09      -2.02        0.2                                 4135700200424 
      20.15      -2.12       0.17                                 4135700200425 
       20.2      -1.82       0.24                                 4135700200426 
      20.24      -1.84       0.33                                 4135700200427 
      20.29      -2.04       0.17                                 4135700200428 
      20.34      -2.05       0.23                                 4135700200429 
      20.39      -2.14        0.2                                 4135700200430 
      20.45      -2.54       0.17                                 4135700200431 
      20.51      -2.56       0.24                                 4135700200432 
      20.55      -2.55       0.19                                 4135700200433 
      20.61      -2.29       0.15                                 4135700200434 
      20.65       -2.5       0.43                                 4135700200435 
      20.69      -2.27       0.21                                 4135700200436 
      20.74       -2.4       0.18                                 4135700200437 
       20.8      -2.38       0.14                                 4135700200438 
      20.86      -2.31       0.19                                 4135700200439 
      20.91      -2.12       0.18                                 4135700200440 
      20.95      -2.36       0.18                                 4135700200441 
        21.      -2.21       0.25         1.                      4135700200442 
      21.04      -2.31       0.12         1.                      4135700200443 
       21.1      -2.12       0.16         1.                      4135700200444 
      21.14      -1.89       0.16         1.                      4135700200445 
      21.19        -2.       0.18         1.                      4135700200446 
      21.24        -2.       0.19         1.                      4135700200447 
      21.29      -1.58       0.23         1.                      4135700200448 
      21.35      -1.87        0.2         1.                      4135700200449 
      21.41      -1.38        0.3         1.                      4135700200450 
      21.46      -1.93       0.31         1.                      4135700200451 
       21.5      -1.12       0.31         1.                      4135700200452 
      21.55      -1.38       0.32         1.                      4135700200453 
      21.61      -2.05        0.3         1.                      4135700200454 
      21.66      -1.64        0.3         1.                      4135700200455 
       21.7      -1.86        0.7         1.                      4135700200456 
      21.74      -1.85       0.23         1.                      4135700200457 
       21.8      -2.02       0.31         1.                      4135700200458 
      21.85      -1.49        0.3         1.                      4135700200459 
       21.9       -2.1       0.31         1.                      4135700200460 
      21.94      -1.83        0.3         1.                      4135700200461 
        22.      -1.96        0.3         1.                      4135700200462 
      22.04      -1.61       0.28         1.                      4135700200463 
       22.1      -2.21       0.29         1.                      4135700200464 
      22.15      -1.92       0.28         1.                      4135700200465 
      22.19      -1.91       0.29         1.                      4135700200466 
      22.25      -1.91       0.27         1.                      4135700200467 
      22.29      -2.07       0.27         1.                      4135700200468 
      22.34      -1.99       0.26         1.                      4135700200469 
      22.39       -2.6       0.26         1.                      4135700200470 
      22.44      -2.23       0.25         1.                      4135700200471 
      22.49      -2.36       0.25         1.                      4135700200472 
      22.54      -2.17       0.24         1.                      4135700200473 
      22.59      -1.92       0.23         1.                      4135700200474 
      22.65      -1.95       0.22         1.                      4135700200475 
      22.69       -2.6       0.22         1.                      4135700200476 
      22.74      -2.06       0.21         1.                      4135700200477 
      22.79      -2.33        0.2         1.                      4135700200478 
      22.84      -2.34       0.19         1.                      4135700200479 
       22.9      -2.06       0.19         1.                      4135700200480 
      22.95      -2.43       0.19         1.                      4135700200481 
        23.      -2.26       0.18         1.                      4135700200482 
      23.05      -2.22       0.18         1.                      4135700200483 
       23.1      -2.72       0.19         1.                      4135700200484 
      23.15      -2.17       0.19         1.                      4135700200485 
       23.2      -2.46       0.19         1.                      4135700200486 
      23.26      -1.99       0.18         1.                      4135700200487 
      23.31      -2.25       0.18         1.                      4135700200488 
      23.36      -2.09       0.17         1.                      4135700200489 
      23.41      -2.51       0.17         1.                      4135700200490 
      23.46      -2.09       0.16         1.                      4135700200491 
      23.51      -2.33       0.16         1.                      4135700200492 
      23.55      -2.19       0.34         1.                      4135700200493 
      23.59      -2.28       0.17         1.                      4135700200494 
      23.64      -2.43       0.16         1.                      4135700200495 
      23.69      -2.16       0.16         1.                      4135700200496 
      23.75      -1.99       0.17         1.                      4135700200497 
       23.8      -1.97       0.18         1.                      4135700200498 
      23.85       -1.8       0.19         1.                      4135700200499 
       23.9       -1.7       0.19         1.                      4135700200500 
      23.96      -1.72        0.2         1.                      4135700200501 
      24.01      -1.93        0.2         1.                      4135700200502 
      24.07      -1.45       0.21         1.                      4135700200503 
      24.09      -1.47       0.42         1.                      4135700200504 
      24.14       -1.5       0.22         1.                      4135700200505 
      24.19      -1.65        0.2         1.                      4135700200506 
      24.24      -1.63       0.19         1.                      4135700200507 
       24.3      -1.25       0.19         1.                      4135700200508 
      24.35      -1.49       0.19         1.                      4135700200509 
      24.41      -1.41       0.19         1.                      4135700200510 
      24.46      -1.61       0.19         1.                      4135700200511 
      24.52      -0.95        0.2         1.                      4135700200512 
      24.55      -1.27       0.42         1.                      4135700200513 
      24.59      -1.42       0.22         1.                      4135700200514 
      24.64      -1.04        0.2         1.                      4135700200515 
      24.69      -1.11        0.2         1.                      4135700200516 
      24.75      -1.35        0.2         1.                      4135700200517 
      24.81      -1.12       0.19         1.                      4135700200518 
      24.87      -0.57       0.19         1.                      4135700200519 
      24.91      -1.32       0.46         1.                      4135700200520 
      24.94       -0.4        0.2         1.                      4135700200521 
      24.99      -0.65       0.18         1.                      4135700200522 
      25.05      -1.12       0.18         1.                      4135700200523 
       25.1      -0.98       0.18         1.                      4135700200524 
      25.16      -0.95       0.18         1.                      4135700200525 
       25.2      -1.19       0.43         1.                      4135700200526 
      25.23      -0.95       0.19         1.                      4135700200527 
      25.29       -0.9       0.17         1.                      4135700200528 
      25.35       -1.2       0.18         1.                      4135700200529 
       25.4      -0.93       0.17         1.                      4135700200530 
      25.46       -0.6       0.17         1.                      4135700200531 
       25.5      -0.53        0.4         1.                      4135700200532 
      25.53      -0.88       0.19         1.                      4135700200533 
      25.59       -1.1       0.18         1.                      4135700200534 
      25.65      -0.66       0.18         1.                      4135700200535 
       25.7      -1.04       0.19         1.                      4135700200536 
      25.77      -0.87       0.19         1.                      4135700200537 
      25.81      -1.04       0.47         1.                      4135700200538 
      25.84       -0.9       0.22         1.                      4135700200539 
       25.9      -1.42       0.21         1.                      4135700200540 
      25.95      -1.43       0.22         1.                      4135700200541 
      26.01      -0.98       0.22         1.                      4135700200542 
      26.06      -1.81       0.54         1.                      4135700200543 
      26.09      -1.84       0.25         1.                      4135700200544 
      26.15      -1.76       0.22         1.                      4135700200545 
      26.21      -1.77       0.22         1.                      4135700200546 
      26.27      -1.87       0.21         1.                      4135700200547 
      26.31      -1.76       1.16         1.                      4135700200548 
      26.34      -2.19       0.21         1.                      4135700200549 
       26.4      -1.37        0.2         1.                      4135700200550 
      26.46      -2.04        0.2         1.                      4135700200551 
       26.5      -1.52       0.45         1.                      4135700200552 
      26.53      -1.97       0.21         1.                      4135700200553 
      26.59       -1.7        0.2         1.                      4135700200554 
      26.65      -1.49       0.21         1.                      4135700200555 
      26.72       -1.5       0.22         1.                      4135700200556 
      26.75      -2.59       1.22         1.                      4135700200557 
      26.79      -1.42       0.23         1.                      4135700200558 
      26.85      -1.61       0.24         1.                      4135700200559 
      26.91      -1.52       0.24         1.                      4135700200560 
      26.96      -0.97       0.57         1.                      4135700200561 
      26.99      -1.66       0.28         1.                      4135700200562 
      27.05       -1.7       0.24         1.                      4135700200563 
      27.11      -1.07       0.25         1.                      4135700200564 
      27.16      -1.64       0.58         1.                      4135700200565 
      27.19      -2.03       0.27         1.                      4135700200566 
      27.25      -1.65       0.25         1.                      4135700200567 
      27.31      -1.97       0.25         1.                      4135700200568 
      27.36      -1.19       0.55         1.                      4135700200569 
      27.39      -1.88       0.27         1.                      4135700200570 
      27.45      -1.83       0.24         1.                      4135700200571 
      27.51      -1.81       0.23         1.                      4135700200572 
      27.55      +0.27       1.13         1.                      4135700200573 
      27.59      -2.18       0.23         1.                      4135700200574 
      27.65        -2.       0.22         1.                      4135700200575 
      27.71      -1.72       0.42         1.                      4135700200576 
      27.73      -2.11       0.23         1.                      4135700200577 
      27.79       -2.1       0.21         1.                      4135700200578 
      27.86      -1.67        0.2         1.                      4135700200579 
      27.91      -1.67       0.49         1.                      4135700200580 
      27.94       -1.8       0.23         1.                      4135700200581 
        28.      -1.44       0.23         1.                      4135700200582 
      28.06      -1.26       0.24         1.                      4135700200583 
       28.1      -1.56       1.39         1.                      4135700200584 
      28.14      -0.94       0.24         1.                      4135700200585 
      28.21      -1.04       0.26         1.                      4135700200586 
      28.26      -1.05       0.54         1.                      4135700200587 
      28.29      -0.98       0.28         1.                      4135700200588 
      28.35      -1.26       0.27         1.                      4135700200589 
      28.41      -1.55       0.56         1.                      4135700200590 
      28.43      -1.38       0.29         1.                      4135700200591 
       28.5      -1.33       0.28         1.                      4135700200592 
      28.56      -1.54       0.28         1.                      4135700200593 
       28.6      +0.26       1.55         1.                      4135700200594 
      28.64      -1.52        0.3         1.                      4135700200595 
      28.71      -1.37       0.29         1.                      4135700200596 
      28.75      +0.19       1.67         1.                      4135700200597 
      28.78      -1.94       0.31         1.                      4135700200598 
      28.85      -1.66       0.31         1.                      4135700200599 
      28.91      -0.64       0.68         1.                      4135700200600 
      28.94      -2.51       0.35         1.                      4135700200601 
        29.      -1.84       0.31         1.                      4135700200602 
      29.06       -2.5       0.69         1.                      4135700200603 
      29.09      -1.17       0.34         1.                      4135700200604 
      29.15      -2.28       0.31         1.                      4135700200605 
      29.21      -1.32       0.71         1.                      4135700200606 
      29.24      -2.59       0.36         1.                      4135700200607 
       29.3      -2.03        0.3         1.                      4135700200608 
      29.36      -1.49       0.69         1.                      4135700200609 
      29.39      -1.62       0.34         1.                      4135700200610 
      29.45      -2.19       0.29         1.                      4135700200611 
      29.51      -2.59       0.67         1.                      4135700200612 
      29.54      -2.06       0.33         1.                      4135700200613 
       29.6      -1.56       0.28         1.                      4135700200614 
      29.66      -0.86       0.64         1.                      4135700200615 
      29.69      -2.05       0.32         1.                      4135700200616 
      29.75      -2.23       0.29         1.                      4135700200617 
      29.81      -2.24       0.64         1.                      4135700200618 
      29.84      -1.92       0.32         1.                      4135700200619 
      29.91      -1.73       0.28         1.                      4135700200620 
      29.96      -1.23       1.01         1.                      4135700200621 
      29.99      -2.12        0.3         1.                      4135700200622 
      30.06        -2.       0.29         1.                      4135700200623 
      30.09      -0.07       1.55         1.                      4135700200624 
      30.14      -1.89       0.28         1.                      4135700200625 
      30.21      -1.88       0.27         1.                      4135700200626 
      30.25      -1.53       1.42         1.                      4135700200627 
       30.3      -2.29       0.26         1.                      4135700200628 
      30.36      -1.14       0.54         1.                      4135700200629 
      30.39      -2.16       0.28         1.                      4135700200630 
      30.45      -2.27       0.24         1.                      4135700200631 
      30.51      -2.38       0.96         1.                      4135700200632 
      30.54      -2.13       0.23         1.                      4135700200633 
      30.61      -2.28       0.23         1.                      4135700200634 
      30.65      -1.61       1.23         1.                      4135700200635 
      30.69       -2.6       0.23         1.                      4135700200636 
      30.75       -1.9       0.48         1.                      4135700200637 
      30.78      -2.37       0.25         1.                      4135700200638 
      30.85      -1.95       0.22         1.                      4135700200639 
      30.91       -2.6       0.89         1.                      4135700200640 
      30.94      -2.54       0.23         1.                      4135700200641 
      31.01      -2.02       0.23         1.                      4135700200642 
      31.05      -1.21       1.29         1.                      4135700200643 
       31.1      -1.65       0.24         1.                      4135700200644 
      31.16      -2.03       0.52         1.                      4135700200645 
      31.19      -2.23       0.26         1.                      4135700200646 
      31.26      -2.37       0.24         1.                      4135700200647 
      31.31       -1.1       0.76         1.                      4135700200648 
      31.35      -1.95       0.23         1.                      4135700200649 
      31.41      -1.89       0.47         1.                      4135700200650 
      31.44      -1.78       0.23         1.                      4135700200651 
      31.51      -2.17       0.21         1.                      4135700200652 
      31.56      -2.25       0.71         1.                      4135700200653 
       31.6      -1.86        0.2         1.                      4135700200654 
      31.66      -1.45        0.4         1.                      4135700200655 
      31.69      -1.91        0.2         1.                      4135700200656 
      31.76      -2.05       0.18         1.                      4135700200657 
      31.81      -0.14       0.55         1.                      4135700200658 
      31.85      -2.12       0.17         1.                      4135700200659 
      31.91      -1.38       0.34         1.                      4135700200660 
      31.94      -2.26       0.17         1.                      4135700200661 
      32.01      -2.16       0.15         1.                      4135700200662 
      32.05      -1.54       0.81         1.                      4135700200663 
       32.1      -2.05       0.15         1.                      4135700200664 
      32.16      -1.49       0.63         1.                      4135700200665 
      32.19      -1.74       0.16         1.                      4135700200666 
      32.25      -2.09       0.38         1.                      4135700200667 
      32.28      -1.83        0.2         1.                      4135700200668 
      32.35      -2.03        0.2         1.                      4135700200669 
      32.41      -1.44       0.71         1.                      4135700200670 
      32.45      -1.98       0.22         1.                      4135700200671 
      32.51      -2.16       0.85         1.                      4135700200672 
      32.54      -1.59       0.22         1.                      4135700200673 
       32.6      -1.36       0.47         1.                      4135700200674 
      32.63      -2.06       0.24         1.                      4135700200675 
      32.71      -2.02       0.21         1.                      4135700200676 
      32.76      -1.09       0.72         1.                      4135700200677 
       32.8      -1.91       0.21         1.                      4135700200678 
      32.86      -0.61       0.77         1.                      4135700200679 
      32.89      -2.12        0.2         1.                      4135700200680 
      32.95      -2.02       0.42         1.                      4135700200681 
      32.99       -1.8       0.21         1.                      4135700200682 
      33.06      -1.91       0.18         1.                      4135700200683 
       33.1      -2.26       0.94         1.                      4135700200684 
      33.15       -2.3       0.17         1.                      4135700200685 
      33.21      -1.47       0.63         1.                      4135700200686 
      33.25      -2.19       0.16         1.                      4135700200687 
       33.3      -0.96       0.61         1.                      4135700200688 
      33.34      -2.32       0.16         1.                      4135700200689 
       33.4      -1.87       0.31         1.                      4135700200690 
      33.44      -1.97       0.16         1.                      4135700200691 
      33.51      -1.74       0.14         1.                      4135700200692 
      33.55      -1.44       0.74         1.                      4135700200693 
       33.6      -1.93       0.14         1.                      4135700200694 
      33.67      -0.99       0.56         1.                      4135700200695 
      33.71       -1.6       0.14         1.                      4135700200696 
      33.76      -0.36       0.54         1.                      4135700200697 
       33.8      -1.52       0.14         1.                      4135700200698 
      33.85      -1.04       0.54         1.                      4135700200699 
      33.89      -1.05       0.14         1.                      4135700200700 
      33.95      -0.89       0.29         1.                      4135700200701 
      33.99      -1.23       0.15         1.                      4135700200702 
      34.04      -0.91       0.28         1.                      4135700200703 
      34.08      -0.89       0.14         1.                      4135700200704 
      34.16      -1.09       0.12         1.                      4135700200705 
       34.2      -0.45       0.61         1.                      4135700200706 
      34.26      -1.21       0.12         1.                      4135700200707 
      34.32      -0.57       0.44         1.                      4135700200708 
      34.36      -1.18       0.11         1.                      4135700200709 
      34.41      -0.73       0.42         1.                      4135700200710 
      34.46      -1.13       0.11         1.                      4135700200711 
      34.51      -0.04        0.4         1.                      4135700200712 
      34.55      -1.03       0.11         1.                      4135700200713 
       34.6      -0.62       0.42         1.                      4135700200714 
      34.65      -1.08       0.11         1.                      4135700200715 
       34.7      +0.23        0.4         1.                      4135700200716 
      34.74      -1.02       0.11         1.                      4135700200717 
       34.8      -0.29       0.41         1.                      4135700200718 
      34.84      -1.04       0.11         1.                      4135700200719 
       34.9      -1.17       0.22         1.                      4135700200720 
      34.94      -1.16       0.11         1.                      4135700200721 
        35.      -0.88       0.22         1.                      4135700200722 
      35.04      -0.96       0.11         1.                      4135700200723 
      35.09      -0.69       0.22         1.                      4135700200724 
      35.14      -0.93       0.11         1.                      4135700200725 
       35.2      -0.46       0.23         1.                      4135700200726 
      35.24      -0.86       0.11         1.                      4135700200727 
      35.29       -0.5       0.24         1.                      4135700200728 
      35.34      -0.58       0.12         1.                      4135700200729 
      35.39      -0.33       0.27         1.                      4135700200730 
      35.44      -0.23       0.14         1.                      4135700200731 
      35.49      -0.61       0.31         1.                      4135700200732 
      35.53      -0.24       0.15         1.                      4135700200733 
      35.59       -0.8       0.36         1.                      4135700200734 
      35.63      -0.17       0.18         1.                      4135700200735 
      35.69      -0.18       0.39         1.                      4135700200736 
      35.74      -0.26       0.19         1.                      4135700200737 
      35.79      -0.52       0.43         1.                      4135700200738 
      35.84      -0.35       0.21         1.                      4135700200739 
      35.89      -0.66       0.44         1.                      4135700200740 
      35.94      -0.79       0.22         1.                      4135700200741 
      35.99       -0.4       0.46         1.                      4135700200742 
      36.03      -0.77       0.23         1.                      4135700200743 
      36.09      -0.84       0.45         1.                      4135700200744 
      36.14      -0.41       0.23         1.                      4135700200745 
      36.19      -0.52       0.46         1.                      4135700200746 
      36.24      -0.54       0.24         1.                      4135700200747 
      36.29      -1.07       0.92         1.                      4135700200748 
      36.34      -0.64       0.21         1.                      4135700200749 
      36.39       -0.9       0.88         1.                      4135700200750 
      36.44      -0.83       0.22         1.                      4135700200751 
       36.5      -2.08       0.95         1.                      4135700200752 
      36.55      -0.87       0.22         1.                      4135700200753 
       36.6      -0.15       0.87         1.                      4135700200754 
      36.65      -1.08       0.23         1.                      4135700200755 
       36.7      -1.49       0.96         1.                      4135700200756 
      36.76      -1.11       0.23         1.                      4135700200757 
      36.81      -2.94       0.94         1.                      4135700200758 
      36.86      -0.93       0.23         1.                      4135700200759 
      36.91      +0.14       0.93         1.                      4135700200760 
      36.97      -0.71       0.23         1.                      4135700200761 
      37.02      -1.23       0.93         1.                      4135700200762 
      37.07      -1.59       0.56         1.                      4135700200763 
      37.08      -1.36       0.26         1.                      4135700200764 
      37.14      -0.59       0.49         1.                      4135700200765 
      37.19      -1.31       0.25         1.                      4135700200766 
      37.24      -0.34       0.51         1.                      4135700200767 
      37.29      -1.55       0.26         1.                      4135700200768 
      37.34      -0.22       0.92         1.                      4135700200769 
       37.4      -0.77       0.23         1.                      4135700200770 
      37.44      -0.88        0.9         1.                      4135700200771 
       37.5      -1.38       0.23         1.                      4135700200772 
      37.55      -0.51        0.9         1.                      4135700200773 
      37.61       -1.4       0.23         1.                      4135700200774 
      37.66      -0.26       0.88         1.                      4135700200775 
      37.72      -1.29       0.22         1.                      4135700200776 
      37.77      +0.07       0.85         1.                      4135700200777 
      37.82      -0.77       0.54         1.                      4135700200778 
      37.84      -1.51       0.24         1.                      4135700200779 
      37.88      +0.72       0.95         1.                      4135700200780 
      37.94      -1.21       0.22         1.                      4135700200781 
      37.99      +0.31       0.79         1.                      4135700200782 
      38.05      -1.59       0.21         1.                      4135700200783 
       38.1      -1.24       0.82         1.                      4135700200784 
      38.16       -1.6       0.21         1.                      4135700200785 
      38.21       -0.5       0.79         1.                      4135700200786 
      38.27      -1.44        0.2         1.                      4135700200787 
      38.32       -0.6       0.78         1.                      4135700200788 
      38.37      -1.54        0.5         1.                      4135700200789 
      38.38      -1.57       0.22         1.                      4135700200790 
      38.43      -0.81       0.77         1.                      4135700200791 
      38.49      -1.36       0.19         1.                      4135700200792 
      38.55      -0.56       0.75         1.                      4135700200793 
      38.61      -1.69       0.19         1.                      4135700200794 
      38.66      -0.37       0.74         1.                      4135700200795 
      38.72       -1.8       0.19         1.                      4135700200796 
      38.77       -0.9       0.71         1.                      4135700200797 
      38.82      -1.14       0.47         1.                      4135700200798 
      38.84      -1.41        0.2         1.                      4135700200799 
      38.88      -0.61       0.66         1.                      4135700200800 
      38.95      -1.61       0.17         1.                      4135700200801 
        39.      -0.25       0.62         1.                      4135700200802 
      39.06       -1.5       0.16         1.                      4135700200803 
      39.11      -0.31        0.6         1.                      4135700200804 
      39.17      -1.31       0.36         1.                      4135700200805 
      39.19      -1.58       0.17         1.                      4135700200806 
      39.23      -0.11       0.64         1.                      4135700200807 
      39.29      -1.76       0.15         1.                      4135700200808 
      39.35      -1.65        0.6         1.                      4135700200809 
      39.41      -1.34       0.15         1.                      4135700200810 
      39.46      -2.37        0.6         1.                      4135700200811 
      39.52      -1.57       0.35         1.                      4135700200812 
      39.54      -1.63       0.17         1.                      4135700200813 
      39.58      -2.22       0.72         1.                      4135700200814 
      39.65      -1.53       0.17         1.                      4135700200815 
      39.69       -1.1       0.68         1.                      4135700200816 
      39.76      -1.48       0.18         1.                      4135700200817 
      39.81      -1.42       0.75         1.                      4135700200818 
      39.87      -1.58       0.44         1.                      4135700200819 
      39.88      -1.17       0.21         1.                      4135700200820 
      39.93        -1.       0.78         1.                      4135700200821 
        40.      -1.17        0.2         1.                      4135700200822 
      40.05      -1.03       0.83         1.                      4135700200823 
      40.12      -1.25        0.2         1.                      4135700200824 
      40.17      -0.76       0.83         1.                      4135700200825 
      40.24      -1.51       0.21         1.                      4135700200826 
      40.29      -0.35       0.81         1.                      4135700200827 
      40.36      -1.31        0.2         1.                      4135700200828 
      40.41      -0.24       0.79         1.                      4135700200829 
      40.47      -0.61       0.46         1.                      4135700200830 
      40.49      -1.05       0.22         1.                      4135700200831 
      40.53      -0.75       0.79         1.                      4135700200832 
       40.6      -1.38        0.2         1.                      4135700200833 
      40.65      -0.64       0.79         1.                      4135700200834 
      40.71       -1.6       0.48         1.                      4135700200835 
      40.75      -1.34       0.21         1.                      4135700200836 
      40.85      -1.49        0.2         1.                      4135700200837 
       40.9       -1.2       0.77         1.                      4135700200838 
      40.96      -1.06       0.45         1.                      4135700200839 
      40.99      -1.23       0.21         1.                      4135700200840 
       41.1      -0.95       0.19         1.                      4135700200841 
      41.14      -1.92        0.8         1.                      4135700200842 
      41.22      -1.51       0.19         1.                      4135700200843 
      41.27      -0.14       0.71         1.                      4135700200844 
      41.34      -1.31       0.18         1.                      4135700200845 
      41.39      -0.54       0.72         1.                      4135700200846 
      41.47      -1.33       0.19         1.                      4135700200847 
      41.52      -0.71       0.73         1.                      4135700200848 
       41.6      -1.08       0.18         1.                      4135700200849 
      41.64      -2.17       0.73         1.                      4135700200850 
      41.71      -2.02       0.44         1.                      4135700200851 
      41.74       -1.6        0.2         1.                      4135700200852 
      41.85      -1.52       0.19         1.                      4135700200853 
       41.9      -1.21       0.74         1.                      4135700200854 
      41.96      -1.46       0.46         1.                      4135700200855 
        42.      -1.64       0.21         1.                      4135700200856 
      42.11      -1.57        0.2         1.                      4135700200857 
      42.15      -0.82       0.85         1.                      4135700200858 
      42.22      -1.43       0.48         1.                      4135700200859 
      42.24       -1.6       0.23         1.                      4135700200860 
      42.28      -0.86       0.84         1.                      4135700200861 
      42.37      -2.27       0.22         1.                      4135700200862 
      42.41      -1.34       0.84         1.                      4135700200863 
      42.49      -1.78       0.22         1.                      4135700200864 
      42.54       -1.8       0.87         1.                      4135700200865 
      42.61      -2.12       0.52         1.                      4135700200866 
      42.65      -1.86       0.23         1.                      4135700200867 
      42.76      -1.92       0.22         1.                      4135700200868 
       42.8      -1.62       0.85         1.                      4135700200869 
      42.87      -2.87       1.53         1.                      4135700200870 
      42.89      -1.49       0.22         1.                      4135700200871 
      42.94      -2.53       0.89         1.                      4135700200872 
      43.01       -1.1        0.5         1.                      4135700200873 
      43.04      -1.37       0.22         1.                      4135700200874 
      43.15       -1.8       0.21         1.                      4135700200875 
       43.2      -1.14       0.78         1.                      4135700200876 
      43.27      -2.44       1.42         1.                      4135700200877 
      43.29      -1.92       0.21         1.                      4135700200878 
      43.33      -2.46       0.82         1.                      4135700200879 
      43.41      -1.63       0.47         1.                      4135700200880 
      43.44      -1.73       0.21         1.                      4135700200881 
      43.56      -1.66       0.19         1.                      4135700200882 
       43.6       -2.2       0.81         1.                      4135700200883 
      43.67      -1.87       1.23         1.                      4135700200884 
       43.7      -1.61       0.19         1.                      4135700200885 
      43.74      -2.18       0.75         1.                      4135700200886 
      43.81      -1.91       0.46         1.                      4135700200887 
      43.85      -1.46        0.2         1.                      4135700200888 
      43.88      -2.65       1.68         1.                      4135700200889 
      43.97      -1.99       0.19         1.                      4135700200890 
      44.01      -1.79       0.78         1.                      4135700200891 
       44.1      -1.84       0.19         1.                      4135700200892 
      44.15       -1.5        0.7         1.                      4135700200893 
      44.22        -3.       1.21         1.                      4135700200894 
      44.25      -1.28       0.18         1.                      4135700200895 
      44.29      -2.55       0.74         1.                      4135700200896 
      44.36      -2.45       0.45         1.                      4135700200897 
      44.39      +1.05        0.2         1.                      4135700200898 
      44.43      -2.44       0.74         1.                      4135700200899 
       44.5      -0.99       0.42         1.                      4135700200900 
      44.54      -0.94       0.19         1.                      4135700200901 
      44.66      -1.27       0.18         1.                      4135700200902 
      44.71      -1.61       0.75         1.                      4135700200903 
       44.8      -1.23       0.19         1.                      4135700200904 
      44.85      -1.79       0.76         1.                      4135700200905 
      44.92      -1.79       1.29         1.                      4135700200906 
      44.95      -1.23        0.2         1.                      4135700200907 
      44.99      -0.17       0.78         1.                      4135700200908 
      45.07      -1.52       0.46         1.                      4135700200909 
      45.09      -1.76       0.23         1.                      4135700200910 
      45.13      -1.45       0.81         1.                      4135700200911 
      45.21      -1.96       0.49         1.                      4135700200912 
      45.25      -1.73       0.23         1.                      4135700200913 
      45.28      -0.15       1.66         1.                      4135700200914 
      45.35      -1.81        0.5         1.                      4135700200915 
       45.4      -1.79       0.23         1.                      4135700200916 
      45.52      -1.88       0.22         1.                      4135700200917 
      45.56      -1.25       0.86         1.                      4135700200918 
      45.66      +1.93       0.22         1.                      4135700200919 
      45.71      -0.99       0.81         1.                      4135700200920 
      45.81      -2.01       0.22         1.                      4135700200921 
      45.85      +2.03       0.83         1.                      4135700200922 
      45.92      -2.62       1.35         1.                      4135700200923 
      45.96      -2.36       0.21         1.                      4135700200924 
        46.      -0.87       0.82         1.                      4135700200925 
      46.07      -3.83       1.46         1.                      4135700200926 
      46.11      -1.88       0.21         1.                      4135700200927 
      46.14      -1.17       0.77         1.                      4135700200928 
      46.22       -0.3       1.13         1.                      4135700200929 
      46.26      -1.84       0.19         1.                      4135700200930 
      46.29       -2.4       0.78         1.                      4135700200931 
      46.37      -2.27       1.22         1.                      4135700200932 
       46.4      -1.93       0.19         1.                      4135700200933 
      46.44      -1.36       0.76         1.                      4135700200934 
      46.51      -1.46       1.18         1.                      4135700200935 
      46.55      -2.16       0.19         1.                      4135700200936 
      46.59      -1.85       0.73         1.                      4135700200937 
      46.66      -2.65       1.14         1.                      4135700200938 
       46.7      -2.17       0.18         1.                      4135700200939 
      46.74      -1.57       0.68         1.                      4135700200940 
      46.81      -2.71        1.1         1.                      4135700200941 
      46.85        -2.       0.18         1.                      4135700200942 
      46.89      -1.68       0.68         1.                      4135700200943 
      46.96      -2.39        1.1         1.                      4135700200944 
      47.01      -1.95       0.18         1.                      4135700200945 
      47.04      -1.02        0.7         1.                      4135700200946 
      47.12      -1.99       1.09         1.                      4135700200947 
      47.16      -1.96       0.18         1.                      4135700200948 
      47.19      -1.61       0.69         1.                      4135700200949 
      47.27      +0.69       1.02         1.                      4135700200950 
      47.31      -1.81       0.19         1.                      4135700200951 
      47.35      -0.03       0.67         1.                      4135700200952 
      47.42      -1.58       1.06         1.                      4135700200953 
      47.46      -1.89       0.19         1.                      4135700200954 
       47.5      -1.69       0.71         1.                      4135700200955 
      47.57      -2.56       1.21         1.                      4135700200956 
      47.62      -2.01       0.19         1.                      4135700200957 
      47.65      -1.79        0.7         1.                      4135700200958 
      47.74      -1.86       0.42         1.                      4135700200959 
      47.79      -2.12       0.19         1.                      4135700200960 
       47.9      -1.78       0.41         1.                      4135700200961 
      47.94      -1.82       0.19         1.                      4135700200962 
      48.05      -1.67       0.41         1.                      4135700200963 
       48.1      -1.74       0.18         1.                      4135700200964 
      48.13      -2.73       1.59         1.                      4135700200965 
      48.21      -1.77       0.41         1.                      4135700200966 
      48.26      -1.57       0.18         1.                      4135700200967 
      48.28      +1.66       1.33         1.                      4135700200968 
      48.35      -1.45       1.06         1.                      4135700200969 
       48.4      -1.77       0.17         1.                      4135700200970 
      48.44      -1.25       0.67         1.                      4135700200971 
      48.51      -3.03       1.06         1.                      4135700200972 
      48.56      -1.75       0.18         1.                      4135700200973 
      48.59        -2.       0.66         1.                      4135700200974 
      48.67      -1.26       1.04         1.                      4135700200975 
      48.72      -1.54       0.17         1.                      4135700200976 
      48.75      -1.28        0.7         1.                      4135700200977 
      48.85      -1.47       0.42         1.                      4135700200978 
       48.9      -1.53       0.19         1.                      4135700200979 
      49.01      -1.86       0.42         1.                      4135700200980 
      49.05      -1.95       0.19         1.                      4135700200981 
      49.08      +1.05       1.47         1.                      4135700200982 
      49.15       -3.9       1.17         1.                      4135700200983 
      49.21      -1.54       0.18         1.                      4135700200984 
      49.24      -1.33       0.73         1.                      4135700200985 
      49.32      -3.34       1.12         1.                      4135700200986 
      49.37      -1.35       0.18         1.                      4135700200987 
       49.4      -0.75       0.67         1.                      4135700200988 
       49.5      -1.94       0.42         1.                      4135700200989 
      49.55      -1.38       0.19         1.                      4135700200990 
      49.64      -0.47         1.         1.                      4135700200991 
      49.71      -1.52       0.17         1.                      4135700200992 
      49.74       -2.5       1.55         1.                      4135700200993 
      49.81      -0.08       1.02         1.                      4135700200994 
      49.86      -1.89       0.17         1.                      4135700200995 
      49.89      -1.13       0.66         1.                      4135700200996 
ENDDATA            976          0                                 4135700200997 
ENDSUBENT          996          0                                 4135700299999 
SUBENT        41357003   20091109                             41474135700300001 
BIB                  3         11                                 4135700300002 
REACTION  1(92-U-235(N,0),,EN)   Resonance Energy                 4135700300003 
          2(92-U-235(N,0),,J)    Spin of Resonance                4135700300004 
          3(92-U-235(N,EL),,WID) Elastic Neutron Width            4135700300005 
          4(92-U-235(N,F),,WID)  Fission Width                    4135700300006 
REL-REF    (R,10629005,M.S.Moore+,J,PR/C,18,1328,1978)            4135700300007 
           (R,12905002,A.Gwin+,J,NSE,88,37,1984)                  4135700300008 
           (R,20727004,A.Michaudon+,J,NP,69,545,1965)             4135700300009 
           (R,12624001,V.L.Sailor+,J,PR,167,1121,1968)            4135700300010 
             Data used also in fitting procedure.                 4135700300011 
STATUS     (TABLE)  Data from Table 1 of J,YF,62,(5),900,19990 .  4135700300012 
           (DEP,41357002)                                         4135700300013 
ENDBIB              11          0                                 4135700300014 
NOCOMMON             0          0                                 4135700300015 
DATA                 4         48                                 4135700300016 
DATA      1DATA      2DATA      3DATA      4                      4135700300017 
EV         NO-DIM     MILLI-EV   MILLI-EV                         4135700300018 
      -8.83         3.      1.996      1078.                      4135700300019 
      -6.39         4.      3.417     1344.6                      4135700300020 
      -2.89         3.      0.041      804.1                      4135700300021 
      -2.06         4.     0.0016      316.9                      4135700300022 
      -0.84         4.     0.1098       462.                      4135700300023 
      -0.29         3.     0.0575       84.5                      4135700300024 
        0.3         3.     0.0047      110.7                      4135700300025 
       1.15         4.     0.0137      124.4                      4135700300026 
       2.04         3.     0.0086       11.1                      4135700300027 
       2.78         4.     0.0012      112.1                      4135700300028 
       3.15         3.     0.0238      100.1                      4135700300029 
       3.62         4.     0.0408        55.                      4135700300030 
       4.85         4.     0.0519         5.                      4135700300031 
       4.94         3.     0.0025      549.2                      4135700300032 
       5.43         4.     0.0242      449.7                      4135700300033 
       6.21         3.     0.0677      178.9                      4135700300034 
       6.38         4.     0.2334       11.6                      4135700300035 
       7.08         4.      0.101       28.5                      4135700300036 
       7.11         3.     0.0147       53.6                      4135700300037 
       7.58         3.     0.0034       157.                      4135700300038 
       8.77         4.     0.9897       87.5                      4135700300039 
       8.98         3.     0.1373      408.5                      4135700300040 
       9.27         4.     0.1061       69.1                      4135700300041 
       9.28         3.     0.0215       64.5                      4135700300042 
       9.43         4.     0.0082      146.9                      4135700300043 
       9.75         3.     0.0369      182.7                      4135700300044 
      10.17         4.     0.0514       54.7                      4135700300045 
       10.8         4.     0.0083      214.4                      4135700300046 
      11.67         4.     0.5295        4.7                      4135700300047 
      12.39         3.      1.162       33.3                      4135700300048 
      12.42         4.     0.2486       11.3                      4135700300049 
      12.87         4.     0.0531       99.8                      4135700300050 
      13.29         4.     0.0502      141.2                      4135700300051 
      13.68         3.     0.0451      114.5                      4135700300052 
      13.98         3.     0.5296      431.7                      4135700300053 
      14.08         4.     0.0913       918.                      4135700300054 
      14.55         3.     0.1121       21.1                      4135700300055 
      15.06         3.      0.006      268.5                      4135700300056 
      15.41         4.     0.2041       49.2                      4135700300057 
      15.48         3.     0.0186       55.3                      4135700300058 
      16.09         4.     0.3442       23.5                      4135700300059 
      16.65         4.     0.2236      127.2                      4135700300060 
      16.69         3.     0.0471       69.1                      4135700300061 
      18.01         4.     0.0995      140.3                      4135700300062 
      18.05         3.      0.301      121.2                      4135700300063 
        19.         4.     0.0614      740.5                      4135700300064 
      19.29         4.      2.677       55.6                      4135700300065 
      19.31         3.     0.4165      239.7                      4135700300066 
ENDDATA             50          0                                 4135700300067 
ENDSUBENT           66          0                                 4135700399999 
SUBENT        41357004   20091109                             41474135700400001 
BIB                  3          8                                 4135700400002 
REACTION   (92-U-235(N,F),PAR,WID)  Fission Width For Different   4135700400003 
             Projections of Nuclear Spin .                        4135700400004 
EN-SEC     (LVL-NUMB,92-U-236)  Denotes the Projection of Spin .  4135700400005 
             K=0, 1, 2 for J=3 ; K=1,2 for J=4 .                  4135700400006 
STATUS     (DEP,41357003)  Resonance Energy and Spin are Taken    4135700400007 
                           From Previous Subent                   4135700400008 
           (DEP,41357002)                                         4135700400009 
           (TABLE)  From Table 1 of J,YF,62,(5),900,19990 .       4135700400010 
ENDBIB               8          0                                 4135700400011 
NOCOMMON             0          0                                 4135700400012 
DATA                 4        112                                 4135700400013 
EN-RES     LVL-NUMB   DATA       SPIN J                           4135700400014 
EV         NO-DIM     MILLI-EV   NO-DIM                           4135700400015 
      -8.83         0.       183.         3.                      4135700400016 
      -8.83         1.      -182.         3.                      4135700400017 
      -8.83         2.       713.         3.                      4135700400018 
      -2.89         0.       50.6         3.                      4135700400019 
      -2.89         1.     -155.1         3.                      4135700400020 
      -2.89         2.     -598.4         3.                      4135700400021 
      -0.29         0.      -61.9         3.                      4135700400022 
      -0.29         1.      -22.5         3.                      4135700400023 
      -0.29         2.        0.1         3.                      4135700400024 
        0.3         0.       40.6         3.                      4135700400025 
        0.3         1.      -30.7         3.                      4135700400026 
        0.3         2.      -39.3         3.                      4135700400027 
       1.15         1.      -110.         3.                      4135700400028 
       1.15         2.      -14.4         3.                      4135700400029 
       2.04         0.        -9.         3.                      4135700400030 
       2.04         1.       -0.2         3.                      4135700400031 
       2.04         2.        1.9         3.                      4135700400032 
       2.78         1.      -43.5         4.                      4135700400033 
       2.78         2.       68.6         4.                      4135700400034 
       3.15         0.      -44.5         3.                      4135700400035 
       3.15         1.       34.7         3.                      4135700400036 
       3.15         2.       20.8         3.                      4135700400037 
       3.62         1.        39.         4.                      4135700400038 
       3.62         2.       -16.         4.                      4135700400039 
       4.85         1.        0.2         4.                      4135700400040 
       4.85         2.       -4.7         4.                      4135700400041 
       4.94         0.       23.7         3.                      4135700400042 
       4.94         1.      369.2         3.                      4135700400043 
       4.94         2.     -156.3         3.                      4135700400044 
       5.43         1.       52.5         4.                      4135700400045 
       5.43         2.      397.2         4.                      4135700400046 
       6.21         0.         0.         3.                      4135700400047 
       6.21         1.      101.1         3.                      4135700400048 
       6.21         2.       77.8         3.                      4135700400049 
       6.38         1.       -10.         4.                      4135700400050 
       6.38         2.       -1.6         4.                      4135700400051 
       7.08         1.       15.8         4.                      4135700400052 
       7.08         2.       12.7         4.                      4135700400053 
       7.11         0.        1.6         3.                      4135700400054 
       7.11         1.       25.6         3.                      4135700400055 
       7.11         2.       26.4         3.                      4135700400056 
       7.58         0.      148.1         3.                      4135700400057 
       7.58         1.       -5.2         3.                      4135700400058 
       7.58         2.        3.7         3.                      4135700400059 
       8.77         1.       50.5         4.                      4135700400060 
       8.77         2.        37.         4.                      4135700400061 
       8.98         0.       -8.6         3.                      4135700400062 
       8.98         1.       76.9         3.                      4135700400063 
       8.98         2.       323.         3.                      4135700400064 
       9.27         1.      -54.7         4.                      4135700400065 
       9.27         2.       14.4         4.                      4135700400066 
       9.28         0.      -45.6         3.                      4135700400067 
       9.28         1.      -18.5         3.                      4135700400068 
       9.28         2.        0.4         3.                      4135700400069 
       9.43         1.      138.8         4.                      4135700400070 
       9.43         2.        8.1         4.                      4135700400071 
       9.75         0.       22.1         3.                      4135700400072 
       9.75         1.      141.8         3.                      4135700400073 
       9.75         2.      -18.8         3.                      4135700400074 
      10.17         1.       50.5         4.                      4135700400075 
      10.17         2.        4.2         4.                      4135700400076 
       10.8         1.      189.4         4.                      4135700400077 
       10.8         2.       -25.         4.                      4135700400078 
      11.67         1.       -4.1         4.                      4135700400079 
      11.67         2.       -0.6         4.                      4135700400080 
      12.39         0.        4.7         3.                      4135700400081 
      12.39         1.      -12.5         3.                      4135700400082 
      12.39         2.       16.1         3.                      4135700400083 
      12.42         1.        7.6         4.                      4135700400084 
      12.42         2.       -3.7         4.                      4135700400085 
      12.87         1.      -98.3         4.                      4135700400086 
      12.87         2.        1.4         4.                      4135700400087 
      13.29         1.      -79.5         4.                      4135700400088 
      13.29         2.      -61.8         4.                      4135700400089 
      13.68         0.       -7.5         3.                      4135700400090 
      13.68         1.      -98.3         3.                      4135700400091 
      13.68         2.        8.7         3.                      4135700400092 
      13.98         0.      237.9         3.                      4135700400093 
      13.98         1.        3.4         3.                      4135700400094 
      13.98         2.      190.4         3.                      4135700400095 
      14.08         1.       49.8         4.                      4135700400096 
      14.08         2.     -868.2         4.                      4135700400097 
      14.55         0.       -1.2         3.                      4135700400098 
      14.55         1.      -14.2         3.                      4135700400099 
      14.55         2.       -5.6         3.                      4135700400100 
      15.06         0.      -18.9         3.                      4135700400101 
      15.06         1.     -246.3         3.                      4135700400102 
      15.06         2.       -3.3         3.                      4135700400103 
      15.41         1.       37.1         4.                      4135700400104 
      15.41         2.       12.1         4.                      4135700400105 
      15.48         0.       -2.2         3.                      4135700400106 
      15.48         1.        6.5         3.                      4135700400107 
      15.48         2.       46.7         3.                      4135700400108 
      16.09         1.        23.         4.                      4135700400109 
      16.09         2.       -0.5         4.                      4135700400110 
      16.65         1.      124.6         4.                      4135700400111 
      16.65         2.       -2.6         4.                      4135700400112 
      16.69         0.      -18.9         3.                      4135700400113 
      16.69         1.        1.4         3.                      4135700400114 
      16.69         2.      -48.8         3.                      4135700400115 
      18.01         1.        0.9         4.                      4135700400116 
      18.01         2.      139.4         4.                      4135700400117 
      18.05         0.      -52.6         3.                      4135700400118 
      18.05         1.       -0.7         3.                      4135700400119 
      18.05         2.       67.8         3.                      4135700400120 
        19.         1.       -0.5         4.                      4135700400121 
        19.         2.      -38.5         4.                      4135700400122 
      19.29         1.       -51.         4.                      4135700400123 
      19.29         2.       -4.6         4.                      4135700400124 
      19.31         0.       89.8         3.                      4135700400125 
      19.31         1.      -49.1         3.                      4135700400126 
      19.31         2.      100.8         3.                      4135700400127 
ENDDATA            114          0                                 4135700400128 
ENDSUBENT          127          0                                 4135700499999 
ENDENTRY             4          0                                 4135799999999 
