ENTRY            41402   20111025                             41544140200000001 
SUBENT        41402001   20111025                             41544140200100001 
BIB                 12         35                                 4140200100002 
TITLE       Study of 116-Cd nucleus in the (n,n'gamma) reaction   4140200100003 
AUTHOR     (S.Yu.Araddad, A.M.Demidov, S.M.Zlitni, V.A.Kurkin,    4140200100004 
            J.M.Rateb)                                            4140200100005 
INSTITUTE  (4RUSKUR)   Demidov, Kurkin                            4140200100006 
           (3LIBTAJ)   Araddad, Zlinti, Rateb                     4140200100007 
REFERENCE  (J,YF,54,(8),309,199108)  Main Reference               4140200100008 
           (J,SNP,54,(8),181,1991) Engl.translation of J,YF .     4140200100009 
REL-REF    (M,,A.M.Demidov,B,DEMIDOV,70,1986)    Exp. method and  4140200100010 
                                   analysis details               4140200100011 
FACILITY   (REAC,3LIBTAJ)   Reactor of Tajura Nuclear Research    4140200100012 
                            Center                                4140200100013 
INC-SPECT  .Filtered fast neutron spectrum. Filter consists of    4140200100014 
            1 mm cadmium, 1 gram/cm2 boron carbide B4-C,          4140200100015 
            50 mm uranium, 1 gram/cm2 boron-10                    4140200100016 
DETECTOR   (HPGE)  Efficiency 10%, energy resolution 2.2 keV at   4140200100017 
                   1330 keV gamma-energy.                         4140200100018 
SAMPLE     Metallic cadmium, mass 20 g, thickness about 1 g/cm2,  4140200100019 
            Cd-116 content is 94.2%, Cd-106 content is 0.02%,     4140200100020 
            Cd-108 content is 0.02%, Cd-110 content is 0.44%,     4140200100021 
            Cd-111 content is 0.47%, Cd-112 content is 1.33%,     4140200100022 
            Cd-113 content is 0.75%, Cd-114 content is 2.77%      4140200100023 
METHOD     (GSPEC) Gamma-lines energies were measured at 90 deg   4140200100024 
           angle, intensities - at 120 deg angle respective to the4140200100025 
           neutron beam.                                          4140200100026 
           Gamma-lines angular distributions were measured at     4140200100027 
           90,105,115,125,135,150 deg angles.                     4140200100028 
ERR-ANALYS (DATA-ERR)  Errors not specified                       4140200100029 
HISTORY    (20000717C)  + + Compiled at the center CJD   + +      4140200100030 
           (20010830U) Last checking has been done.               4140200100031 
           (20111025A) M.M.  Author name was corrected:           4140200100032 
                      S.M Zlitni -> S.M.Zlitni .                  4140200100033 
           Subent 002:                                            4140200100034 
           DATA units were corrected ARB-UNITS -> NO-DIM ;        4140200100035 
           COMMENT was added, E-LVL-INI/FIN -> LVL-INI/FIN.       4140200100036 
            BIB information was added.                            4140200100037 
ENDBIB              35          0                                 4140200100038 
COMMON               1          3                                 4140200100039 
EN-DUMMY                                                          4140200100040 
EV                                                                4140200100041 
     1.E+06                                                       4140200100042 
ENDCOMMON            3          0                                 4140200100043 
ENDSUBENT           42          0                                 4140200199999 
SUBENT        41402002   20111025                             41544140200200001 
BIB                  6         21                                 4140200200002 
REACTION   ((48-CD-116(N,INL)48-CD-116,,SPC,,FIS)//               4140200200003 
           (48-CD-116(N,INL)48-CD-116,,SPC,,FIS))                 4140200200004 
COMMENT    Of compiler. Data are given in Table 1 of article as   4140200200005 
           relative to 513.51 keV gamma-line taken per 100.       4140200200006 
           Divided by 100. by compiler in DATA block.             4140200200007 
EN-SEC     (E-DN,G)                                               4140200200008 
           (E-NM,G)                                               4140200200009 
             (LVL-INI,48-CD-116) Initial level of gamma transition4140200200010 
             (LVL-FIN,48-CD-116) Final level of gamma transition  4140200200011 
ERR-ANALYS (E-NM-ERR)      Error in nominator gamma energy        4140200200012 
FLAG       (1.)   Gamma energy belongs to a multiplet             4140200200013 
           (2.)   Gamma energy belongs probably to Cd-113         4140200200014 
           (3.)   Gamma energy belongs to In-117                  4140200200015 
           (4.)   Gamma energy belongs to Cd-112 or Cd-116        4140200200016 
           (5.)   Gamma energy belongs to germanium               4140200200017 
           (6.)   Gamma energy belongs to Cd-114 or Cd-116        4140200200018 
           (7.)   Initial energy level known uncertainly          4140200200019 
           (8.)   Gamma transition probably refers to (N,GAMMA)   4140200200020 
                  reaction                                        4140200200021 
STATUS     (TABLE)  From Table 1 of J,YF,54,(8),309,1991.         4140200200022 
            LVL-FIN from Table 2 of J,YF,54,(8),309,1991.         4140200200023 
ENDBIB              21          0                                 4140200200024 
COMMON               1          3                                 4140200200025 
E-DN                                                              4140200200026 
KEV                                                               4140200200027 
     513.51                                                       4140200200028 
ENDCOMMON            3          0                                 4140200200029 
DATA                 8        218                                 4140200200030 
E-NM       E-NM-ERR   DATA       DATA-ERR   LVL-INI    LVL-INI    4140200200031 
LVL-FIN    FLAG                                                   4140200200032 
KEV        KEV        NO-DIM     NO-DIM     KEV        KEV        4140200200033 
KEV        NO-DIM                                                 4140200200034 
      156.4        0.5   0.056E-2   0.021E-2                      4140200200035 
                                                                  4140200200036 
      173.8        0.3   0.056E-2   0.028E-2      2293.           4140200200037 
      2118.                                                       4140200200038 
       178.        0.3   0.027E-2   0.016E-2      2296.           4140200200039 
      2118.                                                       4140200200040 
     204.64        0.2   0.061E-2   0.011E-2                      4140200200041 
                                                                  4140200200042 
     229.21       0.15    0.15E-2   0.017E-2                      4140200200043 
                    2.                                            4140200200044 
     236.22       0.25    0.08E-2   0.014E-2                      4140200200045 
                                                                  4140200200046 
     254.98       0.05   0.414E-2    0.02E-2      2504.           4140200200047 
      2249.                                                       4140200200048 
     258.83       0.08   0.119E-2   0.016E-2      2377.           4140200200049 
                    2.                                            4140200200050 
     258.83               0.12E-2                                 4140200200051 
      2118.         3.                                            4140200200052 
     273.41       0.05   0.279E-2   0.021E-2      1916.           4140200200053 
      1642.                                                       4140200200054 
     333.19       0.25   0.104E-2   0.016E-2                      4140200200055 
                    2.                                            4140200200056 
     334.47       0.25    0.04E-2   0.016E-2      2376.           4140200200057 
      2042.                                                       4140200200058 
     379.54        0.2   0.086E-2   0.012E-2                      4140200200059 
                                                                  4140200200060 
      399.4       0.06   0.285E-2   0.014E-2      2042.           4140200200061 
      1642.                                                       4140200200062 
     418.19       0.25   0.061E-2   0.012E-2      2340.           4140200200063 
                                                                  4140200200064 
     418.19               0.06E-2                                 4140200200065 
      1922.                                                       4140200200066 
     423.86       0.09   0.384E-2   0.019E-2      2673.           4140200200067 
      2249.                                                       4140200200068 
     426.33       0.18   0.162E-2   0.017E-2                      4140200200069 
                                                                  4140200200070 
     429.64       0.35   0.036E-2   0.011E-2      1643.           4140200200071 
      1213.                                                       4140200200072 
     433.84        0.2   0.091E-2   0.015E-2                      4140200200073 
                                                                  4140200200074 
      438.2        0.4    0.05E-2   0.013E-2                      4140200200075 
                                                                  4140200200076 
     444.15       0.07   0.034E-2   0.015E-2                      4140200200077 
                                                                  4140200200078 
      448.6        0.4   0.037E-2   0.014E-2                      4140200200079 
                                                                  4140200200080 
      449.8        0.1   0.151E-2   0.016E-2                      4140200200081 
                                                                  4140200200082 
     513.51       0.05    100.E-2                513.51           4140200200083 
         0.                                                       4140200200084 
      577.7       0.15   0.097E-2    0.01E-2      2493.           4140200200085 
      1916.         7.                                            4140200200086 
     623.87        0.2   0.058E-2    0.01E-2                      4140200200087 
                                                                  4140200200088 
     628.11       0.25   0.046E-2   0.009E-2                      4140200200089 
                                                                  4140200200090 
     634.24       0.15   0.169E-2   0.015E-2                      4140200200091 
                                                                  4140200200092 
      640.2        0.3   0.029E-2   0.008E-2      3118.           4140200200093 
                                                                  4140200200094 
     644.35       0.21   0.105E-2   0.013E-2                      4140200200095 
                                                                  4140200200096 
       650.        0.1    0.68E-2    0.05E-2      2293.           4140200200097 
      1642.         7.                                            4140200200098 
     656.73       0.05     1.4E-2     0.2E-2      2037.           4140200200099 
                                                                  4140200200100 
     656.73                1.4E-2               2037.06           4140200200101 
      1380.                                                       4140200200102 
      666.2               0.13E-2                                 4140200200103 
      2292.                                                       4140200200104 
     666.22       0.17   0.133E-2   0.014E-2      2958.           4140200200105 
                    7.                                            4140200200106 
     668.73       0.07   0.379E-2   0.019E-2      1951.           4140200200107 
      1380.                                                       4140200200108 
      678.1        0.3   0.027E-2   0.007E-2      2720.           4140200200109 
      2042.         7.                                            4140200200110 
      678.1              0.027E-2                                 4140200200111 
      2042.                                                       4140200200112 
      683.7        0.3   0.053E-2   0.007E-2                      4140200200113 
                                                                  4140200200114 
       688.        0.4   0.025E-2   0.007E-2                      4140200200115 
                                                                  4140200200116 
     696.36       0.15    0.73E-2    0.15E-2      1916.           4140200200117 
      1219.                                                       4140200200118 
     699.51      0.014    11.9E-2     0.4E-2      1213.           4140200200119 
       514.                                                       4140200200120 
     702.78       0.05    1.39E-2    0.14E-2      1916.           4140200200121 
      1213.                                                       4140200200122 
     705.95      0.014    16.4E-2     0.5E-2    1219.42           4140200200123 
       514.                                                       4140200200124 
     708.66       0.08    1.21E-2    0.13E-2      1922.           4140200200125 
                    1.                                            4140200200126 
     708.67                0.5E-2                                 4140200200127 
      1213.                                                       4140200200128 
      721.8        0.3   0.033E-2   0.008E-2                      4140200200129 
                                                                  4140200200130 
     731.77       0.25   0.048E-2   0.008E-2      1951.           4140200200131 
      1219.                                                       4140200200132 
      734.4              0.023E-2                                 4140200200133 
      1380.                                                       4140200200134 
      738.4        0.3   0.023E-2    0.01E-2      1951.      2118.4140200200135 
      1213.         1.                                            4140200200136 
       745.        0.3   0.019E-2   0.009E-2                      4140200200137 
                                                                  4140200200138 
     746.78       0.25   0.042E-2    0.01E-2                      4140200200139 
                                                                  4140200200140 
     748.61       0.25   0.054E-2   0.011E-2      2392.           4140200200141 
      1642.                                                       4140200200142 
     752.36       0.25   0.049E-2   0.011E-2      2673.           4140200200143 
                                                                  4140200200144 
     752.36               0.05E-2                                 4140200200145 
      1922.         7.                                            4140200200146 
      757.2        0.3   0.055E-2    0.01E-2      2673.           4140200200147 
                    7.                                            4140200200148 
     757.28               0.06E-2                                 4140200200149 
      1916.                                                       4140200200150 
     765.21        0.2   0.114E-2   0.013E-2                      4140200200151 
                                                                  4140200200152 
     766.87       0.21   0.083E-2   0.013E-2                      4140200200153 
                                                                  4140200200154 
    769.067      0.014    3.53E-2    0.11E-2    1283.58           4140200200155 
       514.                                                       4140200200156 
     791.87       0.25   0.077E-2    0.01E-2                      4140200200157 
                                                                  4140200200158 
     798.08       0.07   0.381E-2   0.016E-2                      4140200200159 
                    4.                                            4140200200160 
    807.207      0.027    1.15E-2    0.04E-2    2026.63           4140200200161 
      1219.                                                       4140200200162 
     822.47       0.08   0.284E-2   0.016E-2      2042.           4140200200163 
      1219.                                                       4140200200164 
     835.69       0.25    0.73E-2    0.11E-2      2118.      2478.4140200200165 
                                                                  4140200200166 
     835.69               0.07E-2                                 4140200200167 
      1282.                                                       4140200200168 
     861.32        0.1   0.152E-2   0.013E-2      2504.           4140200200169 
      1642.                                                       4140200200170 
    866.816      0.014    3.51E-2     0.1E-2    1380.33           4140200200171 
       514.         5.                                            4140200200172 
      880.6        0.4   0.058E-2   0.014E-2                      4140200200173 
                                                                  4140200200174 
      881.7        0.5   0.041E-2   0.013E-2      2803.           4140200200175 
      1922.                                                       4140200200176 
     905.48       0.25   0.078E-2    0.01E-2      2118.           4140200200177 
                                                                  4140200200178 
     905.48               0.08E-2                                 4140200200179 
      1213.                                                       4140200200180 
       929.        0.7   0.039E-2   0.014E-2                      4140200200181 
                                                                  4140200200182 
      931.6        0.5   0.063E-2   0.015E-2      2958.           4140200200183 
      2027.                                                       4140200200184 
     941.55       0.25   0.077E-2    0.01E-2                      4140200200185 
                                                                  4140200200186 
      945.5        0.4    0.03E-2   0.009E-2      2988.           4140200200187 
      2042.                                                       4140200200188 
      953.5        0.4   0.027E-2   0.008E-2                      4140200200189 
                                                                  4140200200190 
     1015.8        0.6    0.05E-2   0.017E-2                      4140200200191 
                                                                  4140200200192 
    1029.38      0.014    1.85E-2    0.16E-2     2248.8           4140200200193 
      1219.                                                       4140200200194 
     1056.8              0.091E-2   0.012E-2                      4140200200195 
                    1.                                            4140200200196 
    1066.04       0.25   0.054E-2   0.009E-2     2987.6      3108.4140200200197 
      1922.         1.                                            4140200200198 
    1083.29       0.04   0.678E-2   0.022E-2    2296.27           4140200200199 
      1213.                                                       4140200200200 
    1089.41       0.25   0.055E-2   0.009E-2                      4140200200201 
                                                                  4140200200202 
     1118.1        0.5   0.026E-2   0.013E-2                      4140200200203 
                                                                  4140200200204 
    1120.32       0.05   0.597E-2   0.022E-2    2339.74           4140200200205 
      1219.                                                       4140200200206 
     1122.3        0.5   0.027E-2   0.013E-2      2764.           4140200200207 
      1642.         7.                                            4140200200208 
     1126.1        0.6    0.04E-2    0.02E-2                      4140200200209 
                                                                  4140200200210 
      1129.      0.014    3.46E-2     0.1E-2      1643.           4140200200211 
       514.                                                       4140200200212 
     1131.6        0.7    0.04E-2    0.02E-2      3172.           4140200200213 
                                                                  4140200200214 
    1152.46       0.15   0.252E-2   0.017E-2      2435.           4140200200215 
      1282.                                                       4140200200216 
      1157.       0.04    0.86E-2    0.03E-2    2376.42           4140200200217 
      1219.                                                       4140200200218 
    1164.07       0.15   0.117E-2    0.01E-2      2377.           4140200200219 
      1213.                                                       4140200200220 
     1178.4       0.15   0.098E-2   0.009E-2      2392.           4140200200221 
      1213.                                                       4140200200222 
    1190.65       0.25   0.074E-2    0.01E-2      3112.           4140200200223 
                                                                  4140200200224 
    1196.78       0.15   0.142E-2   0.011E-2      3112.           4140200200225 
                                                                  4140200200226 
    1209.87       0.15   0.241E-2   0.016E-2                      4140200200227 
                    6.                                            4140200200228 
    1212.98      0.014    5.79E-2    0.15E-2    1212.98           4140200200229 
         0.                                                       4140200200230 
     1221.2              0.217E-2   0.014E-2                      4140200200231 
                    1.                                            4140200200232 
    1235.07       0.25   0.059E-2   0.009E-2      2517.           4140200200233 
      1282.                                                       4140200200234 
    1237.84       0.25   0.059E-2   0.009E-2                      4140200200235 
                                                                  4140200200236 
    1274.06       0.15   0.135E-2    0.01E-2    2493.48           4140200200237 
      1219.         7.                                            4140200200238 
     1278.4        0.3   0.039E-2   0.008E-2                      4140200200239 
                                                                  4140200200240 
    1284.79       0.11   0.167E-2   0.012E-2                      4140200200241 
                                                                  4140200200242 
    1304.45       0.05    0.59E-2    0.05E-2      2517.           4140200200243 
      1213.                                                       4140200200244 
     1326.6        0.3    0.06E-2   0.009E-2                      4140200200245 
                                                                  4140200200246 
    1355.95       0.15   0.202E-2   0.011E-2                      4140200200247 
                    8.                                            4140200200248 
     1365.4        0.5   0.048E-2   0.012E-2                      4140200200249 
                                                                  4140200200250 
     1384.1        0.5   0.037E-2   0.011E-2      2764.           4140200200251 
      1380.                                                       4140200200252 
      1385.       0.15   0.247E-2   0.014E-2      2604.           4140200200253 
      1219.         7.                                            4140200200254 
    1402.31      0.019    1.46E-2    0.05E-2      1916.           4140200200255 
       514.                                                       4140200200256 
    1408.06      0.019    2.72E-2    0.07E-2    1921.58           4140200200257 
       514.                                                       4140200200258 
    1413.67       0.15   0.056E-2   0.017E-2      3440.           4140200200259 
                    7.                                            4140200200260 
    1414.94       0.05    0.64E-2    0.03E-2    1928.45           4140200200261 
       514.                                                       4140200200262 
     1416.9        0.3   0.056E-2   0.028E-2                      4140200200263 
                                                                  4140200200264 
     1423.5        0.3    0.03E-2   0.008E-2      3345.           4140200200265 
                    7.                                            4140200200266 
    1433.09       0.25   0.198E-2   0.013E-2                      4140200200267 
                                                                  4140200200268 
    1437.87      0.024    1.69E-2    0.04E-2      1951.           4140200200269 
       514.                                                       4140200200270 
    1453.57       0.13   0.208E-2   0.012E-2    2672.67           4140200200271 
      1219.                                                       4140200200272 
    1456.07       0.25   0.042E-2   0.013E-2                      4140200200273 
                                                                  4140200200274 
    1479.44       0.25   0.048E-2   0.007E-2                      4140200200275 
                                                                  4140200200276 
    1500.89       0.25   0.064E-2   0.008E-2      2720.           4140200200277 
      1219.         7.                                            4140200200278 
     1507.9        0.3   0.027E-2   0.014E-2      2727.           4140200200279 
      1219.         7.                                            4140200200280 
     1510.5              0.197E-2   0.015E-2                      4140200200281 
                    1.                                            4140200200282 
     1528.4       0.05   0.926E-2   0.025E-2    2041.92           4140200200283 
       514.                                                       4140200200284 
    1558.42        0.2   0.089E-2   0.007E-2                      4140200200285 
                                                                  4140200200286 
    1576.66        0.2   0.101E-2   0.009E-2                      4140200200287 
                    3.                                            4140200200288 
     1602.5        0.4   0.084E-2   0.014E-2      2822.           4140200200289 
      1219.                                                       4140200200290 
    1604.95       0.03    1.32E-2    0.03E-2    2118.47           4140200200291 
       514.                                                       4140200200292 
     1633.3        0.2   0.081E-2   0.007E-2                      4140200200293 
                                                                  4140200200294 
     1634.9        0.9   0.024E-2   0.009E-2                      4140200200295 
                                                                  4140200200296 
    1642.54       0.03    2.43E-2    0.06E-2    1642.54           4140200200297 
         0.                                                       4140200200298 
    1646.79        0.2   0.162E-2   0.013E-2                      4140200200299 
                                                                  4140200200300 
      1667.               0.12E-2    0.01E-2                      4140200200301 
                    1.                                            4140200200302 
      1678.        0.3    0.05E-2   0.008E-2                      4140200200303 
                                                                  4140200200304 
    1696.21        0.2   0.102E-2   0.008E-2                      4140200200305 
                                                                  4140200200306 
    1700.96        0.2   0.117E-2    0.01E-2                      4140200200307 
                                                                  4140200200308 
     1727.3        0.3   0.064E-2   0.008E-2      3108.           4140200200309 
                    7.                                            4140200200310 
     1750.4        0.4    0.03E-2   0.007E-2      3131.           4140200200311 
                    7.                                            4140200200312 
     1758.8              0.154E-2    0.01E-2                      4140200200313 
                    1.                                            4140200200314 
    1780.35       0.07     0.8E-2   0.023E-2    2293.86           4140200200315 
       514.                                                       4140200200316 
     1784.8              0.118E-2   0.012E-2                      4140200200317 
                    1.                                            4140200200318 
     1789.2        0.4   0.035E-2   0.009E-2      3002.           4140200200319 
                                                                  4140200200320 
     1797.8        0.4   0.038E-2   0.007E-2      3440.           4140200200321 
                                                                  4140200200322 
     1801.9        0.3   0.053E-2   0.008E-2      3015.           4140200200323 
                                                                  4140200200324 
    1828.03       0.17   0.081E-2    0.01E-2                      4140200200325 
                    6.                                            4140200200326 
    1848.09       0.25   0.074E-2   0.009E-2      3131.           4140200200327 
                                                                  4140200200328 
     1853.2        0.4   0.031E-2   0.008E-2                      4140200200329 
                                                                  4140200200330 
     1857.1        0.3   0.075E-2   0.008E-2                      4140200200331 
                                                                  4140200200332 
    1863.49       0.05   0.284E-2   0.013E-2    2376.98           4140200200333 
       514.                                                       4140200200334 
      1878.               0.63E-2               2391.51           4140200200335 
       514.                                                       4140200200336 
      1878.       0.03   0.626E-2   0.018E-2      2392.           4140200200337 
                                                                  4140200200338 
     1923.3        0.4   0.045E-2   0.009E-2                      4140200200339 
                                                                  4140200200340 
    1934.66       0.23   0.093E-2   0.009E-2                      4140200200341 
                                                                  4140200200342 
     1943.4        0.3   0.081E-2   0.012E-2                      4140200200343 
                                                                  4140200200344 
     1945.9        0.9   0.031E-2   0.011E-2                      4140200200345 
                                                                  4140200200346 
    1951.35       0.06   0.289E-2    0.01E-2    1951.39           4140200200347 
         0.                                                       4140200200348 
    1951.35               0.29E-2               1951.39           4140200200349 
         0.                                                       4140200200350 
     1956.2        0.3   0.043E-2   0.008E-2      3176.           4140200200351 
                                                                  4140200200352 
    1977.65        0.2   0.079E-2   0.008E-2                      4140200200353 
                                                                  4140200200354 
      1991.        0.5   0.034E-2   0.008E-2    2503.81           4140200200355 
       514.                                                       4140200200356 
    1997.65        0.2   0.079E-2   0.008E-2                      4140200200357 
                    8.                                            4140200200358 
     2002.7         1.   0.015E-2    0.01E-2                      4140200200359 
                                                                  4140200200360 
     2004.5        0.5   0.074E-2   0.015E-2    2517.44           4140200200361 
       514.                                                       4140200200362 
    2008.97       0.25   0.081E-2   0.009E-2                      4140200200363 
                                                                  4140200200364 
     2013.6        1.7   0.014E-2    0.01E-2                      4140200200365 
                                                                  4140200200366 
     2015.8        0.5   0.052E-2   0.012E-2                      4140200200367 
                                                                  4140200200368 
     2021.4        1.6   0.015E-2   0.011E-2                      4140200200369 
                                                                  4140200200370 
     2023.8        0.5   0.048E-2   0.012E-2                      4140200200371 
                                                                  4140200200372 
     2044.2        0.3   0.054E-2   0.008E-2                      4140200200373 
                                                                  4140200200374 
    2058.56       0.15   0.128E-2   0.011E-2                      4140200200375 
                                                                  4140200200376 
     2062.4        0.7   0.032E-2    0.01E-2      3345.           4140200200377 
                    7.                                            4140200200378 
    2091.36       0.05   0.341E-2   0.012E-2    2604.89           4140200200379 
       514.                                                       4140200200380 
     2095.9        0.3    0.04E-2   0.008E-2                      4140200200381 
                                                                  4140200200382 
    2140.39       0.06   0.244E-2   0.011E-2     2653.9           4140200200383 
       514.         7.                                            4140200200384 
    2206.56       0.07   0.473E-2   0.013E-2    2720.07           4140200200385 
       514.                                                       4140200200386 
    2213.67       0.25    0.09E-2   0.008E-2     2727.2           4140200200387 
       514.         7.                                            4140200200388 
     2250.8               0.12E-2               2764.35           4140200200389 
       514.         1.                                            4140200200390 
    2270.35               0.23E-2               2784.08           4140200200391 
       514.                                                       4140200200392 
    2270.55       0.15   0.226E-2   0.014E-2      2784.           4140200200393 
                    7.                                            4140200200394 
    2272.63       0.15   0.215E-2   0.014E-2    2786.16           4140200200395 
       514.         7.                                            4140200200396 
    2289.47       0.09   0.264E-2   0.012E-2      2803.           4140200200397 
       514.                                                       4140200200398 
     2308.6        0.3   0.082E-2   0.008E-2      2822.           4140200200399 
       514.                                                       4140200200400 
     2330.5              0.093E-2   0.009E-2                      4140200200401 
                    1.                                            4140200200402 
    2348.94       0.09   0.171E-2   0.009E-2      2862.           4140200200403 
       514.                                                       4140200200404 
    2396.27       0.17   0.102E-2   0.008E-2      2910.           4140200200405 
                                                                  4140200200406 
    2396.27                0.1E-2                                 4140200200407 
       514.                                                       4140200200408 
      2435.        0.3   0.159E-2    0.01E-2      2435.           4140200200409 
                                                                  4140200200410 
     2455.9              0.092E-2   0.009E-2                      4140200200411 
                    6.                                            4140200200412 
     2464.5              0.071E-2   0.009E-2                      4140200200413 
                    1.                                            4140200200414 
    2478.12       0.07   0.524E-2   0.016E-2      2478.           4140200200415 
         0.                                                       4140200200416 
     2488.7        0.5   0.075E-2   0.008E-2      3002.           4140200200417 
                    7.                                            4140200200418 
     2501.3        0.5   0.082E-2    0.01E-2      3015.           4140200200419 
                                                                  4140200200420 
      2547.              0.095E-2   0.009E-2                      4140200200421 
                    1.                                            4140200200422 
     2589.4              0.064E-2   0.009E-2                      4140200200423 
                    1.                                            4140200200424 
     2596.2              0.103E-2    0.01E-2                      4140200200425 
                    1.                                            4140200200426 
     2641.8              0.122E-2   0.011E-2      3156.           4140200200427 
                    1.                                            4140200200428 
     2659.4       0.22   0.203E-2   0.015E-2      3172.           4140200200429 
                                                                  4140200200430 
     2662.4        0.5   0.073E-2   0.012E-2      3176.           4140200200431 
                                                                  4140200200432 
     2673.3        0.5   0.043E-2   0.008E-2                      4140200200433 
                                                                  4140200200434 
     2703.5        0.3   0.065E-2   0.008E-2      3217.           4140200200435 
                                                                  4140200200436 
     2717.6              0.094E-2    0.01E-2                      4140200200437 
                    1.                                            4140200200438 
     2750.9        0.3   0.062E-2   0.008E-2                      4140200200439 
                                                                  4140200200440 
     2760.1              0.129E-2    0.01E-2                      4140200200441 
                    1.                                            4140200200442 
     2772.9        0.4   0.046E-2   0.007E-2                      4140200200443 
                                                                  4140200200444 
     2806.3        1.3    0.07E-2   0.021E-2                      4140200200445 
                                                                  4140200200446 
     2810.5        0.3   0.209E-2   0.016E-2     2810.5           4140200200447 
         0.         7.                                            4140200200448 
     2828.6        0.3    0.18E-2   0.011E-2     2828.6           4140200200449 
         0.                                                       4140200200450 
     2850.8              0.116E-2    0.01E-2      2764.           4140200200451 
                    1.                                            4140200200452 
     2875.4              0.131E-2    0.01E-2      3389.           4140200200453 
                    7.                                            4140200200454 
     2881.6              0.037E-2   0.008E-2                      4140200200455 
                    1.                                            4140200200456 
      2896.        0.4   0.065E-2   0.008E-2                      4140200200457 
                                                                  4140200200458 
     2909.4        0.3   0.091E-2   0.009E-2     2909.7           4140200200459 
         0.                                                       4140200200460 
      2958.              0.067E-2   0.009E-2      3471.           4140200200461 
                    1.                                            4140200200462 
     3000.4               0.11E-2    0.01E-2      3000.           4140200200463 
                    1.                                            4140200200464 
      3012.              0.085E-2    0.01E-2                      4140200200465 
                    1.                                            4140200200466 
     3067.3        0.5   0.093E-2   0.009E-2                      4140200200467 
                                                                  4140200200468 
     3155.6        0.6   0.061E-2   0.008E-2      3156.           4140200200469 
                                                                  4140200200470 
ENDDATA            440          0                                 4140200200471 
ENDSUBENT          470          0                                 4140200299999 
SUBENT        41402003   20111025                             41544140200300001 
BIB                  4         14                                 4140200300002 
REACTION   (48-CD-116(N,INL)48-CD-116,PAR,DA,G,LEG/RS/FIS)        4140200300003 
EN-SEC       (LVL-INI,48-CD-116) Initial level of gamma transition4140200300004 
             (LVL,48-CD-116) Final level of gamma transition      4140200300005 
           (E,G)                                                  4140200300006 
LEVEL-PROP ((1.)48-CD-116,E-LVL=0.,SPIN=0.,PARITY=+1.)            4140200300007 
           ((2.)48-CD-116,E-LVL=514.,SPIN=2.,PARITY=+1.)          4140200300008 
           ((3.)48-CD-116,E-LVL=1380.,SPIN=0.,PARITY=+1.)         4140200300009 
           ((4.)48-CD-116,E-LVL=1219.,SPIN=4.,PARITY=+1.)         4140200300010 
           ((5.)48-CD-116,E-LVL=1642.,SPIN=2.,PARITY=+1.)         4140200300011 
           ((6.)48-CD-116,E-LVL=1213.,SPIN=2.,PARITY=+1.)         4140200300012 
           ((7.)48-CD-116,E-LVL=2249.,SPIN=5.,PARITY=-1.)         4140200300013 
           ((8.)48-CD-116,E-LVL=1282.,SPIN=0.,PARITY=+1.)         4140200300014 
STATUS     (COREL,41375002)                                       4140200300015 
           (TABLE)  From Table 2 of J,YF,54,(8),309,1991          4140200300016 
ENDBIB              14          0                                 4140200300017 
NOCOMMON             0          0                                 4140200300018 
DATA                 7         62                                 4140200300019 
E          NUMBER     DATA       DATA-ERR   LVL-INI    LVL        4140200300020 
LVL-FLAG                                                          4140200300021 
KEV        NO-DIM     NO-DIM     NO-DIM     KEV        KEV        4140200300022 
NO-DIM                                                            4140200300023 
      399.4         2.       0.25       0.08                 1642.4140200300024 
         5.                                                       4140200300025 
      399.4         4.        0.1        0.1                 1642.4140200300026 
         5.                                                       4140200300027 
     423.86         2.      -0.16       0.08                 2249.4140200300028 
         7.                                                       4140200300029 
     423.86         4.        0.1        0.1                 2249.4140200300030 
         7.                                                       4140200300031 
     513.51         2.      0.142      0.012     513.51         0.4140200300032 
         1.                                                       4140200300033 
     513.51         4.     -0.097      0.017     513.51         0.4140200300034 
         1.                                                       4140200300035 
       650.         2.      -0.26       0.02    2292.52      1642.4140200300036 
         5.                                                       4140200300037 
       650.         4.      -0.08       0.03    2292.52      1642.4140200300038 
         5.                                                       4140200300039 
     656.73         2.       0.25       0.03    2037.06      1380.4140200300040 
         3.                                                       4140200300041 
     656.73         4.      -0.09       0.03    2037.06      1380.4140200300042 
         3.                                                       4140200300043 
     668.73         2.        0.3       0.08                 1380.4140200300044 
         3.                                                       4140200300045 
     668.73         4.      -0.07        0.1                 1380.4140200300046 
         3.                                                       4140200300047 
     705.95         2.       0.26       0.03    1219.42       514.4140200300048 
         2.                                                       4140200300049 
     705.95         4.      -0.14       0.04    1219.42       514.4140200300050 
         2.                                                       4140200300051 
     807.21         2.        0.3        0.1    2026.63      1219.4140200300052 
         4.                                                       4140200300053 
     807.21         4.      -0.04       0.08    2026.63      1219.4140200300054 
         4.                                                       4140200300055 
     822.47         2.       0.01       0.17                 1219.4140200300056 
         4.                                                       4140200300057 
     822.47         4.      -0.17        0.2                 1219.4140200300058 
         4.                                                       4140200300059 
    1029.38         2.      -0.22       0.03     2248.8      1219.4140200300060 
         4.                                                       4140200300061 
    1029.38         4.       0.02       0.04     2248.8      1219.4140200300062 
         4.                                                       4140200300063 
    1083.29         2.       0.04       0.06    2296.27      1213.4140200300064 
         6.                                                       4140200300065 
    1083.29         4.      -0.12       0.06    2296.27      1213.4140200300066 
         6.                                                       4140200300067 
    1120.32         2.       0.24       0.07    2339.74      1219.4140200300068 
         4.                                                       4140200300069 
    1120.32         4.      -0.09       0.09    2339.74      1219.4140200300070 
         4.                                                       4140200300071 
      1129.         2.      0.398      0.024                  514.4140200300072 
         2.                                                       4140200300073 
      1129.         4.      -0.01       0.03                  514.4140200300074 
         2.                                                       4140200300075 
    1152.46         2.        0.3       0.14                 1282.4140200300076 
         8.                                                       4140200300077 
    1152.46         4.      -0.34       0.17                 1282.4140200300078 
         8.                                                       4140200300079 
      1157.         2.       0.26       0.04    2376.42      1219.4140200300080 
         4.                                                       4140200300081 
      1157.         4.       0.03       0.05    2376.42      1219.4140200300082 
         4.                                                       4140200300083 
    1212.98         2.      0.264      0.023   1212.987         0.4140200300084 
         1.                                                       4140200300085 
    1212.98         4.      -0.09       0.03   1212.987         0.4140200300086 
         1.                                                       4140200300087 
    1402.31         2.      -0.43       0.04     1915.8       514.4140200300088 
         2.                                                       4140200300089 
    1402.31         4.       0.15       0.05     1915.8       514.4140200300090 
         2.                                                       4140200300091 
    1408.06         2.      -0.17       0.03    1921.58       514.4140200300092 
         2.                                                       4140200300093 
    1408.06         4.       0.02       0.04    1921.58       514.4140200300094 
         2.                                                       4140200300095 
    1414.94         2.       0.05       0.06    1928.45       514.4140200300096 
         2.                                                       4140200300097 
    1414.94         4.       0.03       0.07    1928.45       514.4140200300098 
         2.                                                       4140200300099 
    1437.87         2.      -0.16       0.05                  514.4140200300100 
         2.                                                       4140200300101 
    1437.87         4.      -0.05       0.05                  514.4140200300102 
         2.                                                       4140200300103 
    1453.57         2.        0.9        0.5    2672.67      1219.4140200300104 
         4.                                                       4140200300105 
    1453.57         4.       0.23       0.17    2672.67      1219.4140200300106 
         4.                                                       4140200300107 
     1528.4         2.       0.36       0.05    2041.92       514.4140200300108 
         2.                                                       4140200300109 
     1528.4         4.      -0.11       0.05    2041.92       514.4140200300110 
         2.                                                       4140200300111 
    1604.95         2.       0.14       0.03    2118.47       514.4140200300112 
         2.                                                       4140200300113 
    1604.95         4.      -0.03       0.04    2118.47       514.4140200300114 
         2.                                                       4140200300115 
    1642.54         2.        0.3       0.03    1642.54         0.4140200300116 
         1.                                                       4140200300117 
    1642.54         4.      -0.14       0.04    1642.54         0.4140200300118 
         1.                                                       4140200300119 
    1780.35         2.        0.3       0.03    2293.86       514.4140200300120 
         2.                                                       4140200300121 
    1780.35         4.       0.06       0.05    2293.86       514.4140200300122 
         2.                                                       4140200300123 
    1863.49         2.      -0.48       0.12    2376.98       514.4140200300124 
         2.                                                       4140200300125 
    1863.49         4.       0.03       0.14    2376.98       514.4140200300126 
         2.                                                       4140200300127 
      1878.         2.      -0.21       0.04    2391.51       514.4140200300128 
         2.                                                       4140200300129 
      1878.         4.      -0.02       0.04    2391.51       514.4140200300130 
         2.                                                       4140200300131 
    1951.35         2.        0.4       0.08    1951.39         0.4140200300132 
         1.                                                       4140200300133 
    1951.35         4.       0.02       0.08    1951.39         0.4140200300134 
         1.                                                       4140200300135 
    2091.36         2.       0.17       0.06    2604.89       514.4140200300136 
         2.                                                       4140200300137 
    2091.36         4.       0.02       0.05    2604.89       514.4140200300138 
         2.                                                       4140200300139 
    2206.56         2.       -0.1       0.16    2720.07       514.4140200300140 
         2.                                                       4140200300141 
    2206.56         4.      -0.05       0.08    2720.07       514.4140200300142 
         2.                                                       4140200300143 
    2289.47         2.       0.17       0.08      2803.       514.4140200300144 
         2.                                                       4140200300145 
    2289.47         4.      -0.15       0.09      2803.       514.4140200300146 
         2.                                                       4140200300147 
ENDDATA            128          0                                 4140200300148 
ENDSUBENT          147          0                                 4140200399999 
SUBENT        41402004   20111025                             41544140200400001 
BIB                  8         25                                 4140200400002 
REACTION   (48-CD-116(N,INL)48-CD-116,PAR,POL,G,FIS)              4140200400003 
EN-SEC       (LVL-INI,48-CD-116) Initial level of gamma transition4140200400004 
             (LVL,48-CD-116) Final level of gamma transition      4140200400005 
           (E,G)                                                  4140200400006 
LEVEL-PROP ((1.)48-CD-116,E-LVL=0.,SPIN=0.,PARITY=+1.)            4140200400007 
           ((2.)48-CD-116,E-LVL=514.,SPIN=2.,PARITY=+1.)          4140200400008 
           ((3.)48-CD-116,E-LVL=1213.,SPIN=2.,PARITY=+1.)         4140200400009 
           ((4.)48-CD-116,E-LVL=1219.,SPIN=4.,PARITY=+1.)         4140200400010 
           ((5.)48-CD-116,E-LVL=1282.,SPIN=0.,PARITY=+1.)         4140200400011 
           ((6.)48-CD-116,E-LVL=1380.,SPIN=0.,PARITY=+1.)         4140200400012 
           ((7.)48-CD-116,E-LVL=1642.,SPIN=2.,PARITY=+1.)         4140200400013 
DETECTOR   (COMPL) Double-crystal  Compton polarimeter.           4140200400014 
ANALYSIS    Linear gamma-quantum polarization was defined as      4140200400015 
            (1-N*R)/(N-R), where N=Nperpend/Nparal -ratio of      4140200400016 
           counts in perpendicular plane to counts in parallel    4140200400017 
            plane ( plane formed by neutron beam direction and    4140200400018 
           gamma direction and plane of gamma Compton scattering);4140200400019 
           R - polarization sensitivity of setup.                 4140200400020 
           Dependence R(E-gamma) was defined using pure E2        4140200400021 
           transitions following REL-REF of P.Taras :             4140200400022 
REL-REF    (N,,P.Taras,J,CJP,49,(3),328,1971)                     4140200400023 
ERR-ANALYS (+DATA-ERR)  Positive unsymmetrical error              4140200400024 
           (-DATA-ERR)  Negative unsymmetrical error              4140200400025 
STATUS     (COREL,41375002)                                       4140200400026 
           (TABLE)  From Table 2 of J,YF,54,(8),309,1991          4140200400027 
ENDBIB              25          0                                 4140200400028 
NOCOMMON             0          0                                 4140200400029 
DATA                 8         21                                 4140200400030 
E          DATA       DATA-ERR   +DATA-ERR  -DATA-ERR  LVL-INI    4140200400031 
LVL-FIN    LVL-FLAG                                               4140200400032 
KEV        NO-DIM     NO-DIM     NO-DIM     NO-DIM     KEV        4140200400033 
KEV        NO-DIM                                                 4140200400034 
     513.51       1.94        .25                           513.514140200400035 
         0.         1.                                            4140200400036 
       650.       1.26                   1.8        2.4    2292.524140200400037 
      1642.         7.                                            4140200400038 
     656.73         4.                   1.3         .8    2037.064140200400039 
      1380.         6.                                            4140200400040 
     705.95        3.6                    .8         .6    1219.424140200400041 
       514.         2.                                            4140200400042 
     807.21        5.2                   3.3        1.6    2026.634140200400043 
      1219.         4.                                            4140200400044 
    1029.38        1.9         .4                           2248.84140200400045 
      1219.         4.                                            4140200400046 
    1083.29        5.3                   4.9        2.3    2296.274140200400047 
      1213.         3.                                            4140200400048 
    1120.32       0.15         .1                          2339.744140200400049 
      1219.         4.                                            4140200400050 
      1129.       0.75                  0.11       0.18           4140200400051 
       514.         2.                                            4140200400052 
    1152.46         2.                   3.9        1.4           4140200400053 
      1282.         5.                                            4140200400054 
      1157.        1.8                   0.9        0.6    2376.424140200400055 
      1219.         4.                                            4140200400056 
    1212.98        3.8                   1.6        1.2   1212.9874140200400057 
         0.         1.                                            4140200400058 
    1402.31        2.9                   1.5        0.9     1915.84140200400059 
       514.         2.                                            4140200400060 
    1408.06         3.                   1.5         1.    1921.584140200400061 
       514.         2.                                            4140200400062 
    1414.94        0.6         .4                          1928.454140200400063 
       514.         2.                                            4140200400064 
    1437.87        4.3                    3.        1.9           4140200400065 
       514.         2.                                            4140200400066 
     1528.4         8.                    8.         6.    2041.924140200400067 
       514.         2.                                            4140200400068 
    1604.95         6.                  99.9         3.    2118.474140200400069 
       514.         2.                                            4140200400070 
    1642.54        1.8                   2.6        1.2    1642.544140200400071 
         0.         1.                                            4140200400072 
    1780.35        3.3                   3.7        2.2    2293.864140200400073 
       514.         2.                                            4140200400074 
      1878.        0.7                   0.9        0.6    2391.514140200400075 
       514.         2.                                            4140200400076 
ENDDATA             46          0                                 4140200400077 
ENDSUBENT           76          0                                 4140200499999 
ENDENTRY             4          0                                 4140299999999 
