ENTRY            41403   20141020                             41654140300000001 
SUBENT        41403001   20141020                             41654140300100001 
BIB                 13         33                                 4140300100002 
TITLE       Multipole mixtures in gamma-transitions of 112Cd      4140300100003 
            from the (n,n'gamma) reaction                         4140300100004 
AUTHOR     (S.Yu.Araddad, M.I.Dyufani, S.M.Zlitni, J.M.Rateb,     4140300100005 
            A.M.Demidov, I.V.Mikhaylov)                           4140300100006 
INSTITUTE  (4RUSKUR)  Demidov, Mikhaylov                          4140300100007 
           (3LIBTAJ)  Tazhura Nuclear Center. Araddad, Dyufani,   4140300100008 
                      Zlitni, Rateb                               4140300100009 
REFERENCE  ((J,YK,1991,(1),47,1991)=                              4140300100010 
           (R,INDC(CCP)-339,47,1991)) Main reference, data tables.4140300100011 
REL-REF    (M,,A.M.Demidov+,B,DEMIDOV,70,1986) Exp. details       4140300100012 
           (M,,S.Yu.Araddad+,J,IZV,51,45,1987) Exp. details       4140300100013 
           (M,,S.Yu.Araddad+,J,BAS,51,(1),41,1987)                4140300100014 
             Eng.trans.of J,IZV,51,45,1987.                       4140300100015 
FACILITY   (REAC,3LIBTAJ)                                         4140300100016 
DETECTOR   (HPGE)   Ge-detector with 10% efficiency.              4140300100017 
            Resolution 2.3 keV for 1.5 MeV.                       4140300100018 
            Distance sample - detector 50 cm.                     4140300100019 
INC-SPECT   .Fast spectrum of thermal reactor. Neutron beam was   4140300100020 
            filtered by 1 mm cadmium layer, 1 gram/cm2 B4-C layer,4140300100021 
            50 mm uranium and 0.95 gram/cm2 boron layer.          4140300100022 
METHOD     (FNB)                                                  4140300100023 
SAMPLE     (48-CD-112,ENR=0.979) Enriched metallic cadmium,       4140300100024 
           mass 20 gram, thickness 1 g/cm2, Cd-112 content 97.9% .4140300100025 
COMMENT    .Energies are measured at 90 degrees, intensities at   4140300100026 
            125 degrees.                                          4140300100027 
ERR-ANALYS (DATA-ERR)  Not specified                              4140300100028 
HISTORY    (20010827C)  + + Compiled at the centre - CJD + +      4140300100029 
           (20010917U) Last checking has been done.               4140300100030 
           (20141020A) M.M. Ref.of Engl.translation was added.    4140300100031 
           Two refs. were moved in REL-REF.                       4140300100032 
           Article was checked, BIB information was updated.      4140300100033 
           E-LVL-INI/FIN -> LVL-INI/FIN .                         4140300100034 
           FIS -> SPA according to comment of N.Otsuka,NDS,IAEA.  4140300100035 
ENDBIB              33          0                                 4140300100036 
COMMON               1          3                                 4140300100037 
EN-DUMMY                                                          4140300100038 
MEV                                                               4140300100039 
         1.                                                       4140300100040 
ENDCOMMON            3          0                                 4140300100041 
ENDSUBENT           40          0                                 4140300199999 
SUBENT        41403002   20141020                             41654140300200001 
BIB                  5         12                                 4140300200002 
REACTION   ((48-CD-112(N,INL)48-CD-112,,SPC,,SPA)//               4140300200003 
           (48-CD-112(N,INL)48-CD-112,,SPC,,SPA))  Relative to    4140300200004 
              617.52 keV gamma line intensity taken as 100 .      4140300200005 
            DATA and DATA-ERR were divided by 100 by compiler to  4140300200006 
            obtain NO-DIM units.                                  4140300200007 
EN-SEC     (E-DN,G)                                               4140300200008 
           (E-NM,G)                                               4140300200009 
             (LVL-INI,48-CD-112)                                  4140300200010 
ERR-ANALYS (E-NM-ERR)  Error in the nominator gamma energy        4140300200011 
FLAG       (1.)     Magnetic transition                           4140300200012 
STATUS     (TABLE) Table 1 of YK,is.1,p.47,1991                   4140300200013 
                             =INDC(CCP)-339,47,1991 .             4140300200014 
ENDBIB              12          0                                 4140300200015 
COMMON               1          3                                 4140300200016 
E-DN                                                              4140300200017 
KEV                                                               4140300200018 
     617.52                                                       4140300200019 
ENDCOMMON            3          0                                 4140300200020 
DATA                 6        182                                 4140300200021 
E-NM       E-NM-ERR   DATA       DATA-ERR   LVL-INI    FLAG       4140300200022 
KEV        KEV        NO-DIM     NO-DIM     KEV        NO-DIM     4140300200023 
     120.94        0.1     1.1E-2     0.2E-2      1433.           4140300200024 
     197.06       0.05    0.07E-2    0.02E-2      2570.           4140300200025 
      244.5        0.6    0.12E-2    0.05E-2      1469.           4140300200026 
      370.8        0.2   0.036E-2   0.012E-2                      4140300200027 
      398.1        0.3   0.027E-2    0.01E-2      2403.           4140300200028 
     401.98       0.03    0.72E-2    0.05E-2      1871.         1.4140300200029 
      410.8        0.1    0.07E-2    0.02E-2      2416.           4140300200030 
      420.6        0.1   0.032E-2    0.01E-2      2794.           4140300200031 
      444.6       0.05    0.14E-2    0.02E-2      2818.           4140300200032 
     455.15        0.1    0.31E-2    0.02E-2      1871.           4140300200033 
     526.58       0.05    0.19E-2    0.02E-2      2591.           4140300200034 
      558.4        0.2     1.3E-2     0.2E-2      1871.         1.4140300200035 
      584.4       0.02     0.4E-2     0.2E-2      2454.           4140300200036 
     586.01       0.14     0.1E-2    0.02E-2      2591.           4140300200037 
      601.2        0.2    0.15E-2    0.02E-2                      4140300200038 
     606.84       0.02    5.34E-2     0.2E-2      1224.           4140300200039 
     612.89       0.09    0.12E-2    0.03E-2      2082.           4140300200040 
     617.52       0.02      1.                     618.           4140300200041 
     626.05        0.1   0.083E-2    0.02E-2      2794.           4140300200042 
     629.75       0.13   0.088E-2    0.02E-2      2635.           4140300200043 
     648.88       0.04    0.32E-2    0.04E-2      2064.           4140300200044 
     666.15       0.02    1.01E-2    0.04E-2      2082.           4140300200045 
     687.93       0.05    0.16E-2   0.015E-2                      4140300200046 
     692.78        0.1     0.6E-2     0.2E-2      2005.           4140300200047 
     694.84       0.02     14.E-2     0.4E-2      1312.           4140300200048 
     700.92       0.08    0.11E-2    0.02E-2      2572.           4140300200049 
     734.93       0.08    0.17E-2    0.02E-2                      4140300200050 
     752.22       0.02    1.98E-2    0.08E-2      2064.         1.4140300200051 
     769.32       0.03    0.77E-2    0.05E-2      2082.           4140300200052 
      786.5        0.3    0.13E-2    0.02E-2                      4140300200053 
     798.05       0.02     14.E-2     0.6E-2      1416.           4140300200054 
     815.79       0.02    1.02E-2    0.03E-2      1433.           4140300200055 
     831.86       0.12    0.05E-2    0.02E-2      2301.           4140300200056 
     851.29       0.02     6.7E-2     0.2E-2      1469.           4140300200057 
     861.57       0.07    0.22E-2   0.015E-2      2867.           4140300200058 
      890.8        0.2    0.04E-2    0.02E-2                      4140300200059 
      897.1       0.06    0.21E-2    0.03E-2      2122.           4140300200060 
     919.47       0.11    0.16E-2    0.02E-2      2231.         1.4140300200061 
     934.15       0.04    0.23E-2   0.015E-2      2403.           4140300200062 
     947.09       0.13   0.136E-2   0.015E-2      2416.           4140300200063 
     957.64       0.02    1.76E-2    0.08E-2      2373.           4140300200064 
     987.74       0.04    0.43E-2    0.03E-2      2403.         1.4140300200065 
     1007.1       0.17    0.09E-2   0.015E-2      2231.           4140300200066 
     1024.2       0.18    0.11E-2    0.02E-2      2493.           4140300200067 
    1038.74       0.08    0.55E-2    0.03E-2      2454.           4140300200068 
     1063.5        0.2   0.044E-2   0.015E-2      3069.           4140300200069 
    1077.53       0.04    0.49E-2    0.03E-2      2493.           4140300200070 
    1090.54       0.05    0.21E-2    0.02E-2      2403.           4140300200071 
    1103.46       0.04     0.3E-2    0.03E-2      2416.           4140300200072 
    1125.88       0.07    0.14E-2    0.04E-2      3131.           4140300200073 
    1154.63        0.1    0.14E-2    0.02E-2      2570.           4140300200074 
    1156.23        0.2    0.22E-2    0.03E-2      2572.           4140300200075 
     1164.4        0.2    0.08E-2    0.03E-2                      4140300200076 
    1175.51        0.1    0.44E-2    0.03E-2      2591.           4140300200077 
     1189.6        0.2    0.05E-2    0.02E-2                      4140300200078 
     1194.2        0.2    0.12E-2    0.04E-2      2507.           4140300200079 
     1219.6        0.2   0.069E-2    0.02E-2      2635.           4140300200080 
    1250.04       0.09   0.088E-2   0.025E-2                      4140300200081 
    1253.41       0.02    1.84E-2    0.08E-2      1871.         1.4140300200082 
     1260.9        0.5    0.08E-2    0.03E-2                      4140300200083 
     1295.7       0.06    0.36E-2    0.02E-2      2711.           4140300200084 
    1312.37       0.02    4.64E-2    0.15E-2      1312.           4140300200085 
    1322.59       0.05   0.219E-2   0.015E-2      2635.           4140300200086 
    1356.56       0.04   0.348E-2   0.015E-2      2669.           4140300200087 
    1387.68       0.02    3.32E-2    0.12E-2      2005.           4140300200088 
     1400.8        0.2    0.07E-2    0.02E-2                      4140300200089 
     1413.9        0.2   0.061E-2    0.02E-2      3419.           4140300200090 
     1419.2        0.2   0.039E-2   0.018E-2      2853.           4140300200091 
    1424.74       0.06   0.182E-2    0.15E-2      2894.           4140300200092 
    1447.01       0.03    1.05E-2    0.05E-2      2064.           4140300200093 
    1451.44       0.08   0.075E-2    0.02E-2      2867.           4140300200094 
    1460.96       0.11    0.02E-2    0.01E-2                      4140300200095 
    1463.92       0.13   0.018E-2    0.01E-2      2082.           4140300200096 
     1468.8       0.02    3.78E-2    0.15E-2      1469.           4140300200097 
    1483.95       0.05   0.271E-2   0.015E-2      2900.           4140300200098 
     1504.1       0.03    1.32E-2    0.06E-2      2122.           4140300200099 
    1538.72       0.03    1.48E-2    0.06E-2      2156.           4140300200100 
    1546.28       0.18     0.1E-2    0.03E-2      2962.           4140300200101 
    1555.97       0.09    0.16E-2    0.02E-2      2972.           4140300200102 
    1586.65       0.13   0.058E-2   0.015E-2                      4140300200103 
     1599.9        0.2   0.055E-2   0.015E-2                      4140300200104 
    1613.69       0.03    1.19E-2    0.05E-2      2231.           4140300200105 
     1653.2        0.2   0.053E-2   0.015E-2      3068.           4140300200106 
     1659.5        0.2    0.09E-2    0.03E-2                      4140300200107 
     1667.5        0.3   0.025E-2   0.012E-2                      4140300200108 
    1683.31       0.08     0.2E-2    0.04E-2      2301.           4140300200109 
     1687.3        0.3    0.04E-2    0.02E-2                      4140300200110 
    1689.82       0.16   0.097E-2   0.025E-2      3002.           4140300200111 
    1729.86       0.14    0.05E-2    0.02E-2                      4140300200112 
    1785.54       0.05    0.32E-2    0.03E-2      2403.           4140300200113 
    1798.48       0.03    0.61E-2    0.03E-2      2416.         1.4140300200114 
     1823.4        0.3    0.04E-2    0.02E-2                      4140300200115 
     1831.4        0.2   0.069E-2    0.02E-2                      4140300200116 
     1838.6         1.    0.02E-2    0.01E-2      2454.           4140300200117 
     1842.6        0.8    0.02E-2    0.01E-2                      4140300200118 
      1851.        0.2    0.07E-2    0.02E-2                      4140300200119 
     1875.2        0.2   0.037E-2   0.015E-2      2493.           4140300200120 
    1888.82       0.04     0.5E-2    0.03E-2      2506.           4140300200121 
     1894.4        0.2   0.024E-2   0.012E-2                      4140300200122 
     1900.7        0.4    0.02E-2    0.01E-2                      4140300200123 
     1913.8        0.3   0.032E-2   0.015E-2                      4140300200124 
     1945.1        0.2    0.05E-2    0.02E-2      3170.           4140300200125 
     1953.5        0.3   0.047E-2   0.015E-2                      4140300200126 
     2032.5        0.2   0.124E-2    0.02E-2      3345.           4140300200127 
    2051.56       0.16   0.039E-2   0.015E-2      2669.           4140300200128 
    2056.53       0.05    0.36E-2    0.05E-2      2674.           4140300200129 
     2066.1        0.3    0.03E-2   0.015E-2                      4140300200130 
     2074.7        0.2   0.068E-2    0.02E-2                      4140300200131 
     2106.3       0.06    0.32E-2    0.03E-2      2724.           4140300200132 
     2121.8        0.2    0.02E-2    0.01E-2      2122.           4140300200133 
     2148.2       0.07    0.28E-2    0.03E-2      2766.           4140300200134 
    2156.33       0.12    0.16E-2    0.02E-2      2156.           4140300200135 
     2166.9        0.4    0.02E-2    0.01E-2                      4140300200136 
      2208.        0.2    0.02E-2    0.01E-2                      4140300200137 
    2211.97       0.08    0.19E-2    0.02E-2      2829.           4140300200138 
      2217.        0.2   0.031E-2   0.012E-2      2834.           4140300200139 
     2235.3        0.2   0.067E-2    0.02E-2      2853.           4140300200140 
    2276.19       0.16   0.086E-2    0.02E-2      2894.           4140300200141 
     2313.9        0.3   0.052E-2   0.017E-2      2931.           4140300200142 
     2329.9       0.07    0.25E-2    0.04E-2      2947.           4140300200143 
    2363.35        0.1   0.165E-2    0.02E-2      2981.           4140300200144 
     2384.4        0.2   0.091E-2    0.02E-2      3002.           4140300200145 
     2449.2        0.5   0.047E-2   0.015E-2                      4140300200146 
     2488.1        0.3   0.037E-2   0.015E-2                      4140300200147 
     2492.6        0.4   0.023E-2   0.012E-2      3110.           4140300200148 
    2506.72       0.03    0.64E-2    0.05E-2      2507.           4140300200149 
     2518.1        0.2   0.066E-2    0.02E-2                      4140300200150 
    2552.06        0.1   0.122E-2   0.015E-2      3170.           4140300200151 
      2559.        0.2    0.03E-2   0.015E-2                      4140300200152 
    2561.42       0.15   0.075E-2    0.02E-2      3179.           4140300200153 
    2572.57       0.12    0.09E-2    0.02E-2      3190.           4140300200154 
    2576.72       0.15    0.08E-2    0.02E-2                      4140300200155 
    2586.26       0.16    0.11E-2    0.03E-2      3204.           4140300200156 
     2629.1        0.2   0.072E-2    0.02E-2                      4140300200157 
     2635.5        0.3   0.066E-2    0.02E-2      3253.           4140300200158 
     2679.6        0.3    0.04E-2    0.02E-2                      4140300200159 
     2685.6        0.2    0.08E-2   0.025E-2      3303.           4140300200160 
      2702.        0.5    0.02E-2    0.01E-2                      4140300200161 
     2714.2        0.3    0.04E-2    0.02E-2                      4140300200162 
     2718.4        0.2    0.08E-2    0.03E-2      3336.           4140300200163 
     2724.2        0.3    0.05E-2    0.02E-2      2724.           4140300200164 
     2735.9        0.4    0.02E-2    0.01E-2                      4140300200165 
     2752.3        0.2    0.08E-2    0.03E-2      3370.           4140300200166 
     2766.3        0.6    0.07E-2    0.02E-2      2766.           4140300200167 
     2775.4        0.4    0.06E-2    0.02E-2      3392.           4140300200168 
     2785.8        0.4    0.04E-2    0.02E-2                      4140300200169 
      2811.        0.4    0.04E-2    0.02E-2                      4140300200170 
    2829.15       0.14    0.11E-2    0.02E-2      2829.           4140300200171 
     2836.5        0.3    0.05E-2    0.02E-2                      4140300200172 
    2852.81       0.16    0.14E-2    0.02E-2      2853.           4140300200173 
     2870.8        0.5    0.05E-2    0.02E-2                      4140300200174 
     2882.8        0.5    0.06E-2    0.02E-2                      4140300200175 
     2894.6        0.4    0.08E-2    0.03E-2      2894.           4140300200176 
     2904.8        0.3    0.06E-2    0.02E-2                      4140300200177 
     2913.9        0.5   0.026E-2   0.012E-2                      4140300200178 
     2922.6        0.4   0.033E-2   0.012E-2                      4140300200179 
    2931.17       0.19   0.104E-2    0.02E-2      2931.           4140300200180 
     2944.9        0.3    0.06E-2    0.02E-2                      4140300200181 
     2961.6        0.4    0.05E-2    0.02E-2      2962.           4140300200182 
     2980.4        0.6    0.04E-2    0.02E-2      2981.           4140300200183 
     2991.2        0.5    0.07E-2    0.02E-2                      4140300200184 
     3028.9        0.5    0.06E-2    0.02E-2                      4140300200185 
     3035.6        0.5    0.04E-2    0.02E-2                      4140300200186 
     3047.9        0.5    0.04E-2    0.02E-2                      4140300200187 
     3057.8        0.6    0.04E-2    0.02E-2                      4140300200188 
     3071.5        0.6    0.05E-2    0.02E-2                      4140300200189 
     3110.7        0.4    0.04E-2    0.02E-2      3110.           4140300200190 
     3122.3        0.4    0.03E-2   0.015E-2                      4140300200191 
     3126.4        0.3    0.04E-2    0.02E-2                      4140300200192 
    3133.29       0.17     0.1E-2    0.02E-2      3133.           4140300200193 
     3146.4        0.3    0.04E-2    0.02E-2                      4140300200194 
     3165.2        0.4    0.04E-2    0.02E-2                      4140300200195 
     3231.1        0.3    0.04E-2    0.02E-2                      4140300200196 
     3242.8        0.5    0.03E-2   0.015E-2      3243.           4140300200197 
     3300.5        0.3    0.07E-2    0.02E-2                      4140300200198 
     3335.3        0.5    0.07E-2    0.02E-2                      4140300200199 
      3375.        0.4    0.04E-2    0.02E-2                      4140300200200 
     3415.3        0.7    0.03E-2   0.015E-2                      4140300200201 
     3501.7        0.6    0.04E-2    0.02E-2                      4140300200202 
     3596.1        0.6    0.06E-2    0.02E-2                      4140300200203 
     3706.2        0.7    0.05E-2    0.02E-2                      4140300200204 
     3813.8        0.8    0.05E-2    0.02E-2                      4140300200205 
ENDDATA            184          0                                 4140300200206 
ENDSUBENT          205          0                                 4140300299999 
SUBENT        41403003   20141020                             41654140300300001 
BIB                  5          9                                 4140300300002 
REACTION   (48-CD-112(N,INL)48-CD-112,PAR,DA,G,LEG/RS/SPA)        4140300300003 
EN-SEC     (E,G)                                                  4140300300004 
             (LVL-INI,48-CD-112)                                  4140300300005 
             (LVL-FIN,48-CD-112)                                  4140300300006 
ERR-ANALYS  LVL-INI-ER -  Error in initial level energy           4140300300007 
FLAG       (1.)  Probably magnetic transition                     4140300300008 
           (2.)  Unexplained peculiarities                        4140300300009 
STATUS     (TABLE) Table 2 of YK,is.1,p.47,1991                   4140300300010 
                             =INDC(CCP)-339,47,1991 .             4140300300011 
ENDBIB               9          0                                 4140300300012 
NOCOMMON             0          0                                 4140300300013 
DATA                 8         87                                 4140300300014 
E          NUMBER     DATA       DATA-ERR   LVL-INI    LVL-INI-ER 4140300300015 
LVL-FIN    FLAG                                                   4140300300016 
KEV        NO-DIM     NO-DIM     NO-DIM     KEV        KEV        4140300300017 
KEV        NO-DIM                                                 4140300300018 
     401.96         2.       0.29       0.07     1870.8       0.044140300300019 
      1469.         1.                                            4140300300020 
     401.96         4.      -0.13        0.1     1870.8       0.044140300300021 
      1469.         1.                                            4140300300022 
     455.15         2.      -0.03       0.07     1870.8       0.044140300300023 
      1416.                                                       4140300300024 
     455.15         4.      -0.01       0.08     1870.8       0.044140300300025 
      1416.                                                       4140300300026 
     526.58         4.      -0.19       0.12    2591.08       0.074140300300027 
      2064.                                                       4140300300028 
     526.59         2.      -0.46       0.09    2591.08       0.074140300300029 
      2064.                                                       4140300300030 
     558.4          2.       0.24       0.04     1870.8       0.044140300300031 
      1312.         1.                                            4140300300032 
     558.4          4.      -0.05       0.02     1870.8       0.044140300300033 
      1312.         1.                                            4140300300034 
     617.52         2.      0.202       0.01     617.52       0.024140300300035 
         0.                                                       4140300300036 
     617.52         4.     -0.062      0.012     617.52       0.024140300300037 
         0.                                                       4140300300038 
     648.88         2.       0.32       0.07     2064.5       0.044140300300039 
      1416.                                                       4140300300040 
     648.88         4.       0.05       0.07     2064.5       0.044140300300041 
      1416.                                                       4140300300042 
     666.15         2.      0.076       0.02    2081.71       0.044140300300043 
      1416.                                                       4140300300044 
     666.15         4.     -0.014      0.024    2081.71       0.044140300300045 
      1416.                                                       4140300300046 
     694.84         2.     -0.238      0.017    1312.37       0.024140300300047 
       618.                                                       4140300300048 
     694.84         4.     -0.022      0.023    1312.37       0.024140300300049 
       618.                                                       4140300300050 
     752.22         2.     -0.104      0.016     2064.5       0.044140300300051 
      1312.         1.                                            4140300300052 
     752.22         4.       0.03       0.02     2064.5       0.044140300300053 
      1312.         1.                                            4140300300054 
     769.32         2.       0.28       0.05    2081.71       0.044140300300055 
      1312.                                                       4140300300056 
     769.32         4.      -0.08       0.06    2081.71       0.044140300300057 
      1312.                                                       4140300300058 
     798.05         2.      0.286      0.015    1415.57       0.034140300300059 
       618.                                                       4140300300060 
     798.05         4.       -0.1      0.014    1415.57       0.034140300300061 
       618.                                                       4140300300062 
     815.79         2.         0.       0.03    1433.31       0.034140300300063 
       618.                                                       4140300300064 
     815.79         4.      -0.02       0.03    1433.31       0.034140300300065 
       618.                                                       4140300300066 
     851.29         2.      0.274      0.012    1468.81       0.024140300300067 
       618.                                                       4140300300068 
     851.29         4.     -0.013      0.014    1468.81       0.024140300300069 
       618.                                                       4140300300070 
     934.15         2.      -0.15       0.07    2403.02       0.054140300300071 
      1469.                                                       4140300300072 
     934.15         4.       0.24       0.08    2403.02       0.054140300300073 
      1469.                                                       4140300300074 
     957.64         2.       -0.2       0.03    2373.21       0.044140300300075 
      1416.                                                       4140300300076 
     957.64         4.       0.01       0.04    2373.21       0.044140300300077 
      1416.                                                       4140300300078 
     987.74         2.         0.       0.05    2403.02       0.054140300300079 
      1416.         1.                                            4140300300080 
     987.74         4.       0.02       0.05    2403.02       0.054140300300081 
      1416.         1.                                            4140300300082 
    1038.74         2.       0.22       0.03    2454.31       0.084140300300083 
      1416.                                                       4140300300084 
    1038.74         4.       0.01       0.04    2454.31       0.084140300300085 
      1416.                                                       4140300300086 
    1077.53         2.       0.46       0.06     2493.1       0.054140300300087 
      1416.                                                       4140300300088 
    1077.53         4.      -0.01       0.07     2493.1       0.054140300300089 
      1416.                                                       4140300300090 
    1090.54         2.      -0.12       0.07    2403.02       0.054140300300091 
      1312.                                                       4140300300092 
    1090.54         4.         0.       0.08    2403.02       0.054140300300093 
      1312.                                                       4140300300094 
    1103.46         2.      -0.07       0.08    2415.96       0.044140300300095 
      1312.                                                       4140300300096 
    1156.23         2.         0.       0.07    2571.81        0.24140300300097 
      1416.                                                       4140300300098 
    1156.23         4.      -0.02       0.09    2571.81        0.24140300300099 
      1416.                                                       4140300300100 
    1175.51         2.       0.38       0.05    2591.08       0.074140300300101 
      1416.                                                       4140300300102 
    1175.51         4.       0.01       0.06    2591.08       0.074140300300103 
      1416.                                                       4140300300104 
    1253.41         2.       0.14       0.02     1870.8       0.044140300300105 
       618.         1.                                            4140300300106 
    1253.41         4.      -0.08       0.03     1870.8       0.044140300300107 
       618.         1.                                            4140300300108 
    1295.7          2.       0.32       0.12    2711.28       0.074140300300109 
      1416.                                                       4140300300110 
    1295.7          4.       0.02       0.14    2711.28       0.074140300300111 
      1416.                                                       4140300300112 
    1312.37         2.      0.263      0.014    1312.37       0.024140300300113 
         0.                                                       4140300300114 
    1312.37         4.     -0.064      0.017    1312.37       0.024140300300115 
         0.                                                       4140300300116 
    1322.59         2.      -0.45       0.07    2634.97       0.054140300300117 
      1312.                                                       4140300300118 
    1322.59         4.       0.24       0.08    2634.97       0.054140300300119 
      1312.                                                       4140300300120 
    1356.56         2.       0.18       0.05    2668.96       0.054140300300121 
      1312.                                                       4140300300122 
    1356.56         4.       0.07       0.05    2668.96       0.054140300300123 
      1312.                                                       4140300300124 
    1387.68         2.     -0.188      0.009    2005.21       0.034140300300125 
       618.                                                       4140300300126 
    1387.68         4.     -0.006       0.01    2005.21       0.034140300300127 
       618.                                                       4140300300128 
    1424.74         2.      -0.15       0.07    2893.59       0.074140300300129 
      1469.                                                       4140300300130 
    1424.74         4.       0.07        0.1    2893.59       0.074140300300131 
      1469.                                                       4140300300132 
    1447.01         2.      -0.53       0.02     2064.5       0.044140300300133 
       618.                                                       4140300300134 
    1447.01         4.       0.06       0.03     2064.5       0.044140300300135 
       618.                                                       4140300300136 
    1468.8          2.      0.306      0.015    1468.81       0.024140300300137 
         0.                                                       4140300300138 
    1468.8          4.     -0.108      0.018    1468.81       0.024140300300139 
         0.                                                       4140300300140 
    1483.95         2.      -0.36       0.09    2899.53       0.064140300300141 
      1416.         2.                                            4140300300142 
    1483.95         4.       0.04        0.1    2899.53       0.064140300300143 
      1416.         2.                                            4140300300144 
    1504.1          2.       0.34       0.03    2121.63       0.044140300300145 
       618.                                                       4140300300146 
    1504.1          4.      -0.02       0.03    2121.63       0.044140300300147 
       618.                                                       4140300300148 
    1538.72         2.       0.25       0.02    2156.26       0.044140300300149 
       618.                                                       4140300300150 
    1538.72         4.       0.03       0.03    2156.26       0.044140300300151 
       618.                                                       4140300300152 
    1555.97         2.      -0.11       0.11    2971.55        0.14140300300153 
      1416.         2.                                            4140300300154 
    1555.97         4.      -0.05       0.13    2971.55        0.14140300300155 
      1416.         2.                                            4140300300156 
    1613.69         2.        0.2       0.03    2231.22       0.044140300300157 
       618.                                                       4140300300158 
    1613.69         4.      -0.04       0.03    2231.22       0.044140300300159 
       618.                                                       4140300300160 
    1785.54         2.      -0.13       0.07    2403.02       0.054140300300161 
       618.                                                       4140300300162 
    1785.54         4.        0.1       0.09    2403.02       0.054140300300163 
       618.                                                       4140300300164 
    1798.48         2.      -0.12       0.04    2415.96       0.044140300300165 
       618.                                                       4140300300166 
    1798.48         4.       0.06       0.05    2415.96       0.044140300300167 
       618.                                                       4140300300168 
    1888.82         2.       0.11       0.04    2506.35       0.054140300300169 
       618.                                                       4140300300170 
    1888.82         4.      -0.06       0.05    2506.35       0.054140300300171 
       618.                                                       4140300300172 
    2056.53         2.       0.22       0.05    2674.07       0.064140300300173 
       618.                                                       4140300300174 
    2056.53         4.      -0.09       0.06    2674.07       0.064140300300175 
       618.                                                       4140300300176 
    2106.3          2.       0.15       0.08    2723.84       0.074140300300177 
      1416.                                                       4140300300178 
    2106.3          4.       0.02       0.11    2723.84       0.074140300300179 
      1416.                                                       4140300300180 
    2148.2          2.      -0.01       0.08    2765.74       0.084140300300181 
       618.                                                       4140300300182 
    2148.2          4.       0.03       0.09    2765.74       0.084140300300183 
       618.                                                       4140300300184 
    2156.33         2.       0.25       0.16    2156.26       0.044140300300185 
         0.                                                       4140300300186 
    2156.33         4.       -0.2       0.19    2156.26       0.044140300300187 
         0.                                                       4140300300188 
    2506.72         2.      -0.04       0.03    2506.74       0.034140300300189 
         0.                                                       4140300300190 
    2506.72         4.       0.01       0.03    2506.74       0.034140300300191 
         0.                                                       4140300300192 
ENDDATA            178          0                                 4140300300193 
ENDSUBENT          192          0                                 4140300399999 
SUBENT        41403004   20141020                             41654140300400001 
BIB                  5         10                                 4140300400002 
REACTION   (48-CD-112(N,INL)48-CD-112,PAR,POL,G,SPA)              4140300400003 
EN-SEC     (E,G)                                                  4140300400004 
              (LVL-INI,48-CD-112)                                 4140300400005 
              (LVL-FIN,48-CD-112)                                 4140300400006 
ERR-ANALYS  LVL-INI-ER -  Error in initial level energy           4140300400007 
           (+DATA-ERR)  Unsymmetrical positive error              4140300400008 
           (-DATA-ERR)  Unsymmetrical negative error              4140300400009 
FLAG       (1.)  Probably magnetic transition                     4140300400010 
STATUS     (TABLE) Table 2 of YK,is.1,p.47,1991                   4140300400011 
                             =INDC(CCP)-339,47,1991 .             4140300400012 
ENDBIB              10          0                                 4140300400013 
NOCOMMON             0          0                                 4140300400014 
DATA                 9         26                                 4140300400015 
E          DATA       DATA-ERR   +DATA-ERR  -DATA-ERR  LVL-INI    4140300400016 
LVL-INI-ER LVL-FIN    FLAG                                        4140300400017 
KEV        NO-DIM     NO-DIM     NO-DIM     NO-DIM     KEV        4140300400018 
KEV        KEV        NO-DIM                                      4140300400019 
     401.96        2.3                   0.7        0.5     1870.84140300400020 
       0.04      1469.         1.                                 4140300400021 
     606.84       0.96       0.04                          1224.364140300400022 
       0.03       618.                                            4140300400023 
     617.52       1.62                  0.12       0.08     617.524140300400024 
       0.02         0.                                            4140300400025 
     666.15        2.4                   0.5        0.3    2081.714140300400026 
       0.04      1416.                                            4140300400027 
     694.84       1.06                  0.04       0.03    1312.374140300400028 
       0.02       618.                                            4140300400029 
     752.22        1.8                  0.16        0.1     2064.54140300400030 
       0.04      1312.         1.                                 4140300400031 
     769.32        2.2                   0.5        0.3    2081.714140300400032 
       0.04      1312.                                            4140300400033 
     798.05         3.                   0.7        0.4    1415.574140300400034 
       0.03       618.                                            4140300400035 
     815.79       0.85        0.1                          1433.314140300400036 
       0.03       618.                                            4140300400037 
     851.29       1.63                  0.12       0.08    1468.814140300400038 
       0.02       618.                                            4140300400039 
     957.64       1.88                  0.23       0.13    2373.214140300400040 
       0.04      1416.                                            4140300400041 
     987.74        0.9                   0.3        0.2    2403.024140300400042 
       0.05      1416.         1.                                 4140300400043 
    1038.74        3.4                   2.8        0.8    2454.314140300400044 
       0.08      1416.                                            4140300400045 
    1077.53         5.                   56.         2.     2493.14140300400046 
       0.05      1416.                                            4140300400047 
    1103.46        2.7                   1.7        0.7    2415.964140300400048 
       0.04      1312.                                            4140300400049 
    1156.23        1.4                   0.9        0.5    2571.814140300400050 
        0.2      1416.                                            4140300400051 
    1253.41        1.8        0.3                           1870.84140300400052 
       0.04       618.         1.                                 4140300400053 
    1312.37        3.2                   1.8        0.6    1312.374140300400054 
       0.02         0.                                            4140300400055 
    1322.59        2.9                   6.4        1.1    2634.974140300400056 
       0.05      1312.                                            4140300400057 
    1387.68        2.4                   0.9        0.4    2005.214140300400058 
       0.03       618.                                            4140300400059 
    1424.74        1.8                    4.         1.    2893.594140300400060 
       0.07      1469.                                            4140300400061 
    1447.01        2.1                   0.9        0.3     2064.54140300400062 
       0.04       618.                                            4140300400063 
    1468.8         4.8                   25.        1.4    1468.814140300400064 
       0.02         0.                                            4140300400065 
    1504.1        0.61       0.15                          2121.634140300400066 
       0.04       618.                                            4140300400067 
    1538.72        3.1                   3.6        0.7    2156.264140300400068 
       0.04       618.                                            4140300400069 
    1613.69        2.3                   2.9        0.8    2231.224140300400070 
       0.04       618.                                            4140300400071 
ENDDATA             56          0                                 4140300400072 
ENDSUBENT           71          0                                 4140300499999 
ENDENTRY             4          0                                 4140399999999 
