ENTRY            41418   20101220                             41514141800000001 
SUBENT        41418001   20101220                             41514141800100001 
BIB                 13         23                                 4141800100002 
TITLE       Gamma-Spectrum from 117-Sn(N,G)118-Sn Reaction and    4141800100003 
            Scheme of Excitation States of 118-Sn Nucleus.        4141800100004 
AUTHOR     (Yu.E.Loginov,L.M.Smotritskiy,P.A.Sushkov)             4141800100005 
INSTITUTE  (4RUSLIN)                                              4141800100006 
REFERENCE  (J,VAT/Y,2002,(1-2),72,2002)                           4141800100007 
           (J,IZV,66,(10),1454,200210)                            4141800100008 
           (J,BAS,66,1601,2002) Engl.transl. of IZV,66,(10),1454  4141800100009 
FACILITY   (REAC,4RUSLIN) WWR-M Reactor                           4141800100010 
SAMPLE      Metallic enriched by Sn-117 to 88 per-cent sample     4141800100011 
                 was used.                                        4141800100012 
DETECTOR   (COIN,NAICR,GELI)                                      4141800100013 
            Ge(LI) detector, volume 25 cm**3,                     4141800100014 
            resolution 3. keV at E-Gamma=1.332 MeV                4141800100015 
METHOD     (COINC)                                                4141800100016 
INC-SOURCE (REAC)  WWR-M Reactor                                  4141800100017 
INC-SPECT   Intensity of thermal neutrons was 2.E+7 n/(sec*cm**2) 4141800100018 
ERR-ANALYS (DATA-ERR) Errors  not specified                       4141800100019 
STATUS     (TABLE) Data from Tables of J,VAT/Y,2002,(1-2),72,2002 4141800100020 
HISTORY    (20030312C)  Compiled at the Center - CJD              4141800100021 
           (20030331U) Last checking has been done.               4141800100022 
           (20061008U) Second Reference was added.  M.M.          4141800100023 
           (20101220U) 1st ref. was corrected (1/2) -> (1/2) .    4141800100024 
            J,BAS,66,1601,2002 was added.                         4141800100025 
ENDBIB              23          0                                 4141800100026 
COMMON               1          3                                 4141800100027 
EN-MEAN                                                           4141800100028 
EV                                                                4141800100029 
     2.E-02                                                       4141800100030 
ENDCOMMON            3          0                                 4141800100031 
ENDSUBENT           30          0                                 4141800199999 
SUBENT        41418002   20030331                             00004141800200001 
BIB                  1          3                                 4141800200002 
REACTION   (50-SN-117(N,G)50-SN-118,,SPC,,SPA) Averaging not given4141800200003 
            Intensities of G-Lines were Normalised on the Measured4141800200004 
            Value of the 1229 KeV G-Line Absolute Intensity.      4141800200005 
ENDBIB               3          0                                 4141800200006 
COMMON               1          3                                 4141800200007 
E-NRM                                                             4141800200008 
KEV                                                               4141800200009 
      1229.                                                       4141800200010 
ENDCOMMON            3          0                                 4141800200011 
DATA                 6        312                                 4141800200012 
E          E-ERR      DATA       DATA-ERR   LVL-INI    LVL-FIN    4141800200013 
KEV        KEV        PC/INC     PC/INC     KEV        KEV        4141800200014 
     208.54       0.2       0.21       0.03      2488.      2280. 4141800200015 
     284.4        0.4       0.16       0.03      2042.      1758. 4141800200016 
     360.3        0.5       0.08       0.03      2403.      2042. 4141800200017 
     410.0        0.16      0.28       0.03      2738.      2328. 4141800200018 
     446.02       0.1       0.54       0.03      2488.      2042. 4141800200019 
     449.4        0.3       0.19       0.03      2774.      2324. 4141800200020 
     452.78       0.13      0.44       0.03      2774.      2321. 4141800200021 
     528.78       0.04      3.95       0.08      1758.      1219. 4141800200022 
     550.5        0.4       0.13       0.03                       4141800200023 
     569.29       0.22      0.23       0.03      2328.      1758. 4141800200024 
     574.1        0.4       0.12       0.03      3251.      2677. 4141800200025 
     600.4        0.5       0.11       0.03      2929.      2328. 4141800200026 
     614.6        0.6       0.11       0.03                       4141800200027 
     644.3        0.5       0.11       0.03      2403.      1758. 4141800200028 
     652.4        0.4       0.12       0.03                       4141800200029 
     682.88       0.2       0.28       0.03      2963.      2280. 4141800200030 
     763.4        0.6       0.11       0.03      3251.      2488. 4141800200031 
     768.5        0.5       0.14       0.03                       4141800200032 
     806.5        0.7       0.32       0.13      3540.      2733. 4141800200033 
     809.2        0.6       0.46       0.12      3137.      2328. 4141800200034 
     813.22       0.04      7.62       0.13      2042.      1229. 4141800200035 
     827.31       0.05      3.51       0.10      2056.      1229. 4141800200036 
     847.2        0.3       0.24       0.04      2903.      2056. 4141800200037 
     854.3        0.6       0.12       0.04                       4141800200038 
     859.7        0.5       0.16       0.04                       4141800200039 
     867.7        0.3       0.21       0.04      3270.      2403. 4141800200040 
     884.6        0.5       0.18       0.04                       4141800200041 
     888.1        0.3       0.28       0.04      4117.      3228. 4141800200042 
     898.12       0.5       0.13       0.04      3636.      2738. 4141800200043 
     905.4        0.6       0.13       0.04      4447.      3540. 4141800200044 
     918.76       0.25      0.36       0.04      2677.      1758. 4141800200045 
     923.9        0.5       0.20       0.04      3251.      2328. 4141800200046 
     927.4        0.6       0.16       0.04                       4141800200047 
     936.0        0.5       0.19       0.05                       4141800200048 
     947.3        0.5       0.16       0.04                       4141800200049 
     948.0        0.8       0.14       0.06      3228.      2280. 4141800200050 
     952.5        0.7       0.15       0.04      3354.      2403. 4141800200051 
     961.32       0.21      0.38       0.04                       4141800200052 
     972.3        0.23      0.34       0.04                       4141800200053 
     982.6        0.4       0.26       0.05                       4141800200054 
     986.9        0.6       0.26       0.09      4044.      2056. 4141800200055 
     999.7        0.4       0.43       0.08      3057.      2056. 4141800200056 
    1047.7        0.4       0.47       0.08                       4141800200057 
    1050.68       0.05      3.76       0.09      2280.      1229. 4141800200058 
    1072.0        0.4       0.14       0.03      4426.      3354. 4141800200059 
    1095.2        0.06      6.28       0.14      2324.      1229. 4141800200060 
    1098.43       0.06      5.68       0.14      2328.      1229. 4141800200061 
    1123.5        0.6       0.09       0.03                       4141800200062 
    1137.67       0.25      0.22       0.03      3462.      2324. 4141800200063 
    1150.9        0.5       0.16       0.03      3889.      2738. 4141800200064 
    1170.7        0.4       0.53       0.12      2929.      1758. 4141800200065 
    1173.47       0.05      5.71       0.14      2403.      1229. 4141800200066 
    1203.1        0.3       0.38       0.05                       4141800200067 
    1209.3        0.4       0.23       0.05      3251.      2042. 4141800200068 
    1220.1        0.5       1.0        0.30                       4141800200069 
    1229.62       0.03     69.7        4.30      1229.         0. 4141800200070 
    1259.21       0.18      0.41       0.04      2488.      1229. 4141800200071 
    1267.64       0.05      1.83       0.05      2497.      1229. 4141800200072 
    1281.6        0.6       0.09       0.04                       4141800200073 
    1289.1        0.4       0.18       0.04                       4141800200074 
    1293.82       0.24      0.32       0.03                       4141800200075 
    1298.3        0.3       0.23       0.03                       4141800200076 
    1307.3        0.8       0.10       0.03                       4141800200077 
    1311.63       0.21      0.30       0.03      3354.      2042. 4141800200078 
    1346.6        0.6       0.09       0.03                       4141800200079 
    1351.3        0.4       0.17       0.03                       4141800200080 
    1375.1        0.14      0.46       0.03      4108.      2733. 4141800200081 
    1384.4        0.3       0.21       0.03                       4141800200082 
    1396.3        0.4       0.14       0.03                       4141800200083 
    1403.5        0.3       0.19       0.03                       4141800200084 
    1419.78       0.09      0.72       0.03      3462.      2042. 4141800200085 
    1447.63       0.05      1.68       0.03      2677.      1229. 4141800200086 
    1503.97       0.12      0.70       0.04      2733.      1229. 4141800200087 
    1508.35       0.04      2.99       0.05      2738.      1229. 4141800200088 
    1556.9        0.13      0.58       0.04                       4141800200089 
    1574.7        0.6       0.10       0.03                       4141800200090 
    1580.2        0.4       0.17       0.03      3636.      2056. 4141800200091 
    1595.8        0.6       0.09       0.03      3354.      1758. 4141800200092 
    1617.9        0.5       0.19       0.04                       4141800200093 
    1629.9        0.3       0.26       0.03                       4141800200094 
    1634.7        0.5       0.14       0.05                       4141800200095 
    1640.2        0.4       0.19       0.03      4044.      2403. 4141800200096 
    1649.2        0.5       0.17       0.04                       4141800200097 
    1666.8        0.4       0.14       0.03      3995.      2328. 4141800200098 
    1674.03       0.09      0.72       0.03      2903.      1229. 4141800200099 
    1685.03       0.23      0.23       0.03                       4141800200100 
    1694.9        0.5       0.12       0.03                       4141800200101 
    1699.64       0.13      0.50       0.04      2929.      1229. 4141800200102 
    1706.5        0.3       0.17       0.03                       4141800200103 
    1718.9        0.5       0.26       0.05      4044.      2324. 4141800200104 
    1827.56       0.21      0.26       0.03      3057.      1229. 4141800200105 
    1907.4        0.16      0.50       0.04      3137.      1229. 4141800200106 
    1938.7        0.5       0.14       0.04      5209.      3270. 4141800200107 
    1984.3        0.7       0.25       0.10                       4141800200108 
    1997.99       0.12      0.44       0.05                       4141800200109 
    2022.1        0.2       0.50       0.05      3251.      1229. 4141800200110 
    2039.4        0.1       0.28       0.05      3270.      1229. 4141800200111 
    2042.82       0.03      6.08       0.08      2042.         0. 4141800200112 
    2051.1        0.6       0.16       0.04      4108.      2056. 4141800200113 
    2060.2        0.5       0.18       0.04      4117.      2056. 4141800200114 
    2067.9        0.6       0.14       0.04                       4141800200115 
    2078.34       0.13      0.66       0.04      4406.      2328. 4141800200116 
    2125.33       0.14      0.81       0.05      3354.      1229. 4141800200117 
    2135.4        0.5       0.16       0.04                       4141800200118 
    2145.8        0.4       0.21       0.03      4426.      2280. 4141800200119 
    2191.2        0.7       0.12       0.04                       4141800200120 
    2197.1        0.4       0.25       0.04                       4141800200121 
    2213.0        0.3       0.31       0.04                       4141800200122 
    2219.9        0.4       0.35       0.60      4545.      2324. 4141800200123 
    2232.4        0.4       0.17       0.06      3462.      1229. 4141800200124 
    2255.75       0.24      0.30       0.03                       4141800200125 
    2265.2        0.6       0.18       0.04      4545.      2280. 4141800200126 
    2286.3        0.4       0.26       0.04      4044.      1758. 4141800200127 
    2293.3        0.5       0.17       0.03                       4141800200128 
    2298.4        9.4       0.26       0.04                       4141800200129 
    2300.8        0.8       0.17       0.06                       4141800200130 
    2305.9        0.6       0.12       0.05      5209.      2903. 4141800200131 
    2310.77       0.14      0.66       0.04      3540.      1229. 4141800200132 
    2327.74       0.12      0.81       0.05      2328.         0. 4141800200133 
    2360.2        0.5       0.15       0.03                       4141800200134 
    2366.59       0.2       0.30       0.04                       4141800200135 
    2385.0        0.7       0.10       0.04      5119.      2733. 4141800200136 
    2402.4        0.9       0.10       0.04      2403.         0. 4141800200137 
    2414.4        0.6       0.15       0.04                       4141800200138 
    2421.4        0.6       0.15       0.04                       4141800200139 
    2466.1        0.3       0.30       0.03                       4141800200140 
    2479.1        0.5       0.17       0.03      4536.      2056. 4141800200141 
    2499.6        0.5       0.26       0.05                       4141800200142 
    2507.7        0.3       0.28       0.06      4836.      2328. 4141800200143 
    2532.22       0.17      0.92       0.04      5209.      2677. 4141800200144 
    2538.1        1.0       0.11       0.04                       4141800200145 
    2558.9        0.4       0.19       0.03                       4141800200146 
    2581.9        0.3       0.37       0.04                       4141800200147 
    2587.4        0.4       0.29       0.04                       4141800200148 
    2594.0        0.5       0.19       0.04      4352.      1758. 4141800200149 
    2600.6        0.5       0.18       0.04                       4141800200150 
    2617.9        0.5       0.20       0.06                       4141800200151 
    2634.3        0.4       0.24       0.03                       4141800200152 
    2645.7        0.3       0.26       0.03                       4141800200153 
    2665.7        0.5       0.16       0.04                       4141800200154 
    2677.3        0.09      1.77       0.07      2677.         0. 4141800200155 
    2714.2        0.5       0.14       0.03                       4141800200156 
    2723.2        0.5       0.22       0.03                       4141800200157 
    2732.9        0.6       0.17       0.05                       4141800200158 
    2737.84       0.1       1.06       0.04      2738.         0. 4141800200159 
    2744.7        0.3       0.25       0.03      5025.      2280. 4141800200160 
    2769.9        0.5       0.18       0.04                       4141800200161 
    2791.8        0.5       0.30       0.05      5119.      2328. 4141800200162 
    2805.2        0.8       0.16       0.05      5209.      2403. 4141800200163 
    2815.0        0.3       0.35       0.04      4044.      1229. 4141800200164 
    2826.5        0.4       0.19       0.03                       4141800200165 
    2839.8        0.18      0.46       0.03                       4141800200166 
    2854.3        0.4       0.26       0.04                       4141800200167 
    2861.4        0.5       0.23       0.04                       4141800200168 
    2867.0        0.3       0.32       0.04                       4141800200169 
    2878.9        0.11      1.15       0.05      4108.      1229. 4141800200170 
    2887.73       0.12      0.77       0.04      4117.      1229. 4141800200171 
    2897.06       0.15      0.69       0.05                       4141800200172 
    2903.46       0.11      2.01       0.08      2903.         0. 4141800200173 
    2974.0        0.9       0.13       0.04                       4141800200174 
    2979.2        0.7       0.26       0.07                       4141800200175 
    2982.6        0.7       0.26       0.08      5025.      2042. 4141800200176 
    2995.6        0.4       0.33       0.04                       4141800200177 
    2999.7        0.6       0.21       0.04                       4141800200178 
    3006.5        0.9       0.09       0.03                       4141800200179 
    3020.9        0.17      0.55       0.03                       4141800200180 
    3037.0        0.6       0.15       0.03                       4141800200181 
    3044.6        0.2       0.40       0.03                       4141800200182 
    3057.25       0.07      1.44       0.04      3057.         0. 4141800200183 
    3070.7        0.5       0.29       0.04      4829.      1758. 4141800200184 
    3110.1        0.4       0.19       0.03                       4141800200185 
    3122.74       0.1       1.14       0.04      4352.      1229. 4141800200186 
    3130.0        0.6       0.14       0.03                       4141800200187 
    3141.0        0.4       0.26       0.03                       4141800200188 
    3157.3        0.4       0.30       0.04                       4141800200189 
    3163.0        0.6       0.15       0.04                       4141800200190 
    3170.1        0.5       0.16       0.03                       4141800200191 
    3176.71       0.24      0.48       0.04      4406.      1229. 4141800200192 
    3199.6        0.6       0.17       0.03                       4141800200193 
    3204.9        0.3       0.26       0.03                       4141800200194 
    3224.0        0.4       0.31       0.04                       4141800200195 
    3228.65       0.12      1.17       0.05      3228.         0. 4141800200196 
    3244.6        0.4       0.23       0.03                       4141800200197 
    3251.4        1.3       0.07       0.03      3251.         0. 4141800200198 
    3263.6        0.5       0.20       0.06                       4141800200199 
    3270.24       0.08      2.01       0.06      3270.         0. 4141800200200 
    3283.3        0.4       0.29       0.05                       4141800200201 
    3340.9        1.0       0.09       0.03                       4141800200202 
    3357.5        0.6       0.19       0.04                       4141800200203 
    3392.96       0.16      0.61       0.03                       4141800200204 
    3405.0        0.4       0.37       0.04                       4141800200205 
    3410.9        0.5       0.25       0.04                       4141800200206 
    3427.6        0.4       0.35       0.04                       4141800200207 
    3435.2        0.5       0.27       0.05                       4141800200208 
    3444.5        0.3       0.34       0.03                       4141800200209 
    3450.6        0.5       0.30       0.04      5209.      1758. 4141800200210 
    3462.3        0.7       0.22       0.06      3462.         0. 4141800200211 
    3528.9        0.4       0.46       0.04                       4141800200212 
    3540.23       0.25      0.47       0.04      3540.         0. 4141800200213 
    3549.8        0.8       0.12       0.03                       4141800200214 
    3558.0        0.9       0.10       0.03                       4141800200215 
    3578.8        0.5       0.23       0.05                       4141800200216 
    3587.23       0.22      0.47       0.05                       4141800200217 
    3632.4        0.4       0.39       0.05                       4141800200218 
    3636.9        0.24      0.59       0.05      3636.         0. 4141800200219 
    3649.5        0.6       0.19       0.05                       4141800200220 
    3663.2        0.5       0.32       0.04                       4141800200221 
    3674.4        0.4       0.37       0.04                       4141800200222 
    3679.5        0.5       0.23       0.03                       4141800200223 
    3695.8        0.2       0.68       0.06                       4141800200224 
    3701.0        0.7       0.17       0.03                       4141800200225 
    3729.9        0.6       0.23       0.05                       4141800200226 
    3752.2        0.4       0.26       0.03                       4141800200227 
    3802.4        0.3       0.35       0.04                       4141800200228 
    3808.2        0.3       0.43       0.06                       4141800200229 
    3823.8        0.4       0.24       0.05                       4141800200230 
    3834.2        0.9       0.12       0.04                       4141800200231 
    3895.9        0.3       0.39       0.02                       4141800200232 
    3928.7        0.3       0.28       0.03                       4141800200233 
    3942.1        0.3       0.28       0.03                       4141800200234 
    3971.2        0.6       0.28       0.04                       4141800200235 
    3977.0        0.5       0.41       0.05                       4141800200236 
    3981.8        0.3       0.57       0.05                       4141800200237 
    4050.6        0.3       0.52       0.04                       4141800200238 
    4090.6        0.4       0.28       0.04                       4141800200239 
    4097.9        0.3       0.12       0.03                       4141800200240 
    4117.3        0.5       0.41       0.05      4117.         0. 4141800200241 
    4125.1        0.3       0.47       0.04                       4141800200242 
    4158.5        0.7       0.17       0.03                       4141800200243 
    4180.6        0.2       0.44       0.05                       4141800200244 
    4201.7        0.6       0.28       0.04                       4141800200245 
    4207.1        0.5       0.29       0.04      9326.      5119. 4141800200246 
    4236.9        0.3       0.46       0.03                       4141800200247 
    4249.3        0.7       0.25       0.06                       4141800200248 
    4316.4        1.0       0.19       0.06                       4141800200249 
    4344.8        0.4       0.32       0.04                       4141800200250 
    4352.5        0.3       0.39       0.04      4352.         0. 4141800200251 
    4385.6        0.3       0.66       0.07                       4141800200252 
    4402.62       0.21      0.97       0.07                       4141800200253 
    4409.26       0.25      0.32       0.04                       4141800200254 
    4414.97       0.16      0.68       0.04                       4141800200255 
    4442.9        0.5       0.25       0.06                       4141800200256 
    4478.56       0.23      0.84       0.06                       4141800200257 
    4490.07       0.18      1.18       0.07      9326.      4836. 4141800200258 
    4497.3        0.4       0.46       0.08      9326.      4829. 4141800200259 
    4545.6        0.3       0.52       0.06      4545.         0. 4141800200260 
    4556.31       0.14      1.33       0.06                       4141800200261 
    4562.1        0.5       0.26       0.07                       4141800200262 
    4587.5        0.6       0.19       0.04                       4141800200263 
    4593.2        0.8       0.14       0.03                       4141800200264 
    4616.3        0.7       0.16       0.03                       4141800200265 
    4622.5        0.4       0.39       0.05                       4141800200266 
    4629.6        0.6       0.17       0.04                       4141800200267 
    4658.8        0.2       0.81       0.07                       4141800200268 
    4675.7        0.06      0.28       0.04                       4141800200269 
    4732.3        0.4       0.26       0.03                       4141800200270 
    4741.0        0.5       0.26       0.06                       4141800200271 
    4765.99       0.15      0.80       0.05                       4141800200272 
    4781.55       0.1       0.79       0.06      9326.      4545. 4141800200273 
    4789.9        0.3       0.80       0.05      9326.      4536. 4141800200274 
    4800.1        0.4       0.44       0.17                       4141800200275 
    4811.6        0.6       0.16       0.04                       4141800200276 
    4832.2        0.7       0.31       0.10                       4141800200277 
    4836.4        0.3       0.50       0.06      4836.         0. 4141800200278 
    4878.9        0.3       0.49       0.04      9326.      4447. 4141800200279 
    4894.2        0.4       0.41       0.05                       4141800200280 
    4900.1        0.3       0.33       0.04      9326.      4426. 4141800200281 
    4914.6        0.5       0.65       0.06                       4141800200282 
    4919.3        1.0       0.39       0.13      9326.      4406. 4141800200283 
    4934.5        0.4       0.25       0.03                       4141800200284 
    4950.8        0.3       0.33       0.04                       4141800200285 
    4973.02       0.11      1.16       0.05      9326.      4352. 4141800200286 
    5014.06       0.14      0.84       0.05                       4141800200287 
    5025.02       0.22      0.43       0.05      5025.         0. 4141800200288 
    5038.0        0.4       0.21       0.04                       4141800200289 
    5078.6        0.6       0.14       0.03                       4141800200290 
    5100.5        0.4       0.37       0.05                       4141800200291 
    5114.9        0.8       0.37       0.10                       4141800200292 
    5134.4        0.2       0.60       0.06                       4141800200293 
    5147.1        0.3       0.37       0.08                       4141800200294 
    5164.8        0.5       0.29       0.06                       4141800200295 
    5208.7        0.2       1.10       0.10      9326.      4117. 4141800200296 
    5217.51       0.1       0.95       0.06      9326.      4108. 4141800200297 
    5245.8        0.7       0.13       0.03                       4141800200298 
    5298.1        0.5       0.33       0.05                       4141800200299 
    5311.0        0.4       0.15       0.02                       4141800200300 
    5330.5        0.4       0.17       0.02      9326.      3995. 4141800200301 
    5382.6        0.5       0.17       0.06                       4141800200302 
    5436.2        0.3       0.46       0.05      9326.      3889. 4141800200303 
    5444.9        0.3       0.55       0.07                       4141800200304 
    5689.7        0.6       0.15       0.03      9326.      3636. 4141800200305 
    5739.0        0.3       0.34       0.03                       4141800200306 
    5863.7        0.3       0.37       0.10      9326.      3462. 4141800200307 
    5943.7        0.9       0.23       0.06                       4141800200308 
    5971.3        0.2       0.63       0.06      9326.      3354. 4141800200309 
    6055.66       0.18      0.52       0.05      9326.      3270. 4141800200310 
    6096.7        0.3       0.31       0.03      9326.      3228. 4141800200311 
    6110.0        0.2       0.99       0.08                       4141800200312 
    6215.3        0.7       0.08       0.02                       4141800200313 
    6268.0        1.4       0.10       0.02      9326.      3057. 4141800200314 
    6374.5        0.3       0.06       0.02                       4141800200315 
    6422.14       0.11      1.04       0.09      9326.      2903. 4141800200316 
    6648.52       0.07      1.00       0.06      9326.      2677. 4141800200317 
    6686.8        0.8       0.08       0.02                       4141800200318 
    6828.72       0.17      0.35       0.03      9326.      2497. 4141800200319 
    6923.9        1.1       0.08       0.02      9326.      2403. 4141800200320 
    6997.7        0.4       0.37       0.08      9326.      2328. 4141800200321 
    7268.84       0.13      0.40       0.03      9326.      2056. 4141800200322 
    7284.7        1.1       0.09       0.03      9326.      2042. 4141800200323 
    7568.3        1.0       0.05       0.01      9326.      1758. 4141800200324 
    8096.37       0.17      0.23       0.03      9326.      1229. 4141800200325 
    9325.9        0.06      3.7        0.80      9326.         0. 4141800200326 
ENDDATA            314          0                                 4141800200327 
ENDSUBENT          326          0                                 4141800299999 
ENDENTRY             2          0                                 4141899999999 
