ENTRY            41410   20250225                             422241410000    1 
SUBENT        41410001   20250225                             422241410001    1 
BIB                 12         32                                 41410001    2 
TITLE       Investigation of gamma transitions in the (n,n'gamma) 41410001    3 
             reaction on 176Yb                                    41410001    4 
AUTHOR     (A.M.Demidov, V.A.Kurkin)                              41410001    5 
REFERENCE  (J,PAN,62,1621,1999) English translation of :          41410001    6 
           (J,YF,62,1740,1999) Issue 10. Main ref., data given    41410001    7 
           (B,DEMIDOV,,70,1986)       Experimental details        41410001    8 
REL-REF    (I,41234001,L.I.Govor+,J,YF,59,1733,1996) Issue 10.    41410001    9 
           Exp. details                                           41410001   10 
           (I,41234001,L.I.Govor+,J,PAN,59,1675,1996)             41410001   11 
           English translation of YF,59,1733,1996                 41410001   12 
INSTITUTE  (4RUSKUR)                                              41410001   13 
FACILITY   (REAC,4RUSKUR)  IR-8 reactor                           41410001   14 
INC-SOURCE (REAC)                                                 41410001   15 
INC-SPECT   Fast neutron spectrum of the thermal reactor.         41410001   16 
            At fast neutron beam formation filter's set was used  41410001   17 
            - 1 mm cadmium, 1 gram/cm2 B4-C filter, 50 gram of    41410001   18 
            metallic uranium and boron 10-B filter of 1 gram/cm2  41410001   19 
            thickness .                                           41410001   20 
DETECTOR   (HPGE)   Germanium detectors, efficiency 10%,          41410001   21 
                    resolution 2.1 keV at E-gamma=1.3 MeV         41410001   22 
COMMENT           Gamma energy was measured at the angle 90 deg   41410001   23 
                  relative to neutron beam, intensity measured at 41410001   24 
                  125 deg                                         41410001   25 
SAMPLE     .Metallic ytterbium, Yb mass 10 gram,                  41410001   26 
            Yb-176 enrichment is 95.2 %                           41410001   27 
HISTORY    (20021225C)  + + Compiled at the Centre - CJD + +      41410001   28 
           (20021227U) Last checking has been done.               41410001   29 
           (20061025U) 4th reference was added.  M.M.             41410001   30 
           (20250225A) Upper -> lower case correction             41410001   31 
            STATUS was added.                                     41410001   32 
            BIB information was updated.                          41410001   33 
            MONITOR was moved in Subent 003.                      41410001   34 
ENDBIB              32          0                                 41410001   35 
COMMON               2          3                                 41410001   36 
EN-DUMMY   E-NRM                                                  41410001   37 
EV         KEV                                                    41410001   38 
     1.E+06     189.69                                            41410001   39 
ENDCOMMON            3          0                                 41410001   40 
ENDSUBENT           39          0                                 4141000199999 
SUBENT        41410002   20250225                             422241410002    1 
BIB                  5         12                                 41410002    2 
REACTION   ((70-YB-176(N,INL)70-YB-176,,SPC,,FIS)//               41410002    3 
           (70-YB-176(N,INL)70-YB-176,,SPC,,FIS))  Relative to    41410002    4 
            189.69 keV gamma line taken for 100.                  41410002    5 
EN-SEC      LVL-INI,70-YB-176                                     41410002    6 
           (E-DN,G)                                               41410002    7 
           (E-NM,G)                                               41410002    8 
ERR-ANALYS (DATA-ERR)  Error not specified                        41410002    9 
           (E-ERR)     Error in denominator gamma-energy          41410002   10 
FLAG       (1.)   Multiplet                                       41410002   11 
           (2.)   Initial level known indefinitely                41410002   12 
           (3.)   Multiplet and initial level known indefinitely  41410002   13 
STATUS     (TABLE,,A.M.Demidov+,J,PAN,62,1621,1999) Table 1.      41410002   14 
ENDBIB              12          0                                 41410002   15 
COMMON               2          3                                 41410002   16 
E-DN       E-DN-ERR                                               41410002   17 
KEV        KEV                                                    41410002   18 
     189.69       0.03                                            41410002   19 
ENDCOMMON            3          0                                 41410002   20 
DATA                 6        199                                 41410002   21 
E-NM       E-NM-ERR   DATA       DATA-ERR   LVL-INI    FLAG       41410002   22 
KEV        KEV        NO-DIM     NO-DIM     KEV        NO-DIM     41410002   23 
   106.8     0.3          0.39E-2   0.09 E-2                      41410002   24 
   111.38    0.09         2.17E-2   0.17 E-2  1200.               41410002   25 
   112.9     0.7          0.21E-2   0.12 E-2                      41410002   26 
   115.4     0.6          0.24E-2   0.12 E-2                      41410002   27 
   130.0     0.15         0.97E-2   0.10 E-2                      41410002   28 
   133.0     0.3          0.23E-2   0.08 E-2                      41410002   29 
   138.0     0.7          0.06E-2   0.04 E-2                      41410002   30 
   150.44    0.12         1.55E-2   0.10 E-2  1491.               41410002   31 
   152.8     0.5          0.09E-2   0.05 E-2  1589.               41410002   32 
   156.4     0.4          0.17E-2   0.05 E-2                      41410002   33 
   172.82    0.26         0.40E-2   0.07 E-2  1261.               41410002   34 
   179.2     0.5          0.07E-2   0.03 E-2                      41410002   35 
   189.69    0.03         1.00      5.   E-2   272.               41410002   36 
   205.39    0.18         0.35E-2   0.07 E-2                      41410002   37 
   208.1     1.0          0.22E-2   0.06 E-2  1491.               41410002   38 
   211.14    0.12         0.60E-2   0.07 E-2                      41410002   39 
   215.5     0.3          0.70E-2   0.07 E-2  1498.               41410002   40 
   234.21    0.04         3.27E-2   0.17 E-2  1575.               41410002   41 
   238.31    0.05         1.78E-2   0.11 E-2  1432.               41410002   42 
   239.80    0.05         1.75E-2   0.11 E-2  1671.               41410002   43 
   243.96    0.20         0.44E-2   0.07 E-2                      41410002   44 
   247.32    0.19         0.36E-2   0.07 E-2  1589.               41410002   45 
   250.5     0.4          0.07E-2   0.04 E-2                      41410002   46 
   259.62    0.16         0.50E-2   0.06 E-2                      41410002   47 
   267.46    0.24         0.22E-2   0.05 E-2                      41410002   48 
   273.9     0.4          0.31E-2   0.07 E-2                      41410002   49 
   285.4     0.3          0.11E-2   0.04 E-2                      41410002   50 
   288.93    0.06         1.45E-2   0.10 E-2  1630.               41410002   51 
   292.25    0.03        12.0 E-2   0.6  E-2   564.               41410002   52 
   299.60    0.05         2.68E-2   0.15 E-2  1432.               41410002   53 
   305.34    0.12         0.63E-2   0.06 E-2  1499.               41410002   54 
   314.4     0.5          0.12E-2   0.05 E-2                      41410002   55 
   320.12    0.21         0.54E-2   0.06 E-2                      41410002   56 
   322.30    0.16         0.94E-2   0.08 E-2  1821.               41410002   57 
   330.42    0.05         1.78E-2   0.11 E-2  1671.               41410002   58 
   343.60    0.05         6.2 E-2   0.3  E-2  1432.               41410002   59 
   347.9     0.3          0.17E-2   0.04 E-2                      41410002   60 
   357.7     0.7          0.25E-2   0.02 E-2                      41410002   61 
   366.60    0.05         2.36E-2   0.13 E-2  1499.               41410002   62 
   374.8     0.2          0.18E-2   0.04 E-2                      41410002   63 
   381.83    0.12         0.78E-2   0.06 E-2  2054.               41410002   64 
   389.40    0.05         1.96E-2   0.11 E-2   953.               41410002   65 
   392.19    0.04         0.42E-2   0.06 E-2                      41410002   66 
   395.27    0.08         1.42E-2   0.09 E-2  1589.               41410002   67 
   410.54    0.06         2.12E-2   0.11 E-2  1499.               41410002   68 
   414.8     0.2          0.51E-2   0.05 E-2                      41410002   69 
   431.8     0.6          0.19E-2   0.05 E-2                      41410002   70 
   436.75    0.19         0.57E-2   0.06 E-2  1630.               41410002   71 
   443.9     0.8          0.25E-2   0.04 E-2                      41410002   72 
   448.92    0.10         0.78E-2   0.06 E-2                      41410002   73 
   451.5     0.5          0.06E-2   0.03 E-2                      41410002   74 
   457.02    0.05         2.95E-2   0.15 E-2  1798.               41410002   75 
   477.8     0.2          0.34E-2   0.04 E-2  1671.               41410002   76 
   481.9     0.3          0.16E-2   0.04 E-2  2154.               41410002   77 
   498.3     0.2          0.36E-2   0.06 E-2  1630.               41410002   78 
   531.9     0.5          0.26E-2   0.04 E-2                      41410002   79 
   548.5     0.5          0.12E-2   0.03 E-2                      41410002   80 
   560.2     0.2          0.36E-2   0.05 E-2                      41410002   81 
   575.5     0.2          0.24E-2   0.05 E-2                      41410002   82 
   587.      2.           0.08E-2   0.04 E-2                      41410002   83 
   591.      2.           0.07E-2   0.04 E-2                      41410002   84 
   624.5     1.0          0.09E-2   0.05 E-2                      41410002   85 
   642.4     0.2          0.16E-2   0.04 E-2                      41410002   86 
   646.4     0.4          0.09E-2   0.04 E-2                      41410002   87 
   648.5     0.4          0.12E-2   0.06 E-2                      41410002   88 
   712.0     1.0          0.09E-2   0.05 E-2                      41410002   89 
   715.0     1.0          0.10E-2   0.05 E-2                      41410002   90 
   719.0     1.0          0.09E-2   0.04 E-2                      41410002   91 
   797.5     0.3          0.16E-2   0.04 E-2                      41410002   92 
   852.8     0.4          0.30E-2   0.05 E-2                      41410002   93 
   921.48    0.05         1.68E-2   0.10 E-2  1193.               41410002   94 
   933.0     1.0          0.24E-2   0.04 E-2                      41410002   95 
   940.6     0.3          0.34E-2   0.05 E-2                      41410002   96 
   955.34    0.13         0.53E-2   0.05 E-2                      41410002   97 
   976.6     0.3          0.45E-2   0.05 E-2  1541.               41410002   98 
   988.8     0.3          0.19E-2   0.04 E-2  1261.               41410002   99 
   1006.11   0.04         3.53E-2   0.18 E-2  1088.               41410002  100 
   1011.35   0.04         6.4 E-2   0.3  E-2  1283.               41410002  101 
   1049.966  0.020       19.5 E-2   1.0  E-2  1139.               41410002  102 
   1064.55   0.07         1.42E-2   0.09 E-2  1336.               41410002  103 
   1069.223  0.020       24.6 E-2   1.2  E-2  1341.               41410002  104 
   1076.4    0.4          0.14E-2   0.05 E-2                      41410002  105 
   1080.3    0.2          0.32E-2   0.05 E-2                      41410002  106 
   1088.245  0.020       16.1 E-2   0.8  E-2  1088.               41410002  107 
   1093.84   0.19         0.29E-2   0.05 E-2                      41410002  108 
   1111.15   0.020       16.6 E-2   0.8  E-2  1193.               41410002  109 
   1117.44   0.020       11.2 E-2   0.6  E-2  1200.               41410002  110 
   1125.5    0.3          0.10E-2   0.03 E-2                      41410002  111 
   1133.2    0.2          0.06E-2   0.03 E-2                      41410002  112 
   1137.77   0.11         0.79E-2   0.06 E-2  1410.               41410002  113 
   1163.65   0.04         2.45E-2   0.13 E-2  1436.               41410002  114 
   1172.5    0.3          0.13E-2   0.04 E-2                      41410002  115 
   1178.759  0.020       71.1 E-2   0.4  E-2  1261.               41410002  116 
   1194.3    0.3          0.09E-2   0.03 E-2                      41410002  117 
   1199.50   0.08         1.36E-2   0.08 E-2  1200.               41410002  118 
   1208.7    0.5          0.11E-2   0.03 E-2                      41410002  119 
   1219.7    1.0          0.10E-2   0.03 E-2  1491.               41410002  120 
   1226.91   0.14         0.77E-2   0.05 E-2  1499.               41410002  121 
   1232.1    0.6          0.11E-2   0.04 E-2                      41410002  122 
   1236.4    0.8          0.10E-2   0.04 E-2                      41410002  123 
   1254.235  0.020        6.4 E-2   0.3  E-2  1336.        1.     41410002  124 
   1258.95   0.04         2.92E-2   0.15 E-2  1341.               41410002  125 
   1260.87   0.023        6.3 E-2   0.3  E-2  1261.               41410002  126 
   1269.0    1.0          0.11E-2   0.05 E-2  1541.               41410002  127 
   1273.0    1.0          0.11E-2   0.05 E-2                      41410002  128 
   1286.49   0.06         1.33E-2   0.08 E-2  1558.               41410002  129 
   1298.6    1.5          0.18E-2   0.05 E-2                      41410002  130 
   1303.34   0.26         0.32E-2   0.05 E-2  1575.               41410002  131 
   1319.8    0.5          0.20E-2   0.05 E-2                      41410002  132 
   1332.5    0.3          0.19E-2   0.04 E-2                      41410002  133 
   1338.11   0.06         1.69E-2   0.10 E-2  1610.               41410002  134 
   1349.45   0.15         0.76E-2   0.06 E-2  1432.               41410002  135 
   1353.36   0.08         1.60E-2   0.09 E-2  1436.               41410002  136 
   1358.1    0.4          0.17E-2   0.05 E-2  1630.               41410002  137 
   1382.8    0.4          0.11E-2   0.03 E-2                      41410002  138 
   1392.40   0.19         0.48E-2   0.05 E-2                      41410002  139 
   1399.4    0.5          0.25E-2   0.04 E-2                      41410002  140 
   1430.7    0.3          0.50E-2   0.04 E-2               1.     41410002  141 
   1436.79   0.06         1.74E-2   0.10 E-2  1519.               41410002  142 
   1493.12   0.11         0.58E-2   0.05 E-2  1575.               41410002  143 
   1499.0    0.5          0.11E-2   0.05 E-2                      41410002  144 
   1501.5    0.2          0.30E-2   0.05 E-2                      41410002  145 
   1507.2    0.4          0.11E-2   0.04 E-2                      41410002  146 
   1527.83   0.06         1.84E-2   0.10 E-2  1610.               41410002  147 
   1543.88   0.12         0.85E-2   0.06 E-2                      41410002  148 
   1559.9    0.4          0.13E-2   0.04 E-2                      41410002  149 
   1570.05   0.10         0.75E-2   0.06 E-2                      41410002  150 
   1581.8    0.4          0.21E-2   0.04 E-2                      41410002  151 
   1589.39   0.17         0.55E-2   0.05 E-2  1671.               41410002  152 
   1610.04   0.22         0.54E-2   0.05 E-2  1610.               41410002  153 
   1669.6    0.2          0.42E-2   0.05 E-2                      41410002  154 
   1690.5    0.3          0.14E-2   0.03 E-2                      41410002  155 
   1696.32   0.11         0.66E-2   0.05 E-2                      41410002  156 
   1732.5    0.8          0.19E-2   0.05 E-2               1.     41410002  157 
   1737.1    0.3          0.44E-2   0.05 E-2  1819.               41410002  158 
   1759.90   0.16         0.57E-2   0.05 E-2                      41410002  159 
   1764.8    0.5          0.09E-2   0.03 E-2                      41410002  160 
   1785.80   0.10         1.17E-2   0.07 E-2  1867.               41410002  161 
   1819.23   0.13         0.90E-2   0.07 E-2  1819.               41410002  162 
   1823.3    0.4          0.33E-2   0.05 E-2               1.     41410002  163 
   1859.3    0.2          0.51E-2   0.05 E-2                      41410002  164 
   1861.7    1.1          0.11E-2   0.05 E-2                      41410002  165 
   1867.2    0.7          0.18E-2   0.05 E-2  1867.               41410002  166 
   1898.3    0.3          0.40E-2   0.05 E-2  2170.        3.     41410002  167 
   1932.6    0.5          0.1 E-2   0.03 E-2                      41410002  168 
   1937.4    0.2          0.68E-2   0.05 E-2                      41410002  169 
   1938.8    0.7          0.13E-2   0.05 E-2                      41410002  170 
   1945.3    0.2          0.59E-2   0.05 E-2  2027.        3.     41410002  171 
   1973.3    0.2          0.20E-2   0.05 E-2  2245.        3.     41410002  172 
   2012.9    0.3          0.34E-2   0.05 E-2  2095.        3.     41410002  173 
   2018.8    0.8          0.11E-2   0.04 E-2                      41410002  174 
   2027.0    0.3          0.39E-2   0.05 E-2  2027.               41410002  175 
   2036.5    0.4          0.23E-2   0.04 E-2                      41410002  176 
   2056.7    0.3          0.47E-2   0.05 E-2  2139.               41410002  177 
   2080.6    0.3          0.44E-2   0.05 E-2                      41410002  178 
   2085.0    0.5          0.19E-2   0.04 E-2                      41410002  179 
   2088.2    1.2          0.10E-2   0.05 E-2  2170.        2.     41410002  180 
   2094.5    0.5          0.12E-2   0.03 E-2  2095.        2.     41410002  181 
   2117.8    0.6          0.40E-2   0.16 E-2               1.     41410002  182 
   2122.4    0.5          0.60E-2   0.03 E-2  2394.        3.     41410002  183 
   2137.2    0.2          0.55E-2   0.05 E-2                      41410002  184 
   2163.1    0.2          0.31E-2   0.04 E-2  2245.        2.     41410002  185 
   2183.5    0.3          0.13E-2   0.03 E-2                      41410002  186 
   2201.5    0.4          0.26E-2   0.04 E-2                      41410002  187 
   2217.2    0.3          0.12E-2   0.03 E-2                      41410002  188 
   2251.0    0.4          0.50E-2   0.05 E-2                      41410002  189 
   2253.8    0.08         0.26E-2   0.05 E-2                      41410002  190 
   2258.5    0.8          0.28E-2   0.05 E-2  2530.               41410002  191 
   2281.1    0.4          0.52E-2   0.06 E-2                      41410002  192 
   2298.3    0.3          0.41E-2   0.05 E-2  2570.        2.     41410002  193 
   2311.3    0.7          0.25E-2   0.05 E-2  2394.        3.     41410002  194 
   2315.0    0.7          0.10E-2   0.05 E-2                      41410002  195 
   2348.7    0.7          0.15E-2   0.06 E-2                      41410002  196 
   2354.4    0.5          0.35E-2   0.05 E-2                      41410002  197 
   2359.9    0.8          0.15E-2   0.06 E-2                      41410002  198 
   2364.5    0.6          0.08E-2   0.05 E-2                      41410002  199 
   2390.9    0.6          0.31E-2   0.05 E-2               1.     41410002  200 
   2411.1    0.4          0.32E-2   0.04 E-2               1.     41410002  201 
   2422.3    0.9          0.25E-2   0.04 E-2                      41410002  202 
   2429.0    0.8          0.18E-2   0.04 E-2                      41410002  203 
   2432.0    0.6          0.42E-2   0.05 E-2  2705.        2.     41410002  204 
   2442.1    0.6          0.38E-2   0.04 E-2                      41410002  205 
   2448.3    0.6          0.30E-2   0.05 E-2  2530.        3.     41410002  206 
   2452.7    0.7          0.25E-2   0.05 E-2                      41410002  207 
   2457.3    1.0          0.15E-2   0.06 E-2                      41410002  208 
   2463.4    0.8          0.15E-2   0.05 E-2                      41410002  209 
   2475.5    0.8          0.10E-2   0.05 E-2                      41410002  210 
   2478.9    0.7          0.21E-2   0.04 E-2               1.     41410002  211 
   2487.9    0.8          0.15E-2   0.05 E-2  2570.        3.     41410002  212 
   2490.5    0.5          0.30E-2   0.04 E-2               1.     41410002  213 
   2505.6    2.2          0.19E-2   0.04 E-2                      41410002  214 
   2566.8    0.5          0.30E-2   0.06 E-2                      41410002  215 
   2622.3    0.5          0.12E-2   0.05 E-2  2705.        1.     41410002  216 
   2644.1    0.6          0.15E-2   0.05 E-2                      41410002  217 
   2661.3    0.6          0.10E-2   0.05 E-2                      41410002  218 
   2667.7    0.4          0.15E-2   0.05 E-2                      41410002  219 
   2694.7    1.7          0.10E-2   0.05 E-2                      41410002  220 
   2704.6    1.3          0.15E-2   0.5  E-2  2705.        3.     41410002  221 
   2866.8    0.6          0.20E-2   0.05 E-2                      41410002  222 
ENDDATA            201          0                                 41410002  223 
ENDSUBENT          222          0                                 4141000299999 
SUBENT        41410003   20250225                             422241410003    1 
BIB                  7         19                                 41410003    2 
REACTION   (70-YB-176(N,INL)70-YB-176,PAR,DA,G,LEG/RS/FIS)        41410003    3 
EN-SEC      LVL-INI,70-YB-176                                     41410003    4 
MONITOR    (70-YB-176(N,INL)70-YB-176,,SPC) At E-gamma=1056.81keV 41410003    5 
            Used to normalize angular distributions, measured at  41410003    6 
            90, 105, 115, 125, 135, 142, 150 deg.                 41410003    7 
            398.9 keV gamma were used to normalize data for       41410003    8 
            natural sample.                                       41410003    9 
MISC-COL   (MISC1)   Spin of the initial level                    41410003   10 
           (MISC2)   Parity of the initial level                  41410003   11 
           (MISC3)   Spin of the final level                      41410003   12 
           (MISC4)   Parity of the final level                    41410003   13 
ERR-ANALYS (ERR-S)   Statistical error at 68% confidence level    41410003   14 
           (E-LVL-ERR)   Error in initial level energy            41410003   15 
FLAG       (1.)   Level identified with uncertainty               41410003   16 
           (2.)   Initial level spin and parity known uncertainly 41410003   17 
           (3.)   Initial level spin and parity not given         41410003   18 
           (4.)   Initial level parity not given                  41410003   19 
           (5.)   Initial level parity known uncertainly          41410003   20 
STATUS     (TABLE,,A.M.Demidov+,J,PAN,62,1621,1999) Tables 2,3.   41410003   21 
ENDBIB              19          0                                 41410003   22 
NOCOMMON             0          0                                 41410003   23 
DATA                11         90                                 41410003   24 
E          NUMBER     DATA       ERR-S      LVL-INI    E-LVL-ERR  41410003   25 
MISC1      MISC2      MISC3      MISC4      FLAG                  41410003   26 
KEV        NO-DIM     NO-DIM     NO-DIM     KEV        KEV        41410003   27 
NO-DIM     NO-DIM     NO-DIM     NO-DIM     NO-DIM                41410003   28 
  132.0     2.         -0.39      0.13                            41410003   29 
                                                                  41410003   30 
  132.0     4.         +0.03      0.20                            41410003   31 
                                                                  41410003   32 
  150.44    2.          0.09      0.06      1491.49     0.12      41410003   33 
         5.         1.         4.        -1.         1.           41410003   34 
  150.44    4.          0.15      0.08      1491.49     0.12      41410003   35 
         5.         1.         4.        -1.         1.           41410003   36 
  189.69    2.          0.245     0.016      273.82     0.03      41410003   37 
         4.         1.         2.         1.                      41410003   38 
  189.69    4.         -0.025     0.021      273.82     0.03      41410003   39 
         4.         1.         2.         1.                      41410003   40 
  234.21    2.         -0.18      0.06      1575.26     0.05      41410003   41 
         3.                    4.         1.         2.           41410003   42 
  234.21    4.          0.11      0.07      1575.26     0.05      41410003   43 
         3.                    4.         1.         2.           41410003   44 
  238.32    2.         -0.25      0.05      1431.70     0.10      41410003   45 
         2.        -1.         3.        -1.                      41410003   46 
  238.32    4.          0.05      0.07      1431.70     0.10      41410003   47 
         2.        -1.         3.        -1.                      41410003   48 
  239.80    2.         -0.20      0.09      1671.47     0.06      41410003   49 
         3.                    2.        -1.         4.           41410003   50 
  239.80    4.          0.01      0.12      1671.47     0.06      41410003   51 
         3.                    2.        -1.         4.           41410003   52 
  288.93    2.          0.19      0.04      1630.00     0.06      41410003   53 
                               2.         1.         3.           41410003   54 
  288.93    4.         -0.04      0.08      1630.00     0.06      41410003   55 
                               2.         1.         3.           41410003   56 
  292.25    2.          0.315     0.035      564.07     0.04      41410003   57 
         6.         1.         4.         1.                      41410003   58 
  292.25    4.         -0.05      0.05       564.07     0.04      41410003   59 
         6.         1.         4.         1.                      41410003   60 
  299.60    2.          0.23      0.05      1431.70     0.10      41410003   61 
         2.        -1.         2.        -1.                      41410003   62 
  299.60    4.          0.01      0.07      1431.70     0.10      41410003   63 
         2.        -1.         2.        -1.                      41410003   64 
  330.42    2.          0.04      0.06      1671.47     0.06      41410003   65 
         3.                    4.         1.         4.           41410003   66 
  330.42    4.          0.05      0.09      1671.47     0.06      41410003   67 
         3.                    4.         1.         4.           41410003   68 
  343.60    2.         -0.285     0.016     1431.70     0.10      41410003   69 
         2.        -1.         1.        -1.                      41410003   70 
  343.60    4.          0.025     0.023     1431.70     0.10      41410003   71 
         2.        -1.         1.        -1.                      41410003   72 
  395.27    2.          0.12      0.02      1588.55     0.09      41410003   73 
         4.        -1.         3.        -1.                      41410003   74 
  395.27    4.          0.0                 1588.55     0.09      41410003   75 
         4.        -1.         3.        -1.                      41410003   76 
  410.54    2.          0.28      0.03      1498.70     0.05      41410003   77 
         3.        -1.         1.        -1.                      41410003   78 
  410.54    4.          0.0                 1498.70     0.05      41410003   79 
         3.        -1.         1.        -1.                      41410003   80 
  457.02    2.          0.08      0.03      1798.07     0.04      41410003   81 
         1.         1.         4.         1.         3.           41410003   82 
  457.02    4.          0.04      0.04      1798.07     0.04      41410003   83 
         1.         1.         4.         1.         3.           41410003   84 
  921.480   2.         -0.11      0.05      1193.28     0.02      41410003   85 
         3.        -1.         4.         1.                      41410003   86 
  921.480   4.         -0.04      0.06      1193.28     0.02      41410003   87 
         3.        -1.         4.         1.                      41410003   88 
 1006.11    2.         -0.017     0.038     1088.247    0.020     41410003   89 
         1.        -1.         2.         1.                      41410003   90 
 1006.11    4.          0.02      0.06      1088.247    0.020     41410003   91 
         1.        -1.         2.         1.                      41410003   92 
 1011.359   2.          0.29      0.03      1283.15     0.04      41410003   93 
         4.        -1.         4.         1.                      41410003   94 
 1011.359   4.         -0.07      0.04      1283.15     0.04      41410003   95 
         4.        -1.         4.         1.                      41410003   96 
 1049.966   2.          0.173     0.015     1132.09     0.03      41410003   97 
         2.        -1.         2.         1.                      41410003   98 
 1049.966   4.          0.029     0.021     1132.09     0.03      41410003   99 
         2.        -1.         2.         1.                      41410003  100 
 1056.81    2.          0.0                 1138.93     0.03      41410003  101 
         0.         1.         2.         1.                      41410003  102 
 1056.81    4.          0.0                 1138.93     0.03      41410003  103 
         0.         1.         2.         1.                      41410003  104 
 1064.55    2.         -0.036     0.043     1336.35     0.03      41410003  105 
         3.         1.         4.         1.                      41410003  106 
 1064.55    4.          0.05      0.06      1336.35     0.03      41410003  107 
         3.         1.         4.         1.                      41410003  108 
 1069.223   2.          0.145     0.019     1341.05     0.02      41410003  109 
         4.         1.         4.         1.                      41410003  110 
 1069.223   4.         -0.006     0.027     1341.05     0.02      41410003  111 
         4.         1.         4.         1.                      41410003  112 
 1088.245   2.         -0.100     0.014     1088.247    0.020     41410003  113 
         1.        -1.         0.         1.                      41410003  114 
 1088.245   4.         -0.010     0.020     1088.247    0.020     41410003  115 
         1.        -1.         0.         1.                      41410003  116 
 1111.150   2.         -0.207     0.013     1193.28     0.02      41410003  117 
         3.        -1.         2.         1.                      41410003  118 
 1111.150   4.         -0.016     0.020     1193.28     0.02      41410003  119 
         3.        -1.         2.         1.                      41410003  120 
 1117.440   2.          0.002     0.018     1199.57     0.02      41410003  121 
         2.         1.         2.         1.                      41410003  122 
 1117.440   4.         -0.003     0.026     1199.57     0.02      41410003  123 
         2.         1.         2.         1.                      41410003  124 
 1163.65    2.         -0.20      0.03      1435.47     0.04      41410003  125 
         4.         1.         4.         1.                      41410003  126 
 1163.65    4.         -0.08      0.04      1435.47     0.04      41410003  127 
         4.         1.         4.         1.                      41410003  128 
 1178.759   2.         -0.047     0.018     1260.88     0.02      41410003  129 
         2.         1.         2.         1.                      41410003  130 
 1178.759   4.         -0.006     0.026     1260.88     0.02      41410003  131 
         2.         1.         2.         1.                      41410003  132 
 1199.580   2.          0.19      0.05      1199.57     0.02      41410003  133 
         2.         1.         0.         1.                      41410003  134 
 1199.580   4.         -0.13      0.07      1199.57     0.02      41410003  135 
         2.         1.         0.         1.                      41410003  136 
 1226.91    2.         -0.04      0.06      1498.70     0.05      41410003  137 
         3.        -1.         4.         1.                      41410003  138 
 1226.91    4.         -0.03      0.07      1498.70     0.05      41410003  139 
         3.        -1.         4.         1.                      41410003  140 
 1254.235   2.          0.076     0.015     1336.35     0.03      41410003  141 
         3.         1.         2.         1.                      41410003  142 
 1254.235   4.          0.112     0.026     1336.35     0.03      41410003  143 
         3.         1.         2.         1.                      41410003  144 
 1258.95    2.          0.28      0.06      1341.05     0.02      41410003  145 
         4.         1.         2.         1.                      41410003  146 
 1258.95    4.         -0.03      0.08      1341.05     0.02      41410003  147 
         4.         1.         2.         1.                      41410003  148 
 1260.875   2.          0.282     0.020     1260.88     0.02      41410003  149 
         2.         1.         0.         1.                      41410003  150 
 1260.875   4.         -0.077     0.027     1260.88     0.02      41410003  151 
         2.         1.         0.         1.                      41410003  152 
 1286.49    2.         -0.01      0.04      1558.31     0.03      41410003  153 
         5.         1.         4.         1.                      41410003  154 
 1286.49    4.          0.15      0.06      1558.31     0.03      41410003  155 
         5.         1.         4.         1.                      41410003  156 
 1338.11    2.          0.12      0.03      1609.95     0.06      41410003  157 
         2.         1.         4.         1.                      41410003  158 
 1338.11    4.          0.01      0.05      1609.95     0.06      41410003  159 
         2.         1.         4.         1.                      41410003  160 
 1349.75    2.          0.34      0.08      1431.70     0.10      41410003  161 
         2.        -1.         2.         1.                      41410003  162 
 1349.75    4.          0.04      0.10      1431.70     0.10      41410003  163 
         2.        -1.         2.         1.                      41410003  164 
 1353.36    2.          0.29      0.05      1435.47     0.04      41410003  165 
         4.         1.         2.         1.                      41410003  166 
 1353.36    4.         -0.13      0.06      1435.47     0.04      41410003  167 
         4.         1.         2.         1.                      41410003  168 
 1392.40    2.         -0.26      0.09                            41410003  169 
                                                                  41410003  170 
 1392.40    4.          0.0                                       41410003  171 
                                                                  41410003  172 
 1436.79    2.          0.03      0.03      1518.92     0.06      41410003  173 
         0.         1.         2.         1.                      41410003  174 
 1436.79    4.          0.0       0.05      1518.92     0.06      41410003  175 
         0.         1.         2.         1.                      41410003  176 
 1527.83    2.         -0.20      0.03      1609.95     0.06      41410003  177 
         2.         1.         2.         1.                      41410003  178 
 1527.83    4.          0.05      0.05      1609.95     0.06      41410003  179 
         2.         1.         2.         1.                      41410003  180 
 1543.88    2.         +0.08      0.05                            41410003  181 
                                                                  41410003  182 
 1543.88    4.         +0.25      0.08                            41410003  183 
                                                                  41410003  184 
 1570.05    2.         +0.12      0.07                            41410003  185 
                                                                  41410003  186 
 1570.05    4.         +0.15      0.09                            41410003  187 
                                                                  41410003  188 
 1669.6     2.         -0.11      0.09                            41410003  189 
                                                                  41410003  190 
 1669.6     4.          0.0                                       41410003  191 
                                                                  41410003  192 
 1696.32    2.         +0.03      0.08                            41410003  193 
                                                                  41410003  194 
 1696.32    4.          0.0                                       41410003  195 
                                                                  41410003  196 
 1785.80    2.          0.19      0.08      1867.93     0.10      41410003  197 
         2.         1.         0.         1.         2.           41410003  198 
 1785.80    4.         -0.01      0.11      1867.93     0.10      41410003  199 
         2.         1.         0.         1.         2.           41410003  200 
 1819.23    2.         -0.10      0.06      1819.23     0.13      41410003  201 
         1.         1.         0.         1.         5.           41410003  202 
 1819.23    4.          0.0                 1819.23     0.13      41410003  203 
         1.         1.         0.         1.         5.           41410003  204 
 1937.4     2.         -0.14      0.05                            41410003  205 
                                                                  41410003  206 
 1937.4     4.          0.0                                       41410003  207 
                                                                  41410003  208 
ENDDATA            184          0                                 41410003  209 
ENDSUBENT          208          0                                 4141000399999 
ENDENTRY             3          0                                 4141099999999 
