ENTRY            41479   20080911                             41444147900000001 
SUBENT        41479001   20080911                             41444147900100001 
BIB                 10         24                                 4147900100002 
TITLE       Nuclear Structure of W-183 Studied in (n,gamma),      4147900100003 
            (n,n'gamma) and (d,p) reactions                       4147900100004 
AUTHOR     (P.Prokofjevs, L.Simonova, J.Berzins, V.Bondarenko,    4147900100005 
           M.Balodis, A.V.Afanasjev, M.Beitins, M.Kessler,T.Egidy,4147900100006 
           T.Koerbitz, R.Georgii, J.Ott,W.Schauer, V.O.Nesterenko,4147900100007 
           N.A.Bonch-Osmolovskaya)                                4147900100008 
INSTITUTE  (4LATULR) P.Prokofjevs, L.Simonova, J.Berzins,         4147900100009 
                   V.Bondarenko,M.Balodis,A.V.Afanasjev,M.Beitins 4147900100010 
           (2GERMUN) M.Kessler,T.Egidy,T.Koerbitz,R.Georgii,J.Ott,4147900100011 
                     W.Schauer                                    4147900100012 
           (4ZZZDUB)  V.O.Nesterenko,N.A.Bonch-Osmolovskaya       4147900100013 
REFERENCE  (J,NP/A,614,183,1997)  Main  Ref.                      4147900100014 
           (C,93FRIBOU,,441,1993)                                 4147900100015 
FACILITY   (REAC,4LATULR) IRT Reactor of Nuclear Research Centerof4147900100016 
           Latvian Academy of Science.                            4147900100017 
INC-SOURCE (REAC)                                                 4147900100018 
METHOD     (GSPEC)                                                4147900100019 
ADD-RES      Levels Scheme of W-183.                              4147900100020 
             Neutron binding energy of W-183 was determined to be 4147900100021 
             6190.76 +-0.12 keV.                                  4147900100022 
STATUS     (COREL,O1500001) Data measured at Munich University for4147900100023 
                      (d,p) reaction, presented in Main Reference.4147900100024 
HISTORY    (20061012C)  Compiled At CJD.  M.M.                    4147900100025 
           (20080911U) 2-nd reference was added.                  4147900100026 
ENDBIB              24          0                                 4147900100027 
NOCOMMON             0          0                                 4147900100028 
ENDSUBENT           27          0                                 4147900199999 
SUBENT        41479002   20060830                             41394147900200001 
BIB                  9         36                                 4147900200002 
REACTION   (74-W-183(N,INL)74-W-183,,SPC,,REL)                    4147900200003 
            Relative gamma-transition Intensity in Relative Units,4147900200004 
            Assuming the Intensity of 291.7 keV gamma-line Equal  4147900200005 
            to 100.                                               4147900200006 
INC-SPECT   Fast neutron beam transmitted through 10mm thick layer4147900200007 
            of thermal neutron absorber B-10 (enriched to 85%).   4147900200008 
            Fast neutron (En > 0.8MeV) flux at target-            4147900200009 
            2.E+7 n/cm2/sec.                                      4147900200010 
SAMPLE        8 g W-183 metallic powder, enrichment 96.3%.        4147900200011 
DETECTOR   (GE  )Ge-detector of resolution 1.9 keV at 1.3 MeV.    4147900200012 
EN-SEC     (E,G) Gamma Energy                                     4147900200013 
           (LVL-INI,74-W-183) Initial Level Energy                4147900200014 
           (LVL-FIN,74-W-183) Final Level Energy                  4147900200015 
REL-REF    (R,,U.GRUBER+,J,ZN/A,20,929,1965)                      4147900200016 
           (R,,G.J.LAMPARD+,J,NP/A,536,397,1992)                  4147900200017 
ERR-ANALYS (DATA-ERR) Not Specified                               4147900200018 
           (LVL-INI-ER) Error of Initial Level Energy             4147900200019 
FLAG       (1.) Adopted Level Energy from beta-decay data of Fist 4147900200020 
                 REL-REF.                                         4147900200021 
           (2.) Calculated Intensity value.                       4147900200022 
           (3.) Gamma Energy value from Coulomb excitation data   4147900200023 
                of second REL-REF.                                4147900200024 
           (4.) Gamma Energy from beta-decay data of Fist REL-REF 4147900200025 
           (5.) Adopted Level Energy from beta-decay data of Fist 4147900200026 
                REL-REF. Calculated Intensity value.              4147900200027 
           (6.) Gamma Energy value from Coulomb excitation data.  4147900200028 
                of second REL-REF.  Calculated Intensity value.   4147900200029 
           (7.) Adopted Level Energy and Gamma Energy from        4147900200030 
                beta-decay data of Fist REL-REF.                  4147900200031 
                Calculated Intensity value.                       4147900200032 
           (8.) Multiplet. Calculated Intensity value.            4147900200033 
           (9.) Gamma Energy from beta-decay data of Fist REL-REF 4147900200034 
                Calculated Intensity value.                       4147900200035 
           (10.) Adopted Level Energy and Gamma Energy from       4147900200036 
                 beta-decay data of Fist REL-REF.                 4147900200037 
STATUS       From Table 2 of Main  Ref.                           4147900200038 
ENDBIB              36          0                                 4147900200039 
COMMON               1          3                                 4147900200040 
EN-MIN                                                            4147900200041 
MEV                                                               4147900200042 
0.8                                                               4147900200043 
ENDCOMMON            3          0                                 4147900200044 
DATA                 9         85                                 4147900200045 
E          E-ERR      DATA       DATA-MAX   DATA-ERR   LVL-INI    4147900200046 
LVL-INI-ER LVL-FIN    FLAG                                        4147900200047 
KEV        KEV        ARB-UNITS  ARB-UNITS  ARB-UNITS  KEV        4147900200048 
KEV        KEV        NO-DIM                                      4147900200049 
   40.976  0.001         1.9                             453.0708 4147900200050 
   0.0006    412.1     7.                                         4147900200051 
   46.68   0.21        230.                   50.         46.4839 4147900200052 
   0.0004       0.     1.                                         4147900200053 
   52.73   0.10        153.                   30.         99.0753 4147900200054 
   0.0004     46.5     1.                                         4147900200055 
   82.80   0.17         10.                              291.7240 4147900200056 
   0.0005    208.8     5.                                         4147900200057 
   84.7125 0.0005       36.                              291.7240 4147900200058 
   0.0005    207.0     7.                                         4147900200059 
   99.09   0.01        186.                   40.         99.0753 4147900200060 
   0.0004       0.     1.                                         4147900200061 
  102.10   0.09         10.5                             308.9455 4147900200062 
   0.0008    207.0     5.                                         4147900200063 
  102.481  0.003         3.7                             309.493  4147900200064 
   0.003     207.0     7.                                         4147900200065 
  103.06   0.12          9.8                             412.0953 4147900200066 
   0.0006    308.9     5.                                         4147900200067 
  107.93   0.01        280.                   30.        207.011  4147900200068 
   0.005      99.1     1.                                         4147900200069 
  109.74   0.01         43.                    6.        208.8058 4147900200070 
   0.0006     99.1                                                4147900200071 
  120.372  0.003         2.3                             412.0953 4147900200072 
   0.0006    291.7     7.                                         4147900200073 
  142.22   0.03         16.                              595.340  4147900200074 
   0.004     453.1     5.                                         4147900200075 
  144.16   0.04          9.0                   1.9       453.0708 4147900200076 
   0.0006    308.9     5.                                         4147900200077 
  153.98   0.10          6.1                   1.7       776.78   4147900200078 
   0.08      622.8                                                4147900200079 
  155.8                  0.17                            630.81   4147900200080 
   0.21      475.2     6.                                         4147900200081 
  160.39   0.04         77.                    7.        207.011  4147900200082 
   0.005      46.5     1.                                         4147900200083 
  161.17   0.05         33.                              453.0708 4147900200084 
   0.0006    291.7     5.                                         4147900200085 
  162.32   0.01        334.                   26.        208.8058 4147900200086 
   0.0006     46.5                                                4147900200087 
  166.28   0.03         20.                              475.21   4147900200088 
   0.02      308.9     2.                                         4147900200089 
  192.63   0.06          9.3                   2.0       291.7240 4147900200090 
   0.0005     99.1     1.                                         4147900200091 
  203.26   0.02         14.                    2.        412.0953 4147900200092 
   0.0006    208.8     1.                                         4147900200093 
  204.09   0.01         32.                    3.        412.0953 4147900200094 
   0.0006    207.0     1.                                         4147900200095 
  208.81   0.01         42.                    4.        208.8058 4147900200096 
   0.0006      0.      1.                                         4147900200097 
  209.88   0.01        169.                   12.        308.9455 4147900200098 
   0.0008     99.1     1.                                         4147900200099 
  244.26   0.02         34.                    2.        453.0708 4147900200100 
   0.0006    208.8     1.                                         4147900200101 
  245.13   0.07         11.                              291.7240 4147900200102 
   0.0005     46.4     5.                                         4147900200103 
  246.06   0.02        100.                    3.        453.0708 4147900200104 
   0.0006    207.0     1.                                         4147900200105 
  259.48   0.04         23.                    1.        551.22   4147900200106 
   0.03      291.7                                                4147900200107 
  264.81   0.12          2.7                   0.6       739.98   4147900200108 
   0.07      475.3                                                4147900200109 
  268.18   0.03         26.                    1.        475.21   4147900200110 
   0.02      207.0                                                4147900200111 
  286.39                             2.                  595.340  4147900200112 
   0.004     308.9     10.                                        4147900200113 
  291.68   0.04        100.                    4.        291.7240 4147900200114 
   0.0005      0.      1.                                         4147900200115 
  313.0149 0.0005       93.                              412.0953 4147900200116 
   0.0006     99.1     7.                                         4147900200117 
  313.27   0.03         30.                              622.77   4147900200118 
   0.03      309.5     9.                                         4147900200119 
  320.97   0.08          1.8                            1470.81   4147900200120 
   0.04     1149.8     2.                                         4147900200121 
  321.86   0.21         14.                    4.        630.81   4147900200122 
   0.21      308.9                                                4147900200123 
  323.96   0.27         13.0                             777.03   4147900200124 
   0.27      453.1                                                4147900200125 
  327.77   0.09          8.                    2.        739.98   4147900200126 
   0.07      412.1                                                4147900200127 
  344.16   0.05         12.                    2.        551.22   4147900200128 
   0.03      207.0                                                4147900200129 
  353.88   0.10         39.                    1.        453.0708 4147900200130 
   0.0006     99.1     1.                                         4147900200131 
  365.56   0.08         13.8                   2.8       412.0953 4147900200132 
   0.0006     46.5     1.                                         4147900200133 
  400.86   0.25          1.2                            1550.55   4147900200134 
   0.11     1149.8     2.                                         4147900200135 
  404.60   0.18          7.0                   2.1       999.55   4147900200136 
   0.09      595.3                                                4147900200137 
  406.55   0.27          1.8                             453.0708 4147900200138 
   0.0006     46.5     5.                                         4147900200139 
  406.6    0.8           1.5                            1309.63   4147900200140 
   0.06      903.6     2.                                         4147900200141 
  431.05   0.05         14.                              739.98   4147900200142 
   0.07      308.9                                                4147900200143 
  452.18   0.14         13.                    1.        551.22   4147900200144 
   0.03       99.1                                                4147900200145 
  467.35   0.14          4.9                   2.7       776.78   4147900200146 
   0.08      309.5                                                4147900200147 
  474.67   0.15          4.0                   1.2      1069.47   4147900200148 
   0.09      595.3                                                4147900200149 
  491.9    0.5           0.9                             903.61   4147900200150 
   0.07      412.1     2.                                         4147900200151 
  587.49   0.09          6.7                   1.3       999.55   4147900200152 
   0.09      412.1                                                4147900200153 
  611.61   0.06         11.8                   2.5       903.61   4147900200154 
   0.07      291.7                                                4147900200155 
  657.14   0.14          5.8                   2.6      1069.47   4147900200156 
   0.09      412.1                                                4147900200157 
  694.65   0.07         42.                              903.61   4147900200158 
   0.07      208.8     2.                                         4147900200159 
  696.71   0.07         26.                             1149.83   4147900200160 
   0.05      453.1     2.                                         4147900200161 
  707.74   0.07         16.                    4.        999.55   4147900200162 
   0.09      291.7                                                4147900200163 
  777.77   0.09         18.                    4.       1069.47   4147900200164 
   0.09      291.7                                                4147900200165 
  802.2    0.1          14.                    3.       1214.9    4147900200166 
   0.4       412.1                                                4147900200167 
  804.48   0.09          3.3                             903.61   4147900200168 
   0.07       99.1     2.                                         4147900200169 
  817.59   0.05          5.0                            1026.36   4147900200170 
   0.02      208.8     2.                                         4147900200171 
  846.34   0.06         26.                             1053.35   4147900200172 
   0.06      207.0     2.                                         4147900200173 
  888.07   0.03         52.                    5.        934.54   4147900200174 
   0.03       46.5                                                4147900200175 
  923.2    0.4           3.9                   1.9      1214.9    4147900200176 
   0.4       291.7                                                4147900200177 
  927.30   0.04          5.0                   2.5      1026.36   4147900200178 
   0.02       99.1                                                4147900200179 
  941.17   0.09         14.                    3.       1149.83   4147900200180 
   0.05      208.8                                                4147900200181 
  953.9    0.5           4.3                            1053.35   4147900200182 
   0.06       99.1     2.                                         4147900200183 
  959.97   0.25          6.6                            1372.45   4147900200184 
   0.27      412.1     2.                                         4147900200185 
  979.87   0.03         25.                    5.       1026.36   4147900200186 
   0.02       46.5                                                4147900200187 
 1026.37   0.03         38.                    4.       1026.36   4147900200188 
   0.02        0.                                                 4147900200189 
 1064.0    0.6           2.6                            1372.45   4147900200190 
   0.27      308.9     2.                                         4147900200191 
 1080.90   0.17          5.7                   1.7      1372.45   4147900200192 
   0.27      291.7                                                4147900200193 
 1100.74                 5.6                            1309.63   4147900200194 
   0.06      208.8     8.                                         4147900200195 
 1149.88   0.17          4.8                   1.4      1149.83   4147900200196 
   0.05        0.                                                 4147900200197 
 1210.80   0.14          3.9                            1309.63   4147900200198 
   0.06       99.1     2.                                         4147900200199 
 1262.55   0.40          1.7                            1309.63   4147900200200 
   0.06       46.5     8.                                         4147900200201 
 1262.55   0.07          3.8                            1470.81   4147900200202 
   0.04      208.8     8.                                         4147900200203 
 1262.55   0.07          2.3                            1555.86   4147900200204 
   0.09      291.7     2.                                         4147900200205 
 1343.5    0.4           3.0                            1550.55   4147900200206 
   0.11      207.0     2.                                         4147900200207 
 1347.60   0.28          1.9                            1555.86   4147900200208 
   0.09      208.8     2.                                         4147900200209 
 1424.26   0.05         11.                    3.       1470.81   4147900200210 
   0.04       46.5                                                4147900200211 
 1470.93   0.11          5.5                            1470.81   4147900200212 
   0.04        0.      2.                                         4147900200213 
 1504.04   0.13          9.1                   2.7      1550.55   4147900200214 
   0.11       46.5                                                4147900200215 
 1510.17   0.06          9.6                   2.9      1555.86   4147900200216 
   0.09       46.5                                                4147900200217 
 1555.69   0.15          6.                    3.       1555.86   4147900200218 
   0.09        0.                                                 4147900200219 
ENDDATA            174          0                                 4147900200220 
ENDSUBENT          219          0                                 4147900299999 
SUBENT        41479003   20060804                             41394147900300001 
BIB                  9         29                                 4147900300002 
REACTION   (74-W-182(N,G)74-W-183,,SPC,,REL)                      4147900300003 
           Relative gamma-transition Intensity in Relative Units, 4147900300004 
           Assuming the Intensity of 291.7 keV gamma-line Equal   4147900300005 
           to 100.                                                4147900300006 
REL-REF    (R,,U.GRUBER+,J,ZN/A,20,929,1965)                      4147900300007 
SAMPLE        4.7 g metallic powder of W-182 enriched to 94.5 %.  4147900300008 
INC-SPECT    Thermal neutron beam from tangential experimental    4147900300009 
             channel transmitted through 52 cm thick Si filter.   4147900300010 
            Collimated neutron flux (1x1 cm2) at target -         4147900300011 
            5.E+6 n/cm2/sec.                                      4147900300012 
DETECTOR   (GE  )Ge-detector of resolution 2.0 keV at 1.3 MeV.    4147900300013 
EN-SEC     (E,G)      Gamma Energy                                4147900300014 
           (LVL-INI,74-W-183)  Initial Level Energy               4147900300015 
           (LVL-FIN,74-W-183)  Final Level Energy                 4147900300016 
FLAG       (1.) Adopted Level Energy from beta-decay data of      4147900300017 
                 REL-REF.                                         4147900300018 
           (2.) Calculated Intensity value.                       4147900300019 
           (3.) Adopted Level Energy from beta-decay data of      4147900300020 
                 REL-REF.Calculated Intensity value.              4147900300021 
           (4.) Gamma Energy from beta-decay data of REL-REF.     4147900300022 
           (5.) Adopted Level Energy and Gamma Energy from        4147900300023 
                beta-decay data of REL-REF.                       4147900300024 
                Calculated Intensity value.                       4147900300025 
           (6.) Gamma Energy from beta-decay data of REL-REF.     4147900300026 
                Calculated Intensity value.                       4147900300027 
           (7.) Multiplet.Calculated Intensity value.             4147900300028 
ERR-ANALYS (DATA-ERR) Not Specified                               4147900300029 
           (LVL-INI-ER) Error of Initial Level Energy             4147900300030 
STATUS       From Table 2 of Main  Ref.                           4147900300031 
ENDBIB              29          0                                 4147900300032 
COMMON               1          3                                 4147900300033 
EN-DUMMY                                                          4147900300034 
EV                                                                4147900300035 
0.0253                                                            4147900300036 
ENDCOMMON            3          0                                 4147900300037 
DATA                 8         83                                 4147900300038 
E          E-ERR      DATA       DATA-ERR   LVL-INI    LVL-INI-ERR4147900300039 
LVL-FIN    FLAG                                                   4147900300040 
KEV        KEV        ARB-UNITS  ARB-UNITS  KEV        KEV        4147900300041 
KEV        NO-DIM                                                 4147900300042 
  40.976    0.001        0.96                 453.0708    0.0006  4147900300043 
   412.1      5.                                                  4147900300044 
  46.68     0.21       460.                    46.4839    0.0004  4147900300045 
      0.      3.                                                  4147900300046 
  52.73     0.10       306.                    99.0753    0.0004  4147900300047 
    46.5      3.                                                  4147900300048 
  82.80     0.17        10.                   291.7240    0.0005  4147900300049 
   208.8      3.                                                  4147900300050 
  84.7125   0.0005      36.                   291.7240    0.0005  4147900300051 
   207.0      5.                                                  4147900300052 
  99.09     0.01       361.       19.          99.0753    0.0004  4147900300053 
      0.      1.                                                  4147900300054 
 102.10     0.09         2.4                  308.9455    0.0008  4147900300055 
   207.0      3.                                                  4147900300056 
 103.06     0.12         6.1                  412.0953    0.0006  4147900300057 
   308.9      3.                                                  4147900300058 
 107.93     0.01       341.       18.         207.011     0.005   4147900300059 
    99.1      1.                                                  4147900300060 
 109.74     0.01        54.                   208.8058    0.0006  4147900300061 
    99.1      3.                                                  4147900300062 
 120.372    0.003        1.4                  412.0953    0.0006  4147900300063 
   291.7      5.                                                  4147900300064 
 142.22     0.03         2.3                  595.340     0.004   4147900300065 
   453.1      3.                                                  4147900300066 
 144.16     0.04         4.5                  453.0708    0.0006  4147900300067 
   308.9      3.                                                  4147900300068 
 160.39     0.04        73.       12.         207.011     0.005   4147900300069 
    46.5      1.                                                  4147900300070 
 161.17     0.05        17.                   453.0708    0.0006  4147900300071 
   291.7      3.                                                  4147900300072 
 162.32     0.01       443.                   208.8058    0.0006  4147900300073 
    46.5      3.                                                  4147900300074 
 166.28     0.03         1.2                  475.21      0.02    4147900300075 
   308.9      2.                                                  4147900300076 
 192.63     0.06        10.        1.         291.7240    0.0005  4147900300077 
    99.1      1.                                                  4147900300078 
 203.26     0.02         8.4       0.8        412.0953    0.0006  4147900300079 
   208.8      1.                                                  4147900300080 
 204.09     0.01        20.        2.         412.0953    0.0006  4147900300081 
   207.0      1.                                                  4147900300082 
 208.81     0.01        54.        3.         208.8058    0.0006  4147900300083 
     0.       1.                                                  4147900300084 
 209.88     0.01        32.        2.         308.9455    0.0008  4147900300085 
    99.1      1.                                                  4147900300086 
 244.26     0.02        17.        1.         453.0708    0.0006  4147900300087 
   208.8      1.                                                  4147900300088 
 245.13     0.07         9.        1.         291.7240    0.0005  4147900300089 
    46.4      1.                                                  4147900300090 
 246.06     0.02        54.        3.         453.0708    0.0006  4147900300091 
   207.0      1.                                                  4147900300092 
 259.48     0.04         3.2       0.5        551.22      0.03    4147900300093 
   291.7                                                          4147900300094 
 268.18     0.03         1.5       0.3        475.21      0.02    4147900300095 
   207.0                                                          4147900300096 
 291.68     0.04       100.        5.         291.7240    0.0005  4147900300097 
     0.       1.                                                  4147900300098 
 313.0149   0.0005      64.                   412.0953    0.0006  4147900300099 
    99.1      5.                                                  4147900300100 
 313.27     0.03         4.3                  622.77      0.03    4147900300101 
   309.5      6.                                                  4147900300102 
 320.97     0.08         7.4       0.5       1470.81      0.04    4147900300103 
  1149.8                                                          4147900300104 
 325.3      0.03         0.7       0.3       1229.25      0.06    4147900300105 
   903.6                                                          4147900300106 
 326.55     0.08         2.2       0.4       1555.86      0.09    4147900300107 
  1229.3                                                          4147900300108 
 344.16     0.05         1.3       0.4        551.22      0.03    4147900300109 
   207.0                                                          4147900300110 
 353.88     0.10        17.        1.         453.0708    0.0006  4147900300111 
    99.1      1.                                                  4147900300112 
 365.56     0.08         9.5       0.6        412.0953    0.0006  4147900300113 
    46.5      1.                                                  4147900300114 
 400.86     0.25         2.9       0.3       1550.55      0.11    4147900300115 
  1149.8                                                          4147900300116 
 404.60     0.18         2.5                  999.55      0.09    4147900300117 
   595.3      2.                                                  4147900300118 
 406.55     0.27         0.8                  453.0708    0.0006  4147900300119 
    46.5      3.                                                  4147900300120 
 406.6      0.8          3.0                 1309.63      0.06    4147900300121 
   903.6      2.                                                  4147900300122 
 452.18     0.14         1.9       0.3        551.22      0.03    4147900300123 
    99.1                                                          4147900300124 
 474.67     0.15         2.1       0.3       1069.47      0.09    4147900300125 
   595.3                                                          4147900300126 
 491.9      0.5          1.1       0.3        903.61      0.07    4147900300127 
   412.1                                                          4147900300128 
 587.49     0.09         2.9       0.4        999.55      0.09    4147900300129 
   412.1                                                          4147900300130 
 611.61     0.06        15.        1.         903.61      0.07    4147900300131 
   291.7                                                          4147900300132 
 633.80     0.07         5.9       0.5       1229.25      0.06    4147900300133 
   595.3                                                          4147900300134 
 640.83     0.10         2.3       0.3       1053.35      0.06    4147900300135 
   412.1                                                          4147900300136 
 642.33     0.16         1.4       0.3        934.54      0.03    4147900300137 
   291.7                                                          4147900300138 
 657.14     0.14         1.5       0.3       1069.47      0.09    4147900300139 
   412.1                                                          4147900300140 
 694.65     0.07        53.        3.         903.61      0.07    4147900300141 
   208.8                                                          4147900300142 
 696.71     0.07        49.        2.        1149.83      0.05    4147900300143 
   453.1                                                          4147900300144 
 707.74     0.07         7.1       0.6        999.55      0.09    4147900300145 
   291.7                                                          4147900300146 
 725.78     0.22         1.2       0.4        934.54      0.03    4147900300147 
   208.8                                                          4147900300148 
 734.79     0.12         2.2       0.5       1026.36      0.02    4147900300149 
   291.7                                                          4147900300150 
 776.25     0.06        10.2                 1229.25      0.06    4147900300151 
   453.1                                                          4147900300152 
 777.77     0.09         4.0       0.4       1069.47      0.09    4147900300153 
   291.7                                                          4147900300154 
 802.2      0.1          2.0       0.3       1214.9       0.4     4147900300155 
   412.1                                                          4147900300156 
 804.48     0.09         4.1       0.5        903.61      0.07    4147900300157 
    99.1                                                          4147900300158 
 817.59     0.05        36.        2.        1026.36      0.02    4147900300159 
   208.8                                                          4147900300160 
 846.34     0.06        36.        2.        1053.35      0.06    4147900300161 
   207.0                                                          4147900300162 
 888.07     0.03       115.        6.         934.54      0.03    4147900300163 
    46.5                                                          4147900300164 
 927.30     0.04        43.        2.        1026.36      0.02    4147900300165 
    99.1                                                          4147900300166 
 937.1      0.4          5.9       1.1       1229.25      0.06    4147900300167 
   291.7                                                          4147900300168 
 941.17     0.09        27.        2.        1149.83      0.05    4147900300169 
   208.8                                                          4147900300170 
 953.9      0.5          6.1       1.6       1053.35      0.06    4147900300171 
    99.1                                                          4147900300172 
 959.97     0.25        12.       29.        1372.45      0.27    4147900300173 
   412.1                                                          4147900300174 
 979.87     0.03       168.        9.        1026.36      0.02    4147900300175 
    46.5                                                          4147900300176 
1026.37     0.03       276.       14.        1026.36      0.02    4147900300177 
     0.                                                           4147900300178 
1064.0      0.6          4.8       1.7       1372.45      0.27    4147900300179 
   308.9                                                          4147900300180 
1080.90     0.17         0.55      0.18      1372.45      0.27    4147900300181 
   291.7                                                          4147900300182 
1100.74                 12.4                 1309.63      0.06    4147900300183 
   208.8      7.                                                  4147900300184 
1149.88     0.17         8.2       1.2       1149.83      0.05    4147900300185 
     0.                                                           4147900300186 
1210.80     0.14         8.7       1.5       1309.63      0.06    4147900300187 
    99.1                                                          4147900300188 
1262.55     0.40         3.7                 1309.63      0.06    4147900300189 
    46.5      7.                                                  4147900300190 
1262.55     0.07        15.8                 1470.81      0.04    4147900300191 
   208.8      7.                                                  4147900300192 
1262.55     0.07        11.5                 1555.86      0.09    4147900300193 
   291.7      7.                                                  4147900300194 
1343.5      0.4          7.5       1.1       1550.55      0.11    4147900300195 
   207.0                                                          4147900300196 
1347.60     0.28         9.5       1.1       1555.86      0.09    4147900300197 
   208.8                                                          4147900300198 
1424.26     0.05        47.        3.        1470.81      0.04    4147900300199 
    46.5                                                          4147900300200 
1470.93     0.11        23.        2.        1470.81      0.04    4147900300201 
     0.                                                           4147900300202 
1504.04     0.13        23.        2.        1550.55      0.11    4147900300203 
    46.5                                                          4147900300204 
1510.17     0.06        51.        3.        1555.86      0.09    4147900300205 
    46.5                                                          4147900300206 
1555.69     0.15        31.        3.        1555.86      0.09    4147900300207 
     0.                                                           4147900300208 
ENDDATA            170          0                                 4147900300209 
ENDSUBENT          208          0                                 4147900399999 
SUBENT        41479004   20060804                             41394147900400001 
BIB                  4          9                                 4147900400002 
REACTION   (74-W-182(N,G)74-W-183,,SPC,,REL)                      4147900400003 
           Relative gamma-transition Intensity in Relative Units. 4147900400004 
EN-SEC     (E,G)      Gamma Energy                                4147900400005 
           (LVL-FIN,74-W-183) Final Level Energy of W-183         4147900400006 
            calculated from neutron binding energy and primary    4147900400007 
            gamma-rays after  thermal neutron capture.            4147900400008 
ERR-ANALYS (DATA-ERR) Not Specified                               4147900400009 
           (LVL-FIN-ER)  Error of Final Level Energy              4147900400010 
STATUS       From Table 3 of Main  Ref.                           4147900400011 
ENDBIB               9          0                                 4147900400012 
COMMON               1          3                                 4147900400013 
EN-DUMMY                                                          4147900400014 
EV                                                                4147900400015 
0.0253                                                            4147900400016 
ENDCOMMON            3          0                                 4147900400017 
DATA                 6         43                                 4147900400018 
E          E-ERR      DATA       DATA-ERR   LVL-FIN    LVL-FIN-ER 4147900400019 
KEV        KEV        ARB-UNITS  ARB-UNITS  KEV        KEV        4147900400020 
 6190.66   0.10       1040.      60.            0.10    0.10      4147900400021 
 6144.23   0.08        379.      21.           46.53    0.08      4147900400022 
 5984.51                 0.44     0.05        208.94    0.25      4147900400023 
 5256.15   0.13         28.       2.          934.61    0.13      4147900400024 
 5164.50   0.05        391.      12.         1026.26    0.05      4147900400025 
 4881.14   0.18         13.       1.         1309.62    0.18      4147900400026 
 4755.9                  0.94     0.14       1437.8     0.3       4147900400027 
 4727.9    0.8           4.1      0.9        1462.9     0.8       4147900400028 
 4719.86   0.08         40.       3.         1470.90    0.08      4147900400029 
 4634.80   0.11         34.       2.         1555.96    0.11      4147900400030 
 4604.8    0.7           7.       3.         1586.0     0.7       4147900400031 
 4578.4    0.7           6.7      2.0        1612.4     0.7       4147900400032 
 4562.87   0.17         60.       5.         1627.89    0.17      4147900400033 
 4557.6    0.8          12.       3.         1633.2     0.8       4147900400034 
 4530.0    0.6           7.1      2.1        1660.8     0.6       4147900400035 
 4518.12   0.06         89.       5.         1672.64    0.07      4147900400036 
 4474.1    0.6           4.1      0.8        1716.7     0.6       4147900400037 
 4467.2    0.6           4.9      0.8        1723.6     0.6       4147900400038 
 4460.60   0.11         29.       2.         1730.16    0.11      4147900400039 
 4454.6    0.7           4.4      0.8        1736.2     0.7       4147900400040 
 4439.5    0.9           2.1      0.7        1751.3     0.9       4147900400041 
 4402.8    0.5           4.4      1.3        1788.0     0.5       4147900400042 
 4379.78   0.06         40.       2.         1810.98    0.07      4147900400043 
 4367.19   0.05         60.       3.         1823.57    0.06      4147900400044 
 4357.3    0.4           5.0      1.1        1833.5     0.4       4147900400045 
 4304.65   0.07         46.       3.         1886.11    0.08      4147900400046 
 4297.4    0.3          10.       1.         1893.4     0.3       4147900400047 
 4289.9    0.3           8.1      0.9        1901.0     0.3       4147900400048 
 4275.6    0.6           4.1      1.1        1915.2     0.6       4147900400049 
 4246.62   0.05         98.       6.         1944.14    0.06      4147900400050 
 4209.5                  0.18     0.03       1983.7     0.3       4147900400051 
 4201.18   0.27          9.2      1.3        1989.58    0.27      4147900400052 
 4162.34   0.21         28.       3.         2028.42    0.21      4147900400053 
 4132.3    0.7          14.       3.         2058.4     0.7       4147900400054 
 4091.91   0.14         17.       2.         2098.85    0.14      4147900400055 
 4064.51   0.11         40.       3.         2126.25    0.11      4147900400056 
 4034.0    0.4           8.8      1.7        2156.7     0.4       4147900400057 
 4026.24   0.13         42.       3.         2164.52    0.13      4147900400058 
 4021.2    0.6           9.1      1.6        2169.5     0.6       4147900400059 
 4014.18   0.06         83.       5.         2176.58    0.06      4147900400060 
 3981.77   0.17         17.       2.         2208.98    0.17      4147900400061 
 3955.76   0.17         18.       1.         2235.00    0.15      4147900400062 
 3943.10   0.12         21.       1.         2247.66    0.12      4147900400063 
ENDDATA             45          0                                 4147900400064 
ENDSUBENT           63          0                                 4147900499999 
SUBENT        41479005   20060804                             41394147900500001 
BIB                  8         15                                 4147900500002 
REACTION   (74-W-182(N,G)74-W-183,,SPC,,REL)                      4147900500003 
           Relative gamma-transition Intensity in Relative Units. 4147900500004 
METHOD     (COINC) g-g Coincidence                                4147900500005 
SAMPLE      In g-g-coincidence xperiment- 1.5 gmetallic W-182,    4147900500006 
            enriched  to 91.6%.                                   4147900500007 
DETECTOR   (GE  ) Two Ge-detectors of 78 and 80 cm3.              4147900500008 
EN-SEC     (E,G)      Gamma Energy                                4147900500009 
           (LVL-INI,74-W-183)  Initial Level Energy               4147900500010 
           (LVL-FIN,74-W-183)  Final Level Energy                 4147900500011 
FLAG       (1.) Evidence from coincidence data                    4147900500012 
           (2.) Calculated Intensity Value. Multiplet.            4147900500013 
           (3.) Multiplet                                         4147900500014 
ERR-ANALYS (DATA-ERR) Not Specified                               4147900500015 
           (LVL-INI-ER) Error of Initial Level Energy             4147900500016 
STATUS       From Table 5 of Main  Ref.                           4147900500017 
ENDBIB              15          0                                 4147900500018 
COMMON               1          3                                 4147900500019 
EN-DUMMY                                                          4147900500020 
EV                                                                4147900500021 
0.0253                                                            4147900500022 
ENDCOMMON            3          0                                 4147900500023 
DATA                 8         77                                 4147900500024 
E          E-ERR      DATA       DATA-ERR   LVL-INI    LVL-INI-ER 4147900500025 
LVL-FIN    FLAG                                                   4147900500026 
KEV        KEV        ARB-UNITS  ARB-UNITS  KEV        KEV        4147900500027 
KEV        NO-DIM                                                 4147900500028 
 308.96     0.16           0.9      0.4      1628.10       0.15   4147900500029 
  1319.6                                                          4147900500030 
 384.41     0.17           1.6      0.3      1437.82       0.08   4147900500031 
  1053.4                                                          4147900500032 
 416.4      0.3           11.       3.       1319.56       0.08   4147900500033 
   903.4                                                          4147900500034 
 559.9      0.06           4.5      0.4      1463.45       0.09   4147900500035 
   903.4                                                          4147900500036 
 581.59     0.02           0.8      0.3      1483.60       0.22   4147900500037 
   903.4                                                          4147900500038 
 652.1      0.06          41.       2.       1064.26       0.08   4147900500039 
   412.1                                                          4147900500040 
 682.72     0.08           4.6      0.5      1586.14       0.09   4147900500041 
   903.4                                                          4147900500042 
 723.83     0.13           0.8      0.4      1628.10       0.15   4147900500043 
   903.6                                                          4147900500044 
 768.82     0.14           1.3      0.3      1319.56       0.08   4147900500045 
   551.2                                                          4147900500046 
 866.49     0.08          16.       1.       1319.56       0.08   4147900500047 
   453.1                                                          4147900500048 
1018.07     0.15          29.       3.       1064.26       0.08   4147900500049 
    46.5                                                          4147900500050 
1064.0      0.6            4.8      1.7      1064.26       0.08   4147900500051 
     0.        1.                                                 4147900500052 
1182.70     0.26           7.7      1.5      2209.01       0.12   4147900500053 
  1026.4                                                          4147900500054 
1274.8      0.4            4.6      0.9      2209.01       0.12   4147900500055 
   934.5                                                          4147900500056 
1294.37     0.09          14.       2.       1586.14       0.09   4147900500057 
   291.7                                                          4147900500058 
1338.21     0.29           8.8      0.9      1437.82       0.08   4147900500059 
    99.1       3.                                                 4147900500060 
1370.89     0.15           4.6               1823.68       0.12   4147900500061 
   453.1       2.                                                 4147900500062 
1370.89     0.15          10.                1577.80       0.18   4147900500063 
   207.0       2.                                                 4147900500064 
1380.66     0.18          12.       2.       1672.65       0.05   4147900500065 
   291.7                                                          4147900500066 
1387.2      0.9            4.1      1.7      1483.60       0.22   4147900500067 
    99.1                                                          4147900500068 
1391.1      1.0            3.7      1.4      1437.82       0.08   4147900500069 
    46.5                                                          4147900500070 
1411.68     0.14          23.       2.       1823.68       0.12   4147900500071 
   412.1                                                          4147900500072 
1416.84     0.09          27.       2.       1463.45       0.09   4147900500073 
    46.5                                                          4147900500074 
1437.88     0.08          24.       2.       1437.82       0.08   4147900500075 
     0.                                                           4147900500076 
1463.58     0.07          13.                1672.65       0.05   4147900500077 
   208.8       2.                                                 4147900500078 
1463.58     0.07          15.                1463.45       0.09   4147900500079 
     0.        2.                                                 4147900500080 
1478.39     0.27           8.2      1.3      1577.80       0.18   4147900500081 
    99.1                                                          4147900500082 
1485.86     0.15          17.       2.       1483.60       0.22   4147900500083 
     0.                                                           4147900500084 
1529.28     0.13          22.       2.       1628.10       0.15   4147900500085 
    99.1                                                          4147900500086 
1539.5      0.4            2.9      0.8      1586.14       0.09   4147900500087 
    46.5                                                          4147900500088 
1573.6      0.5           15.       3.       1672.65       0.05   4147900500089 
    99.1                                                          4147900500090 
1581.55     0.17          31.       3.       1628.10       0.15   4147900500091 
    46.5                                                          4147900500092 
1587.32     0.24          22.       2.       1633.4        0.4    4147900500093 
    46.5                                                          4147900500094 
1595.11     0.11          46.       3.       1886.28       0.26   4147900500095 
   291.7                                                          4147900500096 
1602.25     0.15          33.       3.       1811.11       0.08   4147900500097 
   208.8                                                          4147900500098 
1615.13     0.09          87.       5.       1823.68       0.12   4147900500099 
   208.8                                                          4147900500100 
1627.09     0.05          54.                1672.65       0.05   4147900500101 
    46.5       2.                                                 4147900500102 
1627.09     0.05          74.                1628.10       0.15   4147900500103 
     0.        2.                                                 4147900500104 
1633.07     0.20          28.       3.       1633.4        0.4    4147900500105 
     0.                                                           4147900500106 
1652.59     0.08          24.       2.       1944.33       0.07   4147900500107 
   291.7                                                          4147900500108 
1672.66     0.15          15.       1.       1672.65       0.05   4147900500109 
     0.                                                           4147900500110 
1677.5      0.3            6.5      0.9      1886.28       0.26   4147900500111 
   208.8                                                          4147900500112 
1684.36     0.08          22.       2.       1730.60       0.24   4147900500113 
    46.5                                                          4147900500114 
1691.44     0.05          38.       2.       1901.27       0.05   4147900500115 
   208.8       3.                                                 4147900500116 
1698.69     0.20           8.8      1.2      1905.73       0.22   4147900500117 
   207.0                                                          4147900500118 
1729.9      0.3            8.4      0.9      1730.60       0.24   4147900500119 
     0.                                                           4147900500120 
1735.63     0.04          17.                2028.19       0.14   4147900500121 
   291.7       2.                                                 4147900500122 
1735.63     0.04          66.                1944.33       0.07   4147900500123 
   208.8       2.                                                 4147900500124 
1764.65     0.09          30.       3.       1811.11       0.08   4147900500125 
    46.5                                                          4147900500126 
1782.68     0.24           9.0      1.2      1989.60       0.27   4147900500127 
   207.0                                                          4147900500128 
1807.1      0.8            2.9      1.6      1905.73       0.22   4147900500129 
    99.1                                                          4147900500130 
1823.5      0.5            5.7      1.3      1823.68       0.12   4147900500131 
     0.                                                           4147900500132 
1853.7      0.4           12.       2.       1901.27       0.05   4147900500133 
    46.5                                                          4147900500134 
1876.0      1.2            2.6      1.6      2164.68       0.11   4147900500135 
   291.7                                                          4147900500136 
1885.07     0.25          14.       2.       1886.28       0.26   4147900500137 
     0.                                                           4147900500138 
1890.96     0.25           6.2               2099.09       0.29   4147900500139 
   208.8       2.                                                 4147900500140 
1890.96     0.25           8.                1989.60       0.27   4147900500141 
    99.1       2.                                                 4147900500142 
1897.58     0.15          22.       3.       1944.33       0.07   4147900500143 
    46.5                                                          4147900500144 
1917.5      0.6            6.1      1.6      2126.52       0.14   4147900500145 
   208.8                                                          4147900500146 
1928.7      0.5            5.7      1.6      2028.19       0.14   4147900500147 
    99.1                                                          4147900500148 
1944.46     0.18           8.                2236.02       0.12   4147900500149 
   291.7       2.                                                 4147900500150 
1944.46     0.18           5.6               1944.33       0.07   4147900500151 
     0.        3.                                                 4147900500152 
1957.06     0.21          12.       3.       2164.68       0.11   4147900500153 
   208.8                                                          4147900500154 
1967.80     0.27          13.       3.       2176.90       0.21   4147900500155 
   208.8                                                          4147900500156 
1989.5      0.4            7.3      1.7      1989.60       0.27   4147900500157 
     0.                                                           4147900500158 
2012.80     0.21           7.9               2059.12       0.22   4147900500159 
    46.5                                                          4147900500160 
2028.21     0.12          24.       2.       2028.19       0.14   4147900500161 
     0.                                                           4147900500162 
2058.6      0.5            8.4      1.7      2059.12       0.22   4147900500163 
     0.                                                           4147900500164 
2080.19     0.08          35.       3.       2126.52       0.14   4147900500165 
    46.5                                                          4147900500166 
2099.8      0.7            3.8      1.6      2099.09       0.29   4147900500167 
     0.                                                           4147900500168 
2118.28     0.09          27.       2.       2164.68       0.11   4147900500169 
    46.5                                                          4147900500170 
2129.55     0.16          16.       1.       2176.90       0.21   4147900500171 
    46.5                                                          4147900500172 
2136.85     0.14           9.9      1.3      2236.02       0.12   4147900500173 
    99.1                                                          4147900500174 
2162.2      0.4           12.       2.       2209.01       0.12   4147900500175 
    46.5                                                          4147900500176 
2166.6      0.8            4.9      1.4      2164.68       0.11   4147900500177 
     0.                                                           4147900500178 
2177.21     0.05          45.       3.       2176.90       0.21   4147900500179 
     0.                                                           4147900500180 
2209.6      0.3            9.4      1.4      2209.01       0.12   4147900500181 
     0.                                                           4147900500182 
ENDDATA            158          0                                 4147900500183 
ENDSUBENT          182          0                                 4147900599999 
ENDENTRY             5          0                                 4147999999999 
