ENTRY            41521   20120120                             Y0084152100000001 
SUBENT        41521001   20120120                             Y0084152100100001 
BIB                 13         23                                 4152100100002 
TITLE      Investigation of multipole mixtures in gamma           4152100100003 
           transitions by means of the reaction Th-232(n,n'gamma).4152100100004 
AUTHOR     (A.M.Demidov, L.I.Govor, V.A.Kurkin, I.V.Mikhaylov)    4152100100005 
INSTITUTE  (4RUSKUR)                                              4152100100006 
REFERENCE  (J,YF,71,(11),1870,2008) Main Reference.               4152100100007 
           (J,PAN,71,(11),1839,2008) English translation of YF,71.4152100100008 
REL-REF    (N,,A.M.Demidov+,B,DEMIDOV,,1986) Measurement and data 4152100100009 
                                            analysis procedure.   4152100100010 
           (A,,E.Browne,J,NDS,107,2579,2007) - Information  was   4152100100011 
            used for scheme of level and gamma transitions .      4152100100012 
FACILITY   (REAC)  IR-8 reactor.                                  4152100100013 
INC-SOURCE (REAC) Fast neutrons from IR-8 reactor.                4152100100014 
INC-SPECT   Fast-neutron beam extracted from pulsed reactor.      4152100100015 
SAMPLE      Metallic natural thorium of 21.3 g weight, 3.0 g/cm**24152100100016 
            thickness.                                            4152100100017 
DETECTOR   (HPGE) Germanium detector of efiiciency 20%, resolution4152100100018 
            1.9 keV at E-gamma=1.3 MeV.                           4152100100019 
METHOD     (GSPEC) 262 lines were accotiated with Th-232 in       4152100100020 
                   measured spectrum.                             4152100100021 
ADD-RES     Angular distributions at the angles 90, 105, 125, 142,4152100100022 
             150 deg relative to neutron beam axis.               4152100100023 
HISTORY    (20081212C)      Compiled at CJD  (M.M.)               4152100100024 
           (20120120A) NDS(VZ): REL-REF: ND/B->NDS                4152100100025 
ENDBIB              23          0                                 4152100100026 
COMMON               1          3                                 4152100100027 
EN-DUMMY                                                          4152100100028 
EV                                                                4152100100029 
     1.E+06                                                       4152100100030 
ENDCOMMON            3          0                                 4152100100031 
ENDSUBENT           30          0                                 4152100199999 
SUBENT        41521002   20081212                             41454152100200001 
BIB                  7         35                                 4152100200002 
REACTION   (90-TH-232(N,INL)90-TH-232,,SPC,,FIS/REL)              4152100200003 
            Relative intensities of gamma-lines (arb.units) .     4152100200004 
            Relative to gamma-line 664.92 keV taken for 100.      4152100200005 
EN-SEC     (E,G) Gamma energy.                                    4152100200006 
             (LVL-INI,90-TH-232) Energy of initial level .        4152100200007 
ERR-ANALYS (DATA-ERR) Errors are not specified .                  4152100200008 
ANALYSIS    Energies in data lines from the spectrum measured at  4152100200009 
            an angle of 90 deg with respest to neutron-beam axis  4152100200010 
            and intensities from the spectrum at an angle 125 deg.4152100200011 
            The isotropic 680.97 and 1029.10 keV (0+ - 2+)        4152100200012 
            transitions wre used along with the 664.92 keV        4152100200013 
            (1- - 2+) transition to normalize the gamma-line      4152100200014 
            intensities at various angles.                        4152100200015 
            In addition to the gamma lines associated with Th-232 4152100200016 
            the spectrum feature background gamma lines, the lines4152100200017 
            of gamma-rays from n,gamma reaction induced by        4152100200018 
            itermediate neutrons not absorbed by a boron filter   4152100200019 
            1 g/cm**2 thick, and gamma rays from the radiative    4152100200020 
            chain of Th-232 decay.                                4152100200021 
            Intensity for doublets for :                          4152100200022 
            Egamma=347.2 is defined as 2.1 +- 0.4 ,               4152100200023 
             724.86 keV - 17.1,  612.09 keV - 111.+-5. ,          4152100200024 
            888.1 keV - 2.8+-0.3 , 959.25 keV - 9.6 +-0.6 ,       4152100200025 
            1056.11 keV - 30.1+-1.3 .                             4152100200026 
            Two values of spin and parity are given for levels:   4152100200027 
            1561.1 - 1-, 2+ ; 1572.4 - 1, 2+ ; 1576.8 - 1, 2+;    4152100200028 
            1728.3 - 1, 2+ ; 1741.1 - 1-, 2+ ; 1791.4 - 1-, 2+ ;  4152100200029 
            1825.9 - 1, 2+ ; 1880.4 - 1, 2+ ; 1947.5 - 1, 2+ .    4152100200030 
MISC-COL   (MISC1) Spin of initial level (from Table 2).          4152100200031 
           (MISC2) Parity of initial level (from Table 2).        4152100200032 
COMMENT    Of compiler. For Egamma=112.80 keV the DATA value in   4152100200033 
           Table 2 is 55.+-3. , in Table 1 - 54.+-0.3 .           4152100200034 
           For Egamma=888.1 keV the LVL-INI value is              4152100200035 
           1222.4 keV in Table 1, 1221.4+-5 - in Table 2.         4152100200036 
STATUS     (TABLE) From Table 1 and 2 of reference .              4152100200037 
ENDBIB              35          0                                 4152100200038 
NOCOMMON             0          0                                 4152100200039 
DATA                10        266                                 4152100200040 
E          E-ERR      DATA       DATA-APRX  DATA-MAX   DATA-ERR   4152100200041 
LVL-INI    LVL-INI-ER MISC1      MISC2                            4152100200042 
KEV        KEV        ARB-UNITS  ARB-UNITS  ARB-UNITS  ARB-UNITS  4152100200043 
KEV        KEV        NO-DIM     NO-DIM                           4152100200044 
 112.80         0.20    54.                             3.        4152100200045 
  162.12               4.         +1.                             4152100200046 
 159.2          0.4      4.3                            1.0       4152100200047 
 1042.7      0.3       7.         -1.                             4152100200048 
 171.20         0.05    96.                             4.        4152100200049 
  333.32     0.07      6.         +1.                             4152100200050 
 204.2          0.5      2.0                            0.6       4152100200051 
                                                                  4152100200052 
 218.6          0.5      2.8                            0.7       4152100200053 
                                                                  4152100200054 
 223.7          0.2     15.3                            0.9       4152100200055 
  557.02     0.20      8.         +1.                             4152100200056 
 258.5          0.4      3.3                            0.4       4152100200057 
 1148.3      0.2       4.         +1.                             4152100200058 
 269.5          0.3      1.3                            0.3       4152100200059 
  826.5      0.5       10.        +1.                             4152100200060 
 279.3          0.4      1.5                            0.4       4152100200061 
 1053.59     0.10      2.         +1.                             4152100200062 
 316.4          0.3      3.3                            0.7       4152100200063 
                                                                  4152100200064 
 319.3          0.4      2.6                            0.6       4152100200065 
 1148.3      0.2       4.         +1.                             4152100200066 
 323.4          0.6      1.2                            0.4       4152100200067 
 1053.59     0.10      2.         +1.                             4152100200068 
 325.5          0.3      1.5                            0.5       4152100200069 
 1208.8                                                           4152100200070 
 331.2          0.2      9.3                            0.6       4152100200071 
 1105.50     0.15      3.         -1.                             4152100200072 
 343.3          0.4      1.1                            0.4       4152100200073 
                                                                  4152100200074 
 347.2          0.3                          2.1        0.4       4152100200075 
 1121.58     0.08      2.         +1.                             4152100200076 
 347.2          0.3                          2.1        0.4       4152100200077 
 1237.62     0.11      4.         -1.                             4152100200078 
 353.1          0.4      1.2                            0.3       4152100200079 
                                                                  4152100200080 
 358.2          0.4      2.1                            0.5       4152100200081 
                                                                  4152100200082 
 359.7          0.4      1.5                            0.5       4152100200083 
                                                                  4152100200084 
 363.4          0.6      0.9                            0.4       4152100200085 
 1148.3      0.2       4.         +1.                             4152100200086 
 364.4          0.5      1.1                            0.4       4152100200087 
 1078.47     0.06      0.         +1.                             4152100200088 
 370.7          0.5      1.8                            0.2       4152100200089 
                                                                  4152100200090 
 377.6          0.3      2.4                            0.4       4152100200091 
                                                                  4152100200092 
 397.5          0.2      1.5                            0.2       4152100200093 
 1182.40     0.08      3.         -1.                             4152100200094 
 402.6          0.3      2.0                            0.4       4152100200095 
                                                                  4152100200096 
 407.5          0.2                          6.8        0.4       4152100200097 
 1237.58     0.08      4.         -1.                             4152100200098 
 407.5          0.2                          6.8        0.4       4152100200099 
 1182.40     0.08      3.         -1.                             4152100200100 
 407.5          0.2                          6.8        0.4       4152100200101 
 1121.58     0.08      2.         +1.                             4152100200102 
 423.8          0.4                          3.1        0.4       4152100200103 
 1249.7      0.6       9.         -1.                             4152100200104 
 431.4          0.4      4.3                            0.4       4152100200105 
                                                                  4152100200106 
 434.6          0.4      3.0                            0.5       4152100200107 
                                                                  4152100200108 
 444.5          0.3      3.1                            0.3       4152100200109 
                                                                  4152100200110 
 454.6          0.4      2.3                            0.3       4152100200111 
                                                                  4152100200112 
 472.4          0.3      3.7                            0.3       4152100200113 
                                                                  4152100200114 
 486.0          0.2      2.3                            0.2       4152100200115 
 1042.7     0.3        7.         -1.                             4152100200116 
 493.5          0.8      1.4                            0.6       4152100200117 
 1050.73    0.10       6.         +1.                             4152100200118 
 523.06         0.18                         4.0        0.3       4152100200119 
 1414.0     0.2        4.         +1.                             4152100200120 
 539.6          0.2      5.8                            0.4       4152100200121 
  873.01    0.10       4.         +1.                             4152100200122 
 541.3          0.3      1.4                            0.3       4152100200123 
                                                                  4152100200124 
 550.35         0.05    33.3                            1.4       4152100200125 
  883.64    0.10       5.         -1.                             4152100200126 
 556.7          0.9      0.52                           0.11      4152100200127 
  890.36    0.11       4.         +1.                             4152100200128 
 566.3          0.2      4.4                            0.3       4152100200129 
                                                                  4152100200130 
 577.9          0.3      2.0                            0.3       4152100200131 
                                                                  4152100200132 
 585.3          0.3                          4.2        0.3       4152100200133 
 1414.0     0.2        4.         +1.                             4152100200134 
 588.9          0.3      3.5                            0.3       4152100200135 
                                                                  4152100200136 
 590.3          0.3      2.9                            0.3       4152100200137 
                                                                  4152100200138 
 602.7          0.3      2.0                            0.3       4152100200139 
                                                                  4152100200140 
 606.8          0.3      2.7                            0.3       4152100200141 
                                                                  4152100200142 
 612.09         0.05     98.                                      4152100200143 
  774.21    0.07       3.         -1.                             4152100200144 
 612.09         0.05              13.                             4152100200145 
  774.25    0.05       2.         +1.                             4152100200146 
 619.2          0.4      1.5                            0.3       4152100200147 
                                                                  4152100200148 
 626.74         0.10     8.7                            0.4       4152100200149 
  960.22    0.10       5.         +1.                             4152100200150 
 628.7          0.2      5.3                            0.3       4152100200151 
 1414.0     0.2        4.         +1.                             4152100200152 
 638.0          0.4      1.3                            0.3       4152100200153 
                                                                  4152100200154 
 641.4          0.3      3.4                            0.3       4152100200155 
                                                                  4152100200156 
 648.2          0.5      1.0                            0.3       4152100200157 
                                                                  4152100200158 
 660.0          0.3      1.6                            0.3       4152100200159 
                                                                  4152100200160 
 664.92         0.07   100.                             4.        4152100200161 
  714.30     0.07      1.         -1.                             4152100200162 
 667.3          0.2     26.9                            1.2       4152100200163 
  829.61     0.07      3.         +1.                             4152100200164 
 678.2          0.3      2.1                            0.3       4152100200165 
                                                                  4152100200166 
 680.97         0.05    23.8                            1.0       4152100200167 
  730.34     0.05      0.         +1.                             4152100200168 
 684.0          0.3      2.7                            0.3       4152100200169 
 1573.4      0.3       6.         +1.                             4152100200170 
 690.3          0.5      1.5                            0.3       4152100200171 
 1022.6      0.2       6.         +1.                             4152100200172 
 704.3          0.2      3.3                            0.3       4152100200173 
 1261.3      0.3       8.         +1.                             4152100200174 
 707.0          0.2      4.6                            0.3       4152100200175 
                                                                  4152100200176 
 710.5          0.5      1.0                            0.3       4152100200177 
  873.01     0.10      4.         +1.                             4152100200178 
 712.0          0.3      3.6                            0.3       4152100200179 
                                                                  4152100200180 
 714.32         0.10    14.6                            0.7       4152100200181 
  714.30     0.07      1.         -1.                             4152100200182 
 717.44         0.10     5.2                            0.3       4152100200183 
 1050.73     0.10      6.         +1.                             4152100200184 
 724.86         0.10              9.                              4152100200185 
  774.21     0.07      3.         -1.                             4152100200186 
 724.86         0.10              8.                              4152100200187 
  774.25     0.05      2.         +1.                             4152100200188 
 728.23         0.10    46.2                            2.0       4152100200189 
  890.36     0.11      4.         +1.                             4152100200190 
 735.90         0.05    81.                             4.        4152100200191 
  785.3      0.05      2.         +1.                             4152100200192 
 750.0          0.03     2.5                            0.2       4152100200193 
                                                                  4152100200194 
 755.0          0.3      2.0                            0.2       4152100200195 
                                                                  4152100200196 
 774.25         0.05    31.4                            1.4       4152100200197 
  774.25     0.05      2.         +1.                             4152100200198 
 780.24         0.05    73.                             3.        4152100200199 
  829.61     0.06      3.         +1.                             4152100200200 
 785.35         0.05    49.8                            2.1       4152100200201 
  785.31     0.05      2.         +1.                             4152100200202 
 791.9          0.2      1.6                            0.2       4152100200203 
                                                                  4152100200204 
 798.09         0.10    20.2                            0.9       4152100200205 
  960.22     0.10      5.         +1.                             4152100200206 
 809.09         0.15     4.9                            0.3       4152100200207 
                                                                  4152100200208 
 814.99         0.15     4.6                            0.3       4152100200209 
 1148.3      0.2       4.         +1.                             4152100200210 
 823.64         0.10    20.0                            0.9       4152100200211 
  873.01     0.10      4.         +1.                             4152100200212 
 827.0          0.3      1.5                            0.2       4152100200213 
                                                                  4152100200214 
 831.6          0.3      2.0                            0.3       4152100200215 
                                                                  4152100200216 
 836.8          0.3      2.7                            0.2       4152100200217 
                                                                  4152100200218 
 841.4          0.4      3.2                            0.3       4152100200219 
  890.36     0.11      4.         +1.                             4152100200220 
 860.5          0.2      5.2                            0.3       4152100200221 
 1022.6      0.2       6.         +1.                             4152100200222 
 863.2          0.3      2.8                            0.3       4152100200223 
                                                                  4152100200224 
 875.4          0.3      2.7                            0.3       4152100200225 
                                                                  4152100200226 
 881.2          0.5      1.6                            0.3       4152100200227 
                                                                  4152100200228 
 884.8          0.2      6.9                            0.4       4152100200229 
 1218.1      0.3       4.         +1.                             4152100200230 
 888.1          0.3                          2.8        0.3       4152100200231 
 1050.73     0.10      6.         +1.                             4152100200232 
 888.1          0.3                          2.8        0.3       4152100200233 
 1221.4      0.10      8.         +1.                             4152100200234 
 903.9          0.3      1.9                            0.2       4152100200235 
                                                                  4152100200236 
 907.5          1.5      2.9                            0.3       4152100200237 
                                                                  4152100200238 
 913.6          0.4      1.4                            0.2       4152100200239 
                                                                  4152100200240 
 918.7          0.2      2.1                            0.2       4152100200241 
                                                                  4152100200242 
 922.0          0.8      0.5                            0.2       4152100200243 
                                                                  4152100200244 
 927.4          0.5      1.3                            0.2       4152100200245 
                                                                  4152100200246 
 932.1          0.2      3.3                            0.3       4152100200247 
 1094.2      0.2       3.         +1.                             4152100200248 
 935.5          0.2      4.7                            0.3       4152100200249 
                                                                  4152100200250 
 940.5          0.5      1.0                            0.2       4152100200251 
                                                                  4152100200252 
 943.37         0.15     5.3                            0.3       4152100200253 
 1105.50     0.15      3.         -1.                             4152100200254 
 948.1          0.5      1.5                            0.2       4152100200255 
                                                                  4152100200256 
 952.2          1.0      0.3                            0.2       4152100200257 
                                                                  4152100200258 
 953.7          0.3      2.8                            0.3       4152100200259 
                                                                  4152100200260 
 959.25         0.10                         9.6        0.6       4152100200261 
 1121.58    0.08       2.         +1.                             4152100200262 
 959.25         0.10                         9.6        0.6       4152100200263 
 1293.0     0.2        4.         +1.                             4152100200264 
 974.5          0.3      1.6                            0.3       4152100200265 
                                                                  4152100200266 
 977.3          0.5      0.86                           0.23      4152100200267 
                                                                  4152100200268 
 981.03         0.08    20.7                            1.0       4152100200269 
 1143.15    0.10       4.         -1.                             4152100200270 
 985.7          0.2      6.1                            0.4       4152100200271 
 1148.3     0.2        4.         +1.                             4152100200272 
 987.0          0.4      1.0                            0.2       4152100200273 
                                                                  4152100200274 
 994.6          0.6      1.0                            0.2       4152100200275 
 1328.65    0.09       5.         -1.                             4152100200276 
 997.2          0.8      1.1                            0.2       4152100200277 
                                                                  4152100200278 
 999.0          1.0      0.67                           0.20      4152100200279 
                                                                  4152100200280 
1004.22         0.10     7.8                            0.4       4152100200281 
 1053.59    0.10       2.         +1.                             4152100200282 
1009.5          0.5      1.2                            0.3       4152100200283 
                                                                  4152100200284 
1020.3          0.2      4.4                            0.3       4152100200285 
 1182.40    0.08       3.         -1.                             4152100200286 
1023.70         0.08    39.4                            1.7       4152100200287 
 1073.07    0.10       2.         -1.                             4152100200288 
1029.10         0.08    16.5                            0.7       4152100200289 
 1078.47    0.06       0.         +1.                             4152100200290 
1031.2          0.2      3.2                            0.3       4152100200291 
                                                                  4152100200292 
1044.9          0.3      4.1                            0.3       4152100200293 
 1094.2     0.2        3.         +1.                             4152100200294 
1046.7          0.2     10.0                            0.5       4152100200295 
 1208.8     0.2        5.         -1.                             4152100200296 
1053.4          0.2      2.4                            0.3       4152100200297 
 1053.59    0.10       2.         +1.                             4152100200298 
1056.11         0.08             24.                              4152100200299 
 1105.50    0.15       3.         -1.                             4152100200300 
1056.11         0.08              6.                              4152100200301 
 1218.1     0.3        4.         +1.                             4152100200302 
1062.31         0.15     2.4                            0.2       4152100200303 
                                                                  4152100200304 
1072.21         0.08    39.9                            1.7       4152100200305 
 1121.58    0.08       2.         +1.                             4152100200306 
1075.50         0.10    18.                             2.        4152100200307 
 1237.62    0.11       4.         -1.                             4152100200308 
1077.75         0.08    23.7                            1.0       4152100200309 
 1077.75    0.08       1.         -1.                             4152100200310 
1083.5          0.8      0.62                           0.19      4152100200311 
                                                                  4152100200312 
1090.0          0.6      1.1                            0.2       4152100200313 
                                                                  4152100200314 
1102.1          0.6      2.5                            0.3       4152100200315 
                                                                  4152100200316 
1119.6          0.5      2.5                            0.3       4152100200317 
                                                                  4152100200318 
1122.0          1.0      2.3                            0.3       4152100200319 
 1121.58     0.08      2.         +1.                             4152100200320 
1124.0          1.0      1.2                            0.2       4152100200321 
                                                                  4152100200322 
1133.03         0.08    46.2                            2.0       4152100200323 
 1182.40     0.08      3.         -1.                             4152100200324 
1135.8          0.4      3.8                            0.7       4152100200325 
                                                                  4152100200326 
1148.0          0.6      0.56                           0.16      4152100200327 
                                                                  4152100200328 
1159.0          0.4      1.8                            0.2       4152100200329 
                                                                  4152100200330 
1166.53         0.08     6.7                            0.4       4152100200331 
 1328.65     0.09      5.         -1.                             4152100200332 
1179.4          0.4      2.4                            0.3       4152100200333 
                                                                  4152100200334 
1184.9          0.4      1.2                            0.2       4152100200335 
                                                                  4152100200336 
1195.0          1.3      0.26                           0.08      4152100200337 
                                                                  4152100200338 
1218.4          0.3      2.8                            0.3       4152100200339 
                                                                  4152100200340 
1222.1          0.5      1.3                            0.2       4152100200341 
                                                                  4152100200342 
1225.0          0.2      5.2                            0.3       4152100200343 
 1387.1      0.2       2.         +1.                             4152100200344 
1228.7          0.3      2.0                            0.2       4152100200345 
                                                                  4152100200346 
1234.0          0.9      0.79                           0.24      4152100200347 
                                                                  4152100200348 
1243.6          0.7      0.53                           0.16      4152100200349 
 1293.0      0.2       4.         +1.                             4152100200350 
1248.2          0.2      2.5                            0.2       4152100200351 
                                                                  4152100200352 
1278.9          0.2      2.9                            0.2       4152100200353 
                                                                  4152100200354 
1303.27         0.15     4.3                            0.3       4152100200355 
 1303.27     0.15                                                 4152100200356 
1308.9          0.5      1.2                            0.2       4152100200357 
                                                                  4152100200358 
1313.2          0.2      2.7                            0.3       4152100200359 
                                                                  4152100200360 
1322.26         0.10     7.2                            0.4       4152100200361 
 1484.39     0.12      5.         -1.                             4152100200362 
1326.2          0.6      0.47                           0.13      4152100200363 
                                                                  4152100200364 
1337.7          0.2      2.8                            0.2       4152100200365 
 1387.1      0.2       2.         +1.                             4152100200366 
1362.0          0.4      1.8                            0.2       4152100200367 
                                                                  4152100200368 
1383.9          0.2      4.4                            0.3       4152100200369 
                                                                  4152100200370 
1387.2          0.3      2.1                            0.2       4152100200371 
 1387.1      0.2       2.         +1.                             4152100200372 
1391.6          0.2      3.3                            0.3       4152100200373 
 1554.2      0.2       2.         +1.                             4152100200374 
1397.8          0.2      4.3                            0.3       4152100200375 
                                                                  4152100200376 
1400.71         0.10     7.3                            0.4       4152100200377 
 1450.08     0.10                                                 4152100200378 
1405.2          0.5      1.2                            0.2       4152100200379 
                                                                  4152100200380 
1414.6          0.2      2.4                            0.3       4152100200381 
                                                                  4152100200382 
1417.1          0.3      2.7                            0.3       4152100200383 
                                                                  4152100200384 
1419.5          0.5      1.2                            0.3       4152100200385 
                                                                  4152100200386 
1427.7          0.2      4.1                            0.3       4152100200387 
                                                                  4152100200388 
1430.4          0.2      6.8                            0.4       4152100200389 
 1479.8      0.3       2.         +1.                             4152100200390 
1435.7          0.2      4.0                            0.3       4152100200391 
                                                                  4152100200392 
1439.6          0.2      3.1                            0.3       4152100200393 
 1489.1      0.2                                                  4152100200394 
1442.3          0.8      0.29                           0.09      4152100200395 
                                                                  4152100200396 
1446.8          0.8      1.5                            0.3       4152100200397 
 1608.9      0.2                                                  4152100200398 
1455.2          0.3      3.0                            0.3       4152100200399 
                                                                  4152100200400 
1459.4          0.4      1.9                            0.3       4152100200401 
                                                                  4152100200402 
1476.0          0.4      1.0                            0.3       4152100200403 
                                                                  4152100200404 
1479.7          0.4      0.73                           0.18      4152100200405 
 1479.8      0.3       2.         +1.                             4152100200406 
1485.4          0.2      4.9                            0.3       4152100200407 
 1647.5      0.3                                                  4152100200408 
1489.1          0.5      3.5                            0.3       4152100200409 
 1489.1      0.2                                                  4152100200410 
1497.0          0.6      1.7                            0.2       4152100200411 
                                                                  4152100200412 
1499.0          0.4      1.2                            0.2       4152100200413 
                                                                  4152100200414 
1504.8          0.2      12.6                           0.7       4152100200415 
 1554.2      0.2       2.         +1.                             4152100200416 
1517.1          0.3      2.88                           0.24      4152100200417 
                                                                  4152100200418 
1523.0          0.4      1.4                            0.2       4152100200419 
 1572.4      0.3                  +1.                             4152100200420 
1526.9          0.4      2.66                           0.24      4152100200421 
 1576.8      0.5                                                  4152100200422 
1530.3          0.7      1.26                           0.20      4152100200423 
                                                                  4152100200424 
1533.5          1.1      1.79                           0.21      4152100200425 
                                                                  4152100200426 
1551.5          0.3      2.25                           0.22      4152100200427 
                                                                  4152100200428 
1553.4          0.5      2.31                           0.23      4152100200429 
                                                                  4152100200430 
1555.3          1.0      0.70                           0.16      4152100200431 
 1554.2     0.2        2.         +1.                             4152100200432 
1558.8          0.7      2.40                           0.24      4152100200433 
                                                                  4152100200434 
1561.1          0.5      1.52                           0.22      4152100200435 
 1561.1     0.5                                                   4152100200436 
1564.3          0.5      0.75                           0.19      4152100200437 
                                                                  4152100200438 
1568.5          0.3      3.6                            0.3       4152100200439 
 1617.9     0.3                                                   4152100200440 
1572.4          0.3      3.6                            0.3       4152100200441 
 1572.4     0.3                                                   4152100200442 
1577.1          0.3      2.1                            0.2       4152100200443 
 1576.8     0.5                                                   4152100200444 
1598.6          0.5      0.62                           0.19      4152100200445 
                                                                  4152100200446 
1613.3          0.7      1.24                           0.25      4152100200447 
                                                                  4152100200448 
1616.9          0.9      2.3                            0.3       4152100200449 
                                                                  4152100200450 
1639.8          0.3      4.0                            0.3       4152100200451 
                                                                  4152100200452 
1642.0          0.5      3.4                            0.3       4152100200453 
 1691.4     0.3                                                   4152100200454 
1648.3          0.5      1.50                           0.23      4152100200455 
                                                                  4152100200456 
1652.2          1.0      0.58                           0.23      4152100200457 
                                                                  4152100200458 
1660.9          0.5      1.52                           0.21      4152100200459 
                                                                  4152100200460 
1664.4          0.5      1.91                           0.23      4152100200461 
                                                                  4152100200462 
1675.0          1.0      2.11                           0.23      4152100200463 
                                                                  4152100200464 
1679.2          0.4      2.38                           0.24      4152100200465 
 1728.3     0.5                                                   4152100200466 
1684.0          0.4      2.46                           0.22      4152100200467 
                                                                  4152100200468 
1690.5          0.3      3.6                            0.3       4152100200469 
                                                                  4152100200470 
1698.9          1.0      1.6                            0.3       4152100200471 
                                                                  4152100200472 
1716.5          0.4      3.8                            0.3       4152100200473 
                                                                  4152100200474 
1722.6          0.4      3.3                            0.3       4152100200475 
                                                                  4152100200476 
1728.1          0.5      2.4                            0.3       4152100200477 
 1728.3     0.5                                                   4152100200478 
1741.1          0.5      1.4                            0.2       4152100200479 
 1741.1     0.5                                                   4152100200480 
1744.8          1.0      0.80                           0.24      4152100200481 
                                                                  4152100200482 
1747.4          0.4      1.45                           0.23      4152100200483 
                                                                  4152100200484 
1750.4          0.8      0.59                           0.18      4152100200485 
                                                                  4152100200486 
1755.5          0.5      1.42                           0.18      4152100200487 
                                                                  4152100200488 
1757.9          0.5      1.05                           0.18      4152100200489 
                                                                  4152100200490 
1764.9          0.5      1.78                           0.24      4152100200491 
                                                                  4152100200492 
1769.2          0.5      2.43                           0.24      4152100200493 
                                                                  4152100200494 
1783.2          0.3      1.92                           0.25      4152100200495 
                                                                  4152100200496 
1787.5          0.3      1.46                           0.24      4152100200497 
                                                                  4152100200498 
1791.4          0.4      1.38                           0.24      4152100200499 
 1791.4     0.4                                                   4152100200500 
1794.5          0.5      0.83                           0.25      4152100200501 
                                                                  4152100200502 
1799.4          0.7      0.50                           0.15      4152100200503 
                                                                  4152100200504 
1814.6          0.6      1.23                           0.22      4152100200505 
                                                                  4152100200506 
1825.9          0.4      3.0                            0.3       4152100200507 
 1825.9     0.4                                                   4152100200508 
1831.0          0.6      2.24                           0.24      4152100200509 
 1880.4     0.6                                                   4152100200510 
1835.6          0.5      1.63                           0.18      4152100200511 
                                                                  4152100200512 
1849.1          0.6      1.14                           0.21      4152100200513 
                                                                  4152100200514 
1857.6          1.0      2.5                            0.4       4152100200515 
                                                                  4152100200516 
1867.8          0.4      1.98                           0.21      4152100200517 
                                                                  4152100200518 
1871.3          0.4      2.31                           0.23      4152100200519 
                                                                  4152100200520 
1877.9          0.5      1.48                           0.22      4152100200521 
                                                                  4152100200522 
1882.2          0.8      0.67                           0.20      4152100200523 
                                                                  4152100200524 
1893.9          0.3      2.11                           0.23      4152100200525 
                                                                  4152100200526 
1898.5          0.5      0.99                           0.21      4152100200527 
 1947.5     0.7                                                   4152100200528 
1900.9          0.5      1.42                           0.21      4152100200529 
                                                                  4152100200530 
1903.2          0.5      1.29                           0.20      4152100200531 
                                                                  4152100200532 
1911.9          0.5      0.73                           0.18      4152100200533 
                                                                  4152100200534 
1916.8          0.5      0.91                           0.19      4152100200535 
                                                                  4152100200536 
1922.0          0.7      0.56                           0.17      4152100200537 
                                                                  4152100200538 
1927.3          0.7      0.61                           0.16      4152100200539 
                                                                  4152100200540 
1947.5          0.7      1.40                           0.23      4152100200541 
 1947.5     0.7                                                   4152100200542 
1952.3          0.5      1.09                           0.23      4152100200543 
                                                                  4152100200544 
1973.9          0.5      1.32                           0.21      4152100200545 
                                                                  4152100200546 
1985.3          0.5      1.27                           0.21      4152100200547 
                                                                  4152100200548 
1997.5          0.4      1.28                           0.16      4152100200549 
                                                                  4152100200550 
2011.3          0.5      1.03                           0.16      4152100200551 
                                                                  4152100200552 
2015.5          0.5      1.14                           0.20      4152100200553 
                                                                  4152100200554 
2018.4          0.6      0.89                           0.20      4152100200555 
                                                                  4152100200556 
2042.7          0.8      0.75                           0.10      4152100200557 
 2042.7    0.5         1.         +1.                             4152100200558 
2047.0          1.0      0.86                           0.23      4152100200559 
                                                                  4152100200560 
2055.2          0.6      1.02                           0.20      4152100200561 
                                                                  4152100200562 
2074.4          0.8      1.07                           0.18      4152100200563 
                                                                  4152100200564 
2077.4          0.8      0.92                           0.18      4152100200565 
                                                                  4152100200566 
2086.3          0.4      0.89                           0.16      4152100200567 
                                                                  4152100200568 
2105.3          0.5      1.28                           0.19      4152100200569 
                                                                  4152100200570 
2155.8          0.6      0.81                           0.16      4152100200571 
                                                                  4152100200572 
2196.8          0.4      2.02                           0.20      4152100200573 
                                                                  4152100200574 
2208.1          0.5      0.66                           0.13      4152100200575 
                                                                  4152100200576 
ENDDATA            536          0                                 4152100200577 
ENDSUBENT          576          0                                 4152100299999 
SUBENT        41521003   20081212                             41454152100300001 
BIB                  4          6                                 4152100300002 
REACTION   (90-TH-232(N,INL)90-TH-232,PAR,DA,G,LEG/RS/FIS) Angular4152100300003 
            distribution in form of  A0*(1+A2*P2+A4*P4)           4152100300004 
EN-SEC     (E,G) Gamma energy                                     4152100300005 
            (LVL-INI,90-TH-232)                                   4152100300006 
FLAG       (1.) Value for doublet.                                4152100300007 
STATUS     (TABLE) Table 2 of the Main Reference                  4152100300008 
ENDBIB               6          0                                 4152100300009 
NOCOMMON             0          0                                 4152100300010 
DATA                 6         83                                 4152100300011 
E          NUMBER     DATA       DATA-ERR   LVL-INI    FLAG       4152100300012 
MEV        NO-DIM     NO-DIM     NO-DIM     MEV        NO-DIM     4152100300013 
  171.20     2.         +0.232     0.025       333.32             4152100300014 
  171.20     4.         -0.11      0.04        333.32             4152100300015 
  550.35     2.         -0.133     0.012       883.64             4152100300016 
  550.35     4.         +0.001     0.019       883.64             4152100300017 
  612.09     2.         -0.098     0.010       774.21             4152100300018 
  612.09     4.         +0.006     0.013       774.21             4152100300019 
  626.74     2.         -0.41      0.04        960.22             4152100300020 
  626.74     4.         -0.05      0.06        960.22             4152100300021 
  628.7      2.         +0.17      0.07       1414.0              4152100300022 
  628.7      4.         -0.15      0.11       1414.0              4152100300023 
  667.3      2.         -0.26      0.02        829.61             4152100300024 
  680.97     2.         +0.006     0.021       730.34             4152100300025 
  680.97     4.         +0.004     0.023       730.34             4152100300026 
  714.32     2.         -0.16      0.05        714.30             4152100300027 
  714.32     4.         +0.01      0.08        714.30             4152100300028 
  717.44     2.         -0.15      0.011      1050.73             4152100300029 
  717.44     4.         -0.17      0.017      1050.73             4152100300030 
  724.86     2.         -0.19      0.02        774.21     1.      4152100300031 
  724.86     2.         -0.19      0.02        774.25     1.      4152100300032 
  724.86     4.         -0.022     0.028       774.21     1.      4152100300033 
  724.86     4.         -0.022     0.028       774.25     1.      4152100300034 
  728.23     2.         -0.141     0.003       890.36             4152100300035 
  728.23     4.         -0.102     0.011       890.36             4152100300036 
  735.90     2.         -0.033     0.015       785.31             4152100300037 
  735.90     4.         -0.013     0.026       785.31             4152100300038 
  774.25     2.         +0.174     0.019       774.25             4152100300039 
  774.25     4.         -0.091     0.025       774.25             4152100300040 
  780.24     2.         +0.148     0.022       829.61             4152100300041 
  780.24     4.         +0.078     0.034       829.61             4152100300042 
  785.35     2.         +0.199     0.016       785.31             4152100300043 
  785.35     4.         -0.040     0.025       785.31             4152100300044 
  798.09     2.         +0.200     0.021       960.22             4152100300045 
  798.09     4.         +0.20      0.03        960.22             4152100300046 
  814.99     2.         +0.09      0.07       1148.3              4152100300047 
  814.99     4.         +0.06      0.011      1148.3              4152100300048 
  823.64     2.         +0.266     0.026       873.01             4152100300049 
  823.64     4.         -0.00      0.04        873.01             4152100300050 
  884.8      2.         +0.05      0.10       1208.8              4152100300051 
  884.8      4.         -0.03      0.016      1208.8              4152100300052 
  943.37     2.         -0.012     0.007      1105.50             4152100300053 
  943.37     4.         +0.06      0.12       1105.50             4152100300054 
  959.25     2.         +0.08      0.05       1121.58     1.      4152100300055 
  959.25     2.         +0.08      0.05       1293.0      1.      4152100300056 
  959.25     4.         +0.06      0.012      1121.58     1.      4152100300057 
  959.25     4.         +0.06      0.12       1293.0      1.      4152100300058 
  981.03     2.         +0.284     0.015      1143.15             4152100300059 
  981.03     4.         0.000      0.024      1143.15             4152100300060 
  985.7      2.         +0.35      0.06       1148.3              4152100300061 
  985.7      4.         -0.06      0.09       1148.3              4152100300062 
 1004.22     2.         +0.13      0.04       1053.59             4152100300063 
 1004.22     4.          0.00      0.05       1053.59             4152100300064 
 1023.70     2.         +0.12      0.03       1073.07             4152100300065 
 1023.70     4.         -0.05      0.04       1073.07             4152100300066 
 1029.10     2.         -0.002     0.020      1078.47             4152100300067 
 1029.10     4.         +0.015     0.032      1078.47             4152100300068 
 1044.9      2.         +0.56      0.08       1094.2              4152100300069 
 1044.9      4.         +0.13      0.12       1094.2              4152100300070 
 1046.7      2.         -0.21      0.10       1208.8              4152100300071 
 1046.7      4.         -0.01      0.015      1208.8              4152100300072 
 1056.11     2.         -0.073     0.025      1105.50     1.      4152100300073 
 1056.11     4.         +0.016     0.039      1105.50     1.      4152100300074 
 1072.21     2.         +0.159     0.014      1121.58             4152100300075 
 1072.21     4.         +0.007     0.020      1121.58             4152100300076 
 1075.50     2.         +0.288     0.022      1237.62             4152100300077 
 1075.50     4.         +0.028     0.033      1237.62             4152100300078 
 1077.75     2.         -0.126     0.014      1077.75             4152100300079 
 1077.75     4.         -0.026     0.022      1077.75             4152100300080 
 1133.03     2.         -0.166     0.014      1182.40             4152100300081 
 1133.03     4.         -0.003     0.021      1182.40             4152100300082 
 1166.53     2.         -0.15      0.06       1328.65             4152100300083 
 1166.53     4.         +0.11      0.06       1328.65             4152100300084 
 1303.27     2.         -0.19      0.06       1303.27             4152100300085 
 1303.27     4.         -0.18      0.10       1303.27             4152100300086 
 1322.26     2.         -0.07      0.04       1484.39             4152100300087 
 1322.26     4.         +0.07      0.06       1484.39             4152100300088 
 1400.71     2.         -0.07      0.04       1450.08             4152100300089 
 1400.71     4.         -0.15      0.06       1450.08             4152100300090 
 1430.4      2.         +0.10      0.05       1479.8              4152100300091 
 1430.4      4.         -0.08      0.07       1479.8              4152100300092 
 1489.1      2.         -0.15      0.08       1489.1              4152100300093 
 1489.1      4.         +0.01      0.13       1489.1              4152100300094 
 1504.8      2.         -0.21      0.05       1554.2              4152100300095 
 1504.8      4.         -0.08      0.08       1554.2              4152100300096 
ENDDATA             85          0                                 4152100300097 
ENDSUBENT           96          0                                 4152100399999 
ENDENTRY             3          0                                 4152199999999 
