ENTRY            41534   20120120                             Y0084153400000001 
SUBENT        41534001   20120120                             Y0084153400100001 
BIB                 13         35                                 4153400100002 
TITLE      Multipole mixtures in gamma-transitions from the       4153400100003 
           Gd-160(n,n'gamma) reaction.                            4153400100004 
AUTHOR     (L.I.Govor, A.M.Demidov, V.A.Kurkin, I.V.Mikhaylov)    4153400100005 
INSTITUTE  (4RUSKUR)                                              4153400100006 
REFERENCE  (J,YF,72,(11),1859,2009)                               4153400100007 
           (J,PAN,72,(11),1799,2009) English translation of YF,72.4153400100008 
           #doi:10.1134/S1063778809110015                         4153400100009 
REL-REF    (N,,A.M.Demidov+,B,DEMIDOV,,70,1986)                   4153400100010 
                                Details of method.                4153400100011 
           (D,,V.G.Soloviev+,J,FCY,27,1643,1996)                  4153400100012 
           Levels 913, 946, 1192, 1537.41, 1685.5 keV from REL-REF4153400100013 
           were not confirmed in this work.                       4153400100014 
           (D,,C.W.Reich,J,NDS,78,547,1996)                       4153400100015 
           Levels 1779.07, 1913.0, 2052.15, 2121.11, 2176.3,      4153400100016 
           2230.8, 2238.0, 2244.4, 2253.5, 2319.1, 2346.5, 2368.4,4153400100017 
           2376.8, 2379.0, 2407.6, 2450.2 keV from REL-REF were   4153400100018 
           considered as questionable in this work.               4153400100019 
FACILITY   (REAC,4RUSKUR)  IR-8 reactor.                          4153400100020 
INC-SOURCE (REAC) Fast neutrons from IR-8 reactor.                4153400100021 
INC-SPECT   No information.                                       4153400100022 
SAMPLE      Gd-160 sample as oxide Gd2-O3, mass 23 g of Gd-160.   4153400100023 
            Content of admixture isotopes: Gd-154 - 0.04%,        4153400100024 
            Gd-155 - 0.024%, Gd-156 - 0.39%, Gd-157 - 0.28%,      4153400100025 
            Gd-158 - 0.85%.                                       4153400100026 
DETECTOR   (HPGE) Germanium detector of efficiency 20%, resolution4153400100027 
            1.9 keV at E-gamma=1.3 MeV.                           4153400100028 
METHOD     (GSPEC) Gamma-spectra were measured at 90, 105, 115,   4153400100029 
           125, 135, 142, 150 degrees relative to neutron beam.   4153400100030 
ANALYSIS    For intensities normalization the 1- - 2+ transition  4153400100031 
           of energy 1148.98 keV was used, the angular            4153400100032 
           distribution of this transition was assumed to be with 4153400100033 
           A2=-0.012 and A4=0. Also 0+ - 2+ transition of         4153400100034 
           1304.27 keV was used.                                  4153400100035 
HISTORY    (20090202C)      Compiled at CJD  (M.M.)               4153400100036 
           (20120120A) NDS(VZ): REL-REF: ND/B->NDS                4153400100037 
ENDBIB              35          0                                 4153400100038 
COMMON               1          3                                 4153400100039 
EN-DUMMY                                                          4153400100040 
EV                                                                4153400100041 
     1.E+06                                                       4153400100042 
ENDCOMMON            3          0                                 4153400100043 
ENDSUBENT           42          0                                 4153400199999 
SUBENT        41534002   20100202                             41494153400200001 
BIB                  6         25                                 4153400200002 
REACTION   (64-GD-160(N,INL)64-GD-160,,SPC,,FIS/REL)              4153400200003 
            Relative intensities of gamma-lines (arb.units) .     4153400200004 
            Relative to gamma-line 173.24 keV taken for 100.      4153400200005 
EN-SEC     (E,G) Gamma energy .                                   4153400200006 
             (LVL-INI,64-GD-160) Energy of initial level .        4153400200007 
ERR-ANALYS (DATA-ERR) Errors are not specified .                  4153400200008 
ANALYSIS    Energies in data lines from the spectrum measured at  4153400200009 
            an angle of 90 deg with respect to neutron-beam axis  4153400200010 
            and intensities from the spectrum at an angle 125 deg.4153400200011 
FLAG       (1.) 1569.+1644.                                       4153400200012 
           (2.) 1436.+1665.                                       4153400200013 
           (3.) 1532.+1691.                                       4153400200014 
           (4.) 1148.+1621.                                       4153400200015 
           (5.) LVL-INI in question.                              4153400200016 
           (6.) 1295.+1561.                                       4153400200017 
           (7.) 1351.+1599.                                       4153400200018 
           (8.) 1587.+1661.                                       4153400200019 
           (9.) Si-28                                             4153400200020 
           (10.) Multiplet.                                       4153400200021 
           (11.) + O-18.                                          4153400200022 
           (12.) 2136.(+2384.?)                                   4153400200023 
           (13.) 2283.+24.56.                                     4153400200024 
           (14.) Probably multiplet.                              4153400200025 
           (15.) 2472.+2547., probably multiplet.                 4153400200026 
STATUS     (TABLE) From Table 1 of J,YF,72,(11),1859,2009 .       4153400200027 
ENDBIB              25          0                                 4153400200028 
NOCOMMON             0          0                                 4153400200029 
DATA                 6        266                                 4153400200030 
E          E-ERR      DATA       DATA-ERR   LVL-INI    FLAG       4153400200031 
KEV        KEV        ARB-UNITS  ARB-UNITS  KEV        NO-DIM     4153400200032 
  75.28     0.02        38.       8.            75.               4153400200033 
 102.43     0.20         1.8      0.4                             4153400200034 
 173.24     0.03       100.                    249.               4153400200035 
 191.92     0.30         0.31     0.05                            4153400200036 
 197.07     0.25         0.79     0.16                            4153400200037 
 203.2      0.4          0.20     0.06        1261.               4153400200038 
 217.41     0.31         0.13     0.04        1569.      1.       4153400200039 
 224.96     0.12         0.92     0.07        1295.               4153400200040 
 229.4      0.5          0.14     0.04                            4153400200041 
 247.4      0.5          0.14     0.4                             4153400200042 
 253.13     0.20         0.34     0.05                            4153400200043 
 264.1      0.4          0.68     0.14                            4153400200044 
 266.31     0.04        17.3      0.5          515.               4153400200045 
 283.51     0.20         0.61     0.06                            4153400200046 
 288.21     0.25         0.41     0.06        1436.      2.       4153400200047 
 293.76     0.17         0.57     0.06        1584.               4153400200048 
 302.1      0.5          0.23     0.04                            4153400200049 
 309.0      0.5          0.29     0.05        1599.               4153400200050 
 319.2      0.6          0.10     0.04        1377.               4153400200051 
 353.19     0.09         1.46     0.09         868.               4153400200052 
 355.93     0.13         0.75     0.06                            4153400200053 
 363.16     0.15         0.84     0.09                            4153400200054 
 365.56     0.24         0.46     0.08                            4153400200055 
 367.24     0.13         1.33     0.10                            4153400200056 
 374.6      0.4          0.27     0.04        1599.               4153400200057 
 384.02     0.10         1.17     0.07        1532.               4153400200058 
 397.10     0.17         0.64     0.06                            4153400200059 
 402.8      0.5          0.10     0.04                            4153400200060 
 408.55     0.13         0.86     0.06                            4153400200061 
 412.66     0.07         2.15     0.04                            4153400200062 
 427.5      0.6          0.20     0.04                            4153400200063 
 432.82     0.09         1.52     0.08                            4153400200064 
 437.91     0.20         0.31     0.05                            4153400200065 
 441.51     0.22         0.27     0.04        1499.               4153400200066 
 444.9      0.4          0.12     0.04                            4153400200067 
 453.9      0.4          0.093    0.031                           4153400200068 
 466.95     0.12         0.49     0.05                            4153400200069 
 476.82     0.28         0.29     0.05                            4153400200070 
 521.44     0.17         0.25     0.04                            4153400200071 
 523.9      0.7          0.08     0.04                            4153400200072 
 541.40     0.12         0.60     0.06        1599.               4153400200073 
 543.37     0.11         0.73     0.06        1532.      3.       4153400200074 
 555.6      0.5          0.14     0.04        1070.               4153400200075 
 560.0      0.7          0.10     0.04        1996.               4153400200076 
 563.99     0.15         0.96     0.14        1621.               4153400200077 
 566.3      0.5          0.12     0.04                            4153400200078 
 580.11     0.07         1.17     0.07        1569.               4153400200079 
 601.8      0.7          0.153    0.33                            4153400200080 
 608.06     0.20         0.35     0.07                            4153400200081 
 610.01     0.30         0.40     0.05                            4153400200082 
 618.44     0.23         0.43     0.04                            4153400200083 
 622.3      0.8          0.08     0.04                            4153400200084 
 632.82     0.08         3.90     0.24        1148.      4.       4153400200085 
 634.18     0.20         1.29     0.13        1691.               4153400200086 
 636.1      0.6          0.10     0.04                            4153400200087 
 640.80     0.26         0.20     0.04                            4153400200088 
 658.20     0.12         0.59     0.06        1173.               4153400200089 
 660.5      0.5          0.15     0.04                            4153400200090 
 663.4      0.6          0.08     0.04        1720.               4153400200091 
 668.66     0.30         0.20     0.04                            4153400200092 
 702.82     0.08         1.31     0.08        1691.               4153400200093 
 706.87     0.24         0.31     0.05                            4153400200094 
 709.06     0.12         0.53     0.06                            4153400200095 
 725.12     0.08         0.89     0.06                            4153400200096 
 727.0      0.4          0.15     0.05                            4153400200097 
 729.8      0.8          0.08     0.04                            4153400200098 
 731.93     0.09         0.86     0.06        1720.               4153400200099 
 734.50     0.13         0.42     0.05        1805.               4153400200100 
 736.2      0.4          0.17     0.04                            4153400200101 
 739.96     0.10         0.99     0.08         989.      5.       4153400200102 
 743.39     0.07         1.57     0.09        1732.               4153400200103 
 746.21     0.08         0.95     0.07        1261.               4153400200104 
 747.82     0.29         0.25     0.04        1805.               4153400200105 
 769.18     0.22         0.25     0.04                            4153400200106 
 777.0      0.8          0.10     0.04                            4153400200107 
 780.66     0.13         0.61     0.06        1295.               4153400200108 
 789.0      1.1          0.08     0.04                            4153400200109 
 794.00     0.23         0.18     0.04                            4153400200110 
 806.0      0.5          0.15     0.04                            4153400200111 
 808.94     0.03         5.20     0.21        1057.               4153400200112 
 816.43     0.07         0.99     0.07        1805.               4153400200113 
 821.92     0.02        11.9      0.4         1070.               4153400200114 
 838.3      0.7          0.11     0.04                            4153400200115 
 841.96     0.14         0.55     0.06                            4153400200116 
 854.9      0.7          0.13     0.04                            4153400200117 
 858.9      0.7          0.12     0.04                            4153400200118 
 865.66     0.30         0.35     0.05                            4153400200119 
 874.42     0.28         0.33     0.04        1932.               4153400200120 
 878.17     0.8          1.21     0.07        1393.               4153400200121 
 883.85     0.08         1.28     0.07                            4153400200122 
 899.47     0.02         8.33     0.25        1148.               4153400200123 
 906.65     0.33         0.26     0.04                            4153400200124 
 908.04     0.10         0.60     0.05                            4153400200125 
 913.27     0.02        21.0      0.5          989.               4153400200126 
 924.59     0.03         4.72     0.16        1173.               4153400200127 
 932.55     0.17         0.46     0.04                            4153400200128 
 939.72     0.30         0.19     0.04                            4153400200129 
 943.76     0.12         0.32     0.05                            4153400200130 
 945.34     0.35         0.145    0.035                           4153400200131 
 952.03     0.06         1.08     0.06                            4153400200132 
 959.38     0.22         0.40     0.05                            4153400200133 
 964.2      0.7          0.10     0.04                            4153400200134 
 968.10     0.15         0.48     0.04                            4153400200135 
 973.40     0.26         0.29     0.04        2031.               4153400200136 
 976.81     0.16         0.39     0.05                            4153400200137 
 982.16     0.02        21.4      0.5         1057.               4153400200138 
 988.56     0.02        18.7      0.5          989.               4153400200139 
 995.16     0.03         7.06     0.21        1070.               4153400200140 
 997.77     0.14         0.50     0.05                            4153400200141 
1001.27     0.19         0.38     0.04                            4153400200142 
1007.86     0.24         0.24     0.04        1996.               4153400200143 
1012.46     0.03         4.49     0.15        1261.               4153400200144 
1017.7      0.4          0.155    0.032                           4153400200145 
1025.88     0.14         0.43     0.04                            4153400200146 
1028.0      0.5          0.09     0.04                            4153400200147 
1033.40     0.08         0.48     0.05        1548.               4153400200148 
1041.27     0.03         4.58     0.15        1290.               4153400200149 
1046.62     0.05         1.72     0.07        1295.      6.       4153400200150 
1051.72     0.20         0.250    0.035       2109.               4153400200151 
1057.9      0.7          0.104    0.031       2283.               4153400200152 
1059.46     0.21         0.203    0.035                           4153400200153 
1072.74     0.03         4.85     0.15        1148.               4153400200154 
1087.30     0.32         0.116    0.026                           4153400200155 
1105.80     0.30         0.26     0.04                            4153400200156 
1112.9      0.6          0.086    0.031                           4153400200157 
1116.42     0.24         0.18     0.04                            4153400200158 
1120.52     0.21         0.24     0.04        2109.               4153400200159 
1129.51     0.13         0.37     0.04        1644.               4153400200160 
1132.7      0.8          0.052    0.020       1648.               4153400200161 
1138.44     0.16         0.70     0.05        1653.               4153400200162 
1141.8      0.5          0.37     0.08                            4153400200163 
1144.63     0.25         0.70     0.05        1393.               4153400200164 
1148.98     0.03         9.86     0.26        1224.               4153400200165 
1153.54     0.35         0.28     0.04        2302.               4153400200166 
1170.0      0.4          0.101    0.025                           4153400200167 
1178.90     0.04         2.09     0.08        1427.               4153400200168 
1184.8      0.7          0.60     0.17                            4153400200169 
1187.76     0.04         4.86     0.27        1436.               4153400200170 
1197.01     0.20         0.40     0.05                            4153400200171 
1208.9      0.4          0.138    0.028                           4153400200172 
1214.43     0.05         6.8      0.5         1290.               4153400200173 
1215.42     0.10         3.8      0.5         1464.               4153400200174 
1217.27     0.20         0.49     0.05                            4153400200175 
1222.37     0.14         0.46     0.04                            4153400200176 
1224.21     0.03         7.15     0.21        1224.               4153400200177 
1233.72     0.20         0.51     0.04                            4153400200178 
1250.34     0.04         3.45     0.12        1499.               4153400200179 
1256.91     0.22         0.174    0.034                           4153400200180 
1260.41     0.21         0.20     0.04                            4153400200181 
1270.62     0.34         0.159    0.031                           4153400200182 
1275.90     0.02         7.73     0.23        1351.               4153400200183 
1283.11     0.28         0.068    0.027       1532.               4153400200184 
1287.6      0.9          0.058    0.026                           4153400200185 
1298.46     0.32         0.184    0.034                           4153400200186 
1301.46     0.03         9.11     0.32        1377.               4153400200187 
1304.27     0.04         3.17     0.14        1380.               4153400200188 
1312.99     0.07         1.09     0.05        1561.               4153400200189 
1323.02     0.11         0.33     0.04                            4153400200190 
1327.30     0.18         0.290    0.031                           4153400200191 
1338.79     0.30         0.158    0.030                           4153400200192 
1344.1      0.4          0.095    0.027                           4153400200193 
1350.98     0.04         2.18     0.08        1351.      7.       4153400200194 
1361.06     0.05         1.80     0.07        1436.               4153400200195 
1388.56     0.04         2.70     0.08        1464.               4153400200196 
1395.9      0.4          0.107    0.026                           4153400200197 
1399.4      0.4          0.102    0.026       1648.               4153400200198 
1404.75     0.08         0.695    0.035       1653.               4153400200199 
1410.0      0.9          0.075    0.027                           4153400200200 
1412.95     0.025        0.24     0.04        1661.               4153400200201 
1416.66     0.06         0.95     0.06        1665.               4153400200202 
1420.32     0.20         0.24     0.04                            4153400200203 
1436.16     0.07         0.94     0.05        1436.               4153400200204 
1442.99     0.34         0.120    0.025       1691.               4153400200205 
1471.92     0.33         0.072    0.025       1720.               4153400200206 
1474.93     0.25         0.189    0.028                           4153400200207 
1483.08     0.08         1.00     0.05        1558.               4153400200208 
1493.39     0.07         1.18     0.06        1569.               4153400200209 
1511.40     0.07         1.08     0.05        1587.               4153400200210 
1523.54     0.06         1.44     0.07        1599.               4153400200211 
1539.8      1.0          0.100    0.030                           4153400200212 
1543.42     0.32         0.29     0.04                            4153400200213 
1568.70     0.07         1.47     0.07        1569.               4153400200214 
1572.68     0.08         1.33     0.07        1648.               4153400200215 
1581.60     0.33         0.133    0.029                           4153400200216 
1586.50     0.05         3.27     0.12        1587.      8.       4153400200217 
1589.69     0.08         0.93     0.05        1665.               4153400200218 
1598.81     0.07         1.21     0.06        1599.               4153400200219 
1617.5      0.6          0.139    0.028                           4153400200220 
1656.4      0.4          0.195    0.030       1732.               4153400200221 
1683.22     0.21         0.256    0.032       1932.               4153400200222 
1697.6      0.4          0.140    0.028                           4153400200223 
1716.94     0.21         0.302    0.034                           4153400200224 
1721.2      0.9          0.071    0.028       1970.               4153400200225 
1729.16     0.35         0.197    0.035       1805.               4153400200226 
1734.9      0.5          0.149    0.030                           4153400200227 
1768.0      0.6          0.107    0.030                           4153400200228 
1779.17     0.16         0.44     0.04                   9.       4153400200229 
1782.08     0.35         0.165    0.031       2031.               4153400200230 
1805.51     0.25         0.33     0.04        1805.      5.       4153400200231 
1811.11     0.09         1.00     0.06        2060.               4153400200232 
1856.63     0.13         0.63     0.05        1932.               4153400200233 
1860.31     0.16         0.40     0.04                            4153400200234 
1879.49     0.30         0.189    0.030                           4153400200235 
1891.26     0.12         0.85     0.06        1967.               4153400200236 
1894.39     0.16         0.54     0.05        1970.               4153400200237 
1913.34     0.35         0.186    0.030                  10.      4153400200238 
1931.94     0.29         0.26     0.04        1932.               4153400200239 
1940.72     0.20         0.32     0.04                            4153400200240 
1951.0      0.6          0.123    0.031                           4153400200241 
1955.28     0.14         0.65     0.05        2031.               4153400200242 
1958.19     0.25         0.31     0.04                            4153400200243 
1966.52     0.15         0.49     0.05        1967.               4153400200244 
1969.65     0.20         0.55     0.05        1970.               4153400200245 
1972.4      0.6          0.14     0.04                            4153400200246 
1977.41     0.31         0.18     0.04                            4153400200247 
1980.5      0.6          0.087    0.035                           4153400200248 
1983.68     0.16         0.58     0.05                   11.      4153400200249 
2006.88     0.21         0.46     0.04                   10.      4153400200250 
2034.17     0.12         0.72     0.05        2109.      10.      4153400200251 
2043.62     0.28         0.134    0.027       2119.               4153400200252 
2052.88     0.24         0.157    0.029                           4153400200253 
2060.44     0.10         0.66     0.05        2136.      10.      4153400200254 
2079.61     0.29         0.245    0.033                           4153400200255 
2087.45     0.14         0.44     0.04        2163.               4153400200256 
2109.36     0.17         0.36     0.04        2109.               4153400200257 
2113.40     0.16         0.41     0.04        2362.               4153400200258 
2118.89     0.21         0.37     0.04        2119.               4153400200259 
2129.15     0.24         0.33     0.04                            4153400200260 
2131.06     0.28         0.45     0.04                            4153400200261 
2135.70     0.33         0.31     0.04        2136.      12.      4153400200262 
2154.4      0.6          0.095    0.030                           4153400200263 
2157.31     0.32         0.27     0.04                            4153400200264 
2162.58     0.22         0.39     0.04        2163.               4153400200265 
2170.6      0.5          0.17     0.04                   10.      4153400200266 
2178.15     0.35         0.26     0.04                            4153400200267 
2181.1      0.5          0.146    0.033                           4153400200268 
2191.4      0.4          0.145    0.030                           4153400200269 
2196.0      0.6          0.136    0.028       2445.               4153400200270 
2200.99     0.24         0.229    0.035                           4153400200271 
2204.5      0.4          0.145    0.035                           4153400200272 
2207.47     0.31         0.27     0.04        2283.      13.      4153400200273 
2227.73     0.17         0.41     0.04                            4153400200274 
2242.29     0.16         0.48     0.04                            4153400200275 
2261.13     0.24         0.25     0.04                            4153400200276 
2269.8      0.9          0.096    0.029                           4153400200277 
2272.5      0.7          0.147    0.033       2347.               4153400200278 
2277.4      0.4          0.28     0.04                            4153400200279 
2282.6      0.4          0.26     0.04        2283.               4153400200280 
2286.51     0.26         0.35     0.04        2362.               4153400200281 
2301.53     0.17         0.66     0.05        2302.      10.      4153400200282 
2308.3      0.6          0.158    0.035       2384.      10.      4153400200283 
2317.7      0.4          0.121    0.036                           4153400200284 
2332.76     0.17         0.35     0.04                            4153400200285 
2347.3      0.4          0.236    0.034       2347.               4153400200286 
2369.64     0.34         0.230    0.034       2445.               4153400200287 
2373.9      0.4          0.197    0.033                           4153400200288 
2380.3      0.8          0.108    0.030       2456.               4153400200289 
2395.2      0.5          0.150    0.027       2472.      10.      4153400200290 
2464.5      0.5          0.141    0.031                  14.      4153400200291 
2471.81     0.35         0.26     0.04        2472.      15.      4153400200292 
2481.6      0.6          0.120    0.024                           4153400200293 
2514.1      0.7          0.200    0.026                           4153400200294 
2519.4      0.9          0.090    0.027                           4153400200295 
2522.4      0.5          0.157    0.032                           4153400200296 
2537.55     0.35         0.291    0.029                           4153400200297 
2547.0      0.5          0.120    0.024       2547.               4153400200298 
ENDDATA            268          0                                 4153400200299 
ENDSUBENT          298          0                                 4153400299999 
SUBENT        41534003   20100202                             41494153400300001 
BIB                  5          8                                 4153400300002 
REACTION   (64-GD-160(N,INL)64-GD-160,PAR,DA,G,LEG/RS/FIS)        4153400300003 
            Legendre coefficients of Angular distribution .       4153400300004 
EN-SEC     (E,G) Gamma energy                                     4153400300005 
            (LVL-INI,64-GD-160)                                   4153400300006 
ERR-ANALYS (DATA-ERR) Uncertainties of Legendre coefficients      4153400300007 
            correspond to 68% confidence interval.                4153400300008 
FLAG       (1.) Duplet.                                           4153400300009 
STATUS     (TABLE) Table 2 of J,YF,72,(11),1859,2009 .            4153400300010 
ENDBIB               8          0                                 4153400300011 
NOCOMMON             0          0                                 4153400300012 
DATA                 7        138                                 4153400300013 
E          NUMBER     DATA       DATA-ERR   FLAG       LVL-INI    4153400300014 
LVL-INI-ER                                                        4153400300015 
KEV        NO-DIM     NO-DIM     NO-DIM     NO-DIM     KEV        4153400300016 
KEV                                                               4153400300017 
  173.24     2.          0.195    0.016                 248.52    4153400300018 
 0.03                                                             4153400300019 
  173.24     4.         -0.006    0.022                 248.52    4153400300020 
 0.03                                                             4153400300021 
  266.31     2.          0.233    0.019                 514.83    4153400300022 
 0.05                                                             4153400300023 
  266.31     4.         -0.047    0.028                 514.83    4153400300024 
 0.05                                                             4153400300025 
  384.02     2.          0.07     0.04                 1532.01    4153400300026 
 0.11                                                             4153400300027 
  384.02     4.         -0.01     0.06                 1532.01    4153400300028 
 0.11                                                             4153400300029 
  412.66     2.         -0.27     0.04                 1996.42    4153400300030 
 0.24                                                             4153400300031 
  412.66     4.         -0.08     0.06                 1996.42    4153400300032 
 0.24                                                             4153400300033 
  541.40     2.          0.02     0.06                 1598.83    4153400300034 
 0.06                                                             4153400300035 
  541.40     4.          0.12     0.09                 1598.83    4153400300036 
 0.06                                                             4153400300037 
  543.37     2.         -0.10     0.06         1.      1691.42    4153400300038 
 0.08                                                             4153400300039 
  543.37     2.         -0.10     0.06         1.      1532.01    4153400300040 
 0.11                                                             4153400300041 
  543.37     4.          0.01     0.09         1.      1691.42    4153400300042 
 0.08                                                             4153400300043 
  543.37     4.          0.01     0.08         1.      1532.01    4153400300044 
 0.11                                                             4153400300045 
  563.99     2.          0.10     0.04                 1621.44    4153400300046 
 0.15                                                             4153400300047 
  563.99     4.         -0.01     0.06                 1621.44    4153400300048 
 0.15                                                             4153400300049 
  580.11     2.         -0.095    0.035                1568.69    4153400300050 
 0.07                                                             4153400300051 
  580.11     4.         -0.038    0.051                1568.69    4153400300052 
 0.07                                                             4153400300053 
  702.82     2.         -0.12     0.04                 1691.42    4153400300054 
 0.08                                                             4153400300055 
  702.82     4.          0.03     0.05                 1691.42    4153400300056 
 0.08                                                             4153400300057 
  731.93     2.         -0.17     0.06                 1720.49    4153400300058 
 0.09                                                             4153400300059 
  731.93     4.         -0.03     0.08                 1720.49    4153400300060 
 0.09                                                             4153400300061 
  739.96     2.          0.18     0.05                  988.56    4153400300062 
 0.02                                                             4153400300063 
  739.96     4.         -0.11     0.07                  988.56    4153400300064 
 0.02                                                             4153400300065 
  743.39     2.          0.25     0.04                 1731.95    4153400300066 
 0.07                                                             4153400300067 
  743.39     4.         -0.01     0.05                 1731.95    4153400300068 
 0.07                                                             4153400300069 
  746.21     2.         -0.14     0.05                 1261.00    4153400300070 
 0.04                                                             4153400300071 
  746.21     4.          0.05     0.07                 1261.00    4153400300072 
 0.04                                                             4153400300073 
  808.94     2.         -0.101    0.011                1057.45    4153400300074 
 0.03                                                             4153400300075 
  808.94     4.          0.024    0.016                1057.45    4153400300076 
 0.03                                                             4153400300077 
  816.43     2.         -0.27     0.04                 1804.99    4153400300078 
 0.07                                                             4153400300079 
  816.43     4.          0.02     0.06                 1804.99    4153400300080 
 0.07                                                             4153400300081 
  821.92     2.         -0.069    0.007                1070.44    4153400300082 
 0.04                                                             4153400300083 
  821.92     4.         -0.022    0.010                1070.44    4153400300084 
 0.04                                                             4153400300085 
  878.17     2.         -0.26     0.04                 1393.02    4153400300086 
 0.09                                                             4153400300087 
  878.17     4.         -0.25     0.06                 1393.02    4153400300088 
 0.09                                                             4153400300089 
  899.47     2.         -0.147    0.008                1148.01    4153400300090 
 0.04                                                             4153400300091 
  899.47     4.         -0.090    0.012                1148.01    4153400300092 
 0.04                                                             4153400300093 
  913.27     2.         -0.058    0.006                 988.56    4153400300094 
 0.02                                                             4153400300095 
  913.27     4.         -0.018    0.008                 988.56    4153400300096 
 0.02                                                             4153400300097 
  924.59     2.          0.033    0.012                1173.11    4153400300098 
 0.04                                                             4153400300099 
  924.59     4.          0.108    0.018                1173.11    4153400300100 
 0.04                                                             4153400300101 
  982.16     2.          0.089    0.006                1057.45    4153400300102 
 0.03                                                             4153400300103 
  982.16     4.          0.093    0.009                1057.45    4153400300104 
 0.03                                                             4153400300105 
  988.56     2.          0.230    0.005                 988.56    4153400300106 
 0.02                                                             4153400300107 
  988.56     4.         -0.048    0.007                 988.56    4153400300108 
 0.02                                                             4153400300109 
  995.16     2.          0.079    0.022                1070.44    4153400300110 
 0.04                                                             4153400300111 
  995.16     4.         -0.015    0.018                1070.44    4153400300112 
 0.04                                                             4153400300113 
 1012.46     2.          0.027    0.011                1261.00    4153400300114 
 0.04                                                             4153400300115 
 1012.46     4.          0.175    0.016                1261.00    4153400300116 
 0.04                                                             4153400300117 
 1041.27     2.         -0.169    0.009                1289.76    4153400300118 
 0.04                                                             4153400300119 
 1041.27     4.         -0.025    0.016                1289.76    4153400300120 
 0.04                                                             4153400300121 
 1046.62     2.          0.123    0.024        1.      1561.48    4153400300122 
 0.07                                                             4153400300123 
 1046.62     2.          0.123    0.024        1.      1295.44    4153400300124 
 0.13                                                             4153400300125 
 1046.62     4.         -0.130    0.035        1.      1295.44    4153400300126 
 0.13                                                             4153400300127 
 1046.62     4.         -0.130    0.035        1.      1561.48    4153400300128 
 0.07                                                             4153400300129 
 1072.74     2.          0.285    0.013                1148.01    4153400300130 
 0.04                                                             4153400300131 
 1072.74     4.         -0.056    0.019                1148.01    4153400300132 
 0.04                                                             4153400300133 
 1138.40     2.         -0.08     0.06                 1653.28    4153400300134 
 0.08                                                             4153400300135 
 1138.40     4.         -0.06     0.09                 1653.28    4153400300136 
 0.08                                                             4153400300137 
 1144.63     2.          0.36     0.05                 1393.02    4153400300138 
 0.09                                                             4153400300139 
 1144.63     4.          0.06     0.07                 1393.02    4153400300140 
 0.09                                                             4153400300141 
 1148.98     2.         -0.012                         1224.23    4153400300142 
 0.02                                                             4153400300143 
 1148.98     4.          0.0                           1224.23    4153400300144 
 0.02                                                             4153400300145 
 1178.90     2.         -0.254    0.019                1427.42    4153400300146 
 0.05                                                             4153400300147 
 1178.90     4.         -0.019    0.028                1427.42    4153400300148 
 0.05                                                             4153400300149 
 1187.76     2.          0.054    0.010                1436.28    4153400300150 
 0.05                                                             4153400300151 
 1187.76     4.         -0.015    0.014                1436.28    4153400300152 
 0.05                                                             4153400300153 
 1224.21     2.         -0.125    0.010                1224.23    4153400300154 
 0.02                                                             4153400300155 
 1224.21     4.         -0.012    0.015                1224.23    4153400300156 
 0.02                                                             4153400300157 
 1250.34     2.          0.298    0.015                1498.87    4153400300158 
 0.05                                                             4153400300159 
 1250.34     4.          0.008    0.021                1498.87    4153400300160 
 0.05                                                             4153400300161 
 1275.90     2.         -0.039    0.008                1351.18    4153400300162 
 0.03                                                             4153400300163 
 1275.90     4.         -0.010    0.012                1351.18    4153400300164 
 0.03                                                             4153400300165 
 1301.46     2.          0.132    0.007                1376.74    4153400300166 
 0.04                                                             4153400300167 
 1301.46     4.         -0.015    0.010                1376.74    4153400300168 
 0.04                                                             4153400300169 
 1304.27     2.          0.000    0.014                1379.55    4153400300170 
 0.04                                                             4153400300171 
 1304.27     4.         -0.009    0.021                1379.55    4153400300172 
 0.04                                                             4153400300173 
 1312.99     2.          0.353    0.035                1561.48    4153400300174 
 0.07                                                             4153400300175 
 1312.99     4.         -0.044    0.048                1561.48    4153400300176 
 0.07                                                             4153400300177 
 1350.98     2.         -0.075    0.019        1.      1351.18    4153400300178 
 0.03                                                             4153400300179 
 1350.98     4.         -0.032    0.028        1.      1351.18    4153400300180 
 0.03                                                             4153400300181 
 1361.06     2.          0.202    0.022                1436.28    4153400300182 
 0.05                                                             4153400300183 
 1361.06     4.          0.013    0.032                1436.28    4153400300184 
 0.05                                                             4153400300185 
 1388.56     2.         -0.235    0.016                1463.87    4153400300186 
 0.05                                                             4153400300187 
 1388.56     4.          0.012    0.024                1463.87    4153400300188 
 0.05                                                             4153400300189 
 1404.75     2.         -0.31     0.05                 1653.28    4153400300190 
 0.08                                                             4153400300191 
 1404.75     4.          0.00     0.07                 1653.28    4153400300192 
 0.08                                                             4153400300193 
 1416.66     2.         -0.50     0.04                 1665.08    4153400300194 
 0.08                                                             4153400300195 
 1416.66     4.          0.04     0.06                 1665.08    4153400300196 
 0.08                                                             4153400300197 
 1436.16     2.          0.318    0.030                1436.28    4153400300198 
 0.05                                                             4153400300199 
 1436.16     4.         -0.077    0.046                1436.28    4153400300200 
 0.05                                                             4153400300201 
 1483.08     2.         -0.012    0.036                1558.37    4153400300202 
 0.08                                                             4153400300203 
 1483.08     4.         -0.033    0.048                1558.37    4153400300204 
 0.08                                                             4153400300205 
 1493.39     2.         -0.085    0.035                1568.69    4153400300206 
 0.07                                                             4153400300207 
 1493.39     4.          0.043    0.051                1568.69    4153400300208 
 0.07                                                             4153400300209 
 1511.40     2.          0.047    0.033                1586.69    4153400300210 
 0.07                                                             4153400300211 
 1511.40     4.         -0.022    0.048                1586.69    4153400300212 
 0.07                                                             4153400300213 
 1523.54     2.         -0.216    0.026                1598.83    4153400300214 
 0.06                                                             4153400300215 
 1523.54     4.         -0.040    0.036                1598.83    4153400300216 
 0.06                                                             4153400300217 
 1568.70     2.         -0.113    0.027                1568.69    4153400300218 
 0.07                                                             4153400300219 
 1568.70     4.         -0.024    0.039                1568.69    4153400300220 
 0.07                                                             4153400300221 
 1572.68     2.          0.245    0.030                1647.97    4153400300222 
 0.08                                                             4153400300223 
 1572.68     4.         -0.025    0.043                1647.97    4153400300224 
 0.08                                                             4153400300225 
 1586.50     2.          0.100    0.016        1.      1586.69    4153400300226 
 0.07                                                             4153400300227 
 1586.50     4.         -0.039    0.023        1.      1586.69    4153400300228 
 0.07                                                             4153400300229 
 1589.69     2.         -0.59     0.04                 1665.08    4153400300230 
 0.08                                                             4153400300231 
 1589.69     4.          0.02     0.06                 1665.08    4153400300232 
 0.08                                                             4153400300233 
 1598.81     2.          0.260    0.034                1598.83    4153400300234 
 0.06                                                             4153400300235 
 1598.81     4.         -0.127    0.048                1598.83    4153400300236 
 0.06                                                             4153400300237 
 1805.51     2.          0.18     0.11                 1804.99    4153400300238 
 0.07                                                             4153400300239 
 1805.51     4.          0.12     0.15                 1804.99    4153400300240 
 0.07                                                             4153400300241 
 1811.11     2.         -0.10     0.04                 2059.64    4153400300242 
 0.10                                                             4153400300243 
 1811.11     4.          0.07     0.06                 2059.64    4153400300244 
 0.10                                                             4153400300245 
 1856.63     2.          0.30     0.07                 1931.89    4153400300246 
 0.13                                                             4153400300247 
 1856.63     4.         -0.03     0.09                 1931.89    4153400300248 
 0.13                                                             4153400300249 
 1891.26     2.         -0.02     0.04                 1966.54    4153400300250 
 0.12                                                             4153400300251 
 1891.26     4.         -0.02     0.06                 1966.54    4153400300252 
 0.12                                                             4153400300253 
 1894.39     2.          0.00     0.07                 1969.67    4153400300254 
 0.16                                                             4153400300255 
 1894.39     4.         -0.04     0.10                 1969.67    4153400300256 
 0.16                                                             4153400300257 
 1955.28     2.          0.19     0.07                 2030.63    4153400300258 
 0.14                                                             4153400300259 
 1955.28     4.          0.02     0.10                 2030.63    4153400300260 
 0.14                                                             4153400300261 
 2034.17     2.          0.07     0.06         1.      2109.37    4153400300262 
 0.12                                                             4153400300263 
 2034.17     4.         -0.01     0.09         1.      2109.37    4153400300264 
 0.12                                                             4153400300265 
 2060.44     2.         -0.11     0.05                 2135.73    4153400300266 
 0.10                                                             4153400300267 
 2060.44     4.          0.02     0.08                 2135.73    4153400300268 
 0.10                                                             4153400300269 
 2087.45     2.         -0.19     0.10                 2162.70    4153400300270 
 0.14                                                             4153400300271 
 2087.45     4.         -0.18     0.14                 2162.70    4153400300272 
 0.14                                                             4153400300273 
 2109.36     2.         -0.13     0.10                 2109.37    4153400300274 
 0.12                                                             4153400300275 
 2109.36     4.          0.02     0.14                 2109.37    4153400300276 
 0.12                                                             4153400300277 
 2113.40     2.          0.06     0.09                 2361.91    4153400300278 
 0.16                                                             4153400300279 
 2113.40     4.          0.06     0.13                 2361.91    4153400300280 
 0.16                                                             4153400300281 
 2118.89     2.          0.31     0.11                 2118.90    4153400300282 
 0.21                                                             4153400300283 
 2118.89     4.          0.06     0.14                 2118.90    4153400300284 
 0.21                                                             4153400300285 
 2162.58     2.         -0.09     0.10                 2162.70    4153400300286 
 0.14                                                             4153400300287 
 2162.58     4.         -0.09     0.15                 2162.70    4153400300288 
 0.14                                                             4153400300289 
 2301.53     2.          0.19     0.07                 2301.55    4153400300290 
 0.17                                                             4153400300291 
 2301.53     4.         -0.03     0.10                 2301.55    4153400300292 
 0.17                                                             4153400300293 
ENDDATA            280          0                                 4153400300294 
ENDSUBENT          293          0                                 4153400399999 
SUBENT        41534004   20100202                             41494153400400001 
BIB                  4          8                                 4153400400002 
REACTION   (64-GD-160(N,INL)64-GD-160,PAR,DA,G,LEG/RS/FIS)        4153400400003 
            Legendre coefficients of Angular distribution .       4153400400004 
            Initial levels were not defined for these gamma-lines 4153400400005 
            in existed level scheme.                              4153400400006 
EN-SEC     (E,G) Gamma energy                                     4153400400007 
            (LVL-INI,64-GD-160)                                   4153400400008 
ERR-ANALYS (DATA-ERR) Not explained.                              4153400400009 
STATUS     (TABLE) Table 3 of J,YF,72,(11),1859,2009 .            4153400400010 
ENDBIB               8          0                                 4153400400011 
NOCOMMON             0          0                                 4153400400012 
DATA                 4          8                                 4153400400013 
E          NUMBER     DATA       DATA-ERR                         4153400400014 
KEV        NO-DIM     NO-DIM     NO-DIM                           4153400400015 
 432.82     2.           -0.060    0.027                          4153400400016 
 432.82     4.            0.092    0.044                          4153400400017 
 883.85     2.            0.274    0.035                          4153400400018 
 883.85     4.            0.063    0.050                          4153400400019 
 952.03     2.            0.17     0.04                           4153400400020 
 952.03     4.            0.03     0.06                           4153400400021 
1860.31     2.            0.15     0.09                           4153400400022 
1860.31     4.           -0.02     0.14                           4153400400023 
ENDDATA             10          0                                 4153400400024 
ENDSUBENT           23          0                                 4153400499999 
ENDENTRY             4          0                                 4153499999999 
