ENTRY            41549   20120114                             41564154900000001 
SUBENT        41549001   20120114                             41564154900100001 
BIB                 10         21                                 4154900100002 
TITLE       Investigation of interference minima near s-wave      4154900100003 
           resonances of U-238.                                   4154900100004 
AUTHOR     (T.L.Enik, L.V.Mitsyna, G.S.Samosvat, V.V.Sinitsa)     4154900100005 
INSTITUTE  (4ZZZDUB) T.L.Enik, L.V.Mitsyna, G.S.Samosvat          4154900100006 
           (4RUSFEI) V.V.Sinitsa                                  4154900100007 
REFERENCE  ((S,ISINN-8,371,2000)=(S,JINR-E3-2000-192,371,2000))   4154900100008 
           (J,NIM/A,440,777,2000)                                 4154900100009 
            Details of UGRA, U-238 raw spectra.                   4154900100010 
FACILITY   (REAC,4ZZZDUB)  IBR-30 fast pulse reactor.             4154900100011 
METHOD     (TOF)  Flight path is 250.8 m,                         4154900100012 
                  time resolution about 24 ns/m .                 4154900100013 
INC-SOURCE (REAC) Neutron beam of cross section of 22*12 cm**2.   4154900100014 
SAMPLE      Metallic uranium sample depleted with U-235 isotope   4154900100015 
           with thickness of 3 or 1 mm.                           4154900100016 
DETECTOR   (SPEC,PROPC) UGRA neutron spectrometer .               4154900100017 
           Two batteries of He-3 counters to detect scattered     4154900100018 
           neutrons; could be set at any of nine positions,       4154900100019 
           providing a scattering angle between 25 and 155 degrees4154900100020 
           with +-4 degrees uncertainty.                          4154900100021 
HISTORY    (20101203C)                                            4154900100022 
           (20120215A) Digitized data were added.                 4154900100023 
ENDBIB              21          0                                 4154900100024 
NOCOMMON             0          0                                 4154900100025 
ENDSUBENT           24          0                                 4154900199999 
SUBENT        41549002   20120114                             41564154900200001 
BIB                  4          8                                 4154900200002 
REACTION   (92-U-238(N,SCT)92-U-238,,SIG)                         4154900200003 
METHOD      Measured at 90 deg scattering angle near 36.68 eV     4154900200004 
           resonance.                                             4154900200005 
ERR-ANALYS (EN-ERR-DIG) Digitizing error of EN.                   4154900200006 
           (ERR-DIG)    Digitizing error of DATA.                 4154900200007 
           (DATA-ERR)   Error bar digitized.                      4154900200008 
STATUS     (CURVE)  Fig.2 top, black points of S,ISINN-8,371,2000.4154900200009 
           (UNOBT)                                                4154900200010 
ENDBIB               8          0                                 4154900200011 
COMMON               3          3                                 4154900200012 
EN-ERR-DIG ERR-DIG    EN-RSL-FW                                   4154900200013 
EV         B          EV                                          4154900200014 
0.0030     0.0085      0.262                                      4154900200015 
ENDCOMMON            3          0                                 4154900200016 
DATA                 3         15                                 4154900200017 
EN         DATA       DATA-ERR                                    4154900200018 
EV         B          B                                           4154900200019 
 32.681     3.188      0.306                                      4154900200020 
 32.886     3.270      0.287                                      4154900200021 
 33.093     2.412      0.287                                      4154900200022 
 33.306     2.820      0.307                                      4154900200023 
 33.520     2.518      0.306                                      4154900200024 
 33.735     1.814      0.287                                      4154900200025 
 33.954     1.647      0.249                                      4154900200026 
 34.168     1.038      0.268                                      4154900200027 
 34.395     1.351      0.268                                      4154900200028 
 34.614     0.800      0.249                                      4154900200029 
 34.842     0.115      0.249                                      4154900200030 
 35.068     0.639      0.249                                      4154900200031 
 35.299     0.703      0.268                                      4154900200032 
 35.533     2.435      0.326                                      4154900200033 
 35.768     6.144      0.403                                      4154900200034 
ENDDATA             17          0                                 4154900200035 
ENDSUBENT           34          0                                 4154900299999 
SUBENT        41549003   20120114                             41564154900300001 
BIB                  4          8                                 4154900300002 
REACTION   (92-U-238(N,SCT)92-U-238,,SIG)                         4154900300003 
METHOD      Measured at 155 deg scattering angle near 36.68 eV    4154900300004 
           resonance.                                             4154900300005 
ERR-ANALYS (EN-ERR-DIG) Digitizing error of EN.                   4154900300006 
           (ERR-DIG)    Digitizing error of DATA.                 4154900300007 
           (DATA-ERR)   Error bar digitized.                      4154900300008 
STATUS     (CURVE)  Fig.2 top, light points of S,ISINN-8,371,2000.4154900300009 
           (UNOBT)                                                4154900300010 
ENDBIB               8          0                                 4154900300011 
COMMON               3          3                                 4154900300012 
EN-ERR-DIG ERR-DIG    EN-RSL-FW                                   4154900300013 
EV         B          EV                                          4154900300014 
0.0030     0.0085      0.262                                      4154900300015 
ENDCOMMON            3          0                                 4154900300016 
DATA                 3         15                                 4154900300017 
EN         DATA       DATA-ERR                                    4154900300018 
EV         B          B                                           4154900300019 
 32.721     2.8632    0.15348                                     4154900300020 
 32.926     2.8492    0.19185                                     4154900300021 
 33.132     2.6434    0.21126                                     4154900300022 
 33.350     2.4571    0.19196                                     4154900300023 
 33.564     2.2323    0.17267                                     4154900300024 
 33.775     1.5661    0.17256                                     4154900300025 
 33.997     1.5142    0.19196                                     4154900300026 
 34.212     1.1551    0.15359                                     4154900300027 
 34.439    0.91146    0.17267                                     4154900300028 
 34.658    0.49493    0.15348                                     4154900300029 
 34.885    0.48151    0.15348                                     4154900300030 
 35.112    0.44890    0.17267                                     4154900300031 
 35.351     1.0114    0.17256                                     4154900300032 
 35.576     2.6479    0.19174                                     4154900300033 
 35.823     7.6234    0.28767                                     4154900300034 
ENDDATA             17          0                                 4154900300035 
ENDSUBENT           34          0                                 4154900399999 
SUBENT        41549004   20120114                             41564154900400001 
BIB                  4          8                                 4154900400002 
REACTION   (92-U-238(N,SCT)92-U-238,,SIG)                         4154900400003 
METHOD      Measured at 90 deg scattering angle near 20.87 eV     4154900400004 
           resonance.                                             4154900400005 
ERR-ANALYS (EN-ERR-DIG) Digitizing error of EN.                   4154900400006 
           (ERR-DIG)    Digitizing error of DATA.                 4154900400007 
           (DATA-ERR)   Error bar digitized.                      4154900400008 
STATUS     (CURVE)  Fig.2 middle, light points of S,ISINN-8,371,204154900400009 
           (UNOBT)                                                4154900400010 
ENDBIB               8          0                                 4154900400011 
COMMON               3          3                                 4154900400012 
EN-ERR-DIG ERR-DIG    EN-RSL-FW                                   4154900400013 
EV         B          EV                                          4154900400014 
0.0024      0.014      0.097                                      4154900400015 
ENDCOMMON            3          0                                 4154900400016 
DATA                 3         13                                 4154900400017 
EN         DATA       DATA-ERR                                    4154900400018 
EV         B          B                                           4154900400019 
 18.196     3.783      0.266                                      4154900400020 
 18.366     3.501      0.247                                      4154900400021 
 18.541     3.637      0.285                                      4154900400022 
 18.721     3.147      0.285                                      4154900400023 
 18.903     2.637      0.265                                      4154900400024 
 19.082     2.659      0.246                                      4154900400025 
 19.267     2.624      0.266                                      4154900400026 
 19.455     2.058      0.246                                      4154900400027 
 19.644     1.434      0.246                                      4154900400028 
 19.838     0.678      0.246                                      4154900400029 
 20.032     0.643      0.247                                      4154900400030 
 20.233     0.685      0.303                                      4154900400031 
 20.437     5.285      0.493                                      4154900400032 
ENDDATA             15          0                                 4154900400033 
ENDSUBENT           32          0                                 4154900499999 
SUBENT        41549005   20120114                             41564154900500001 
BIB                  4          8                                 4154900500002 
REACTION   (92-U-238(N,SCT)92-U-238,,SIG)                         4154900500003 
METHOD      Measured at 155 deg scattering angle near 20.87 eV    4154900500004 
           resonance.                                             4154900500005 
ERR-ANALYS (EN-ERR-DIG) Digitizing error of EN.                   4154900500006 
           (ERR-DIG)    Digitizing error of DATA.                 4154900500007 
           (DATA-ERR)   Error bar digitized.                      4154900500008 
STATUS     (CURVE)  Fig.2 middle, black points of S,ISINN-8,371,204154900500009 
           (UNOBT)                                                4154900500010 
ENDBIB               8          0                                 4154900500011 
COMMON               3          3                                 4154900500012 
EN-ERR-DIG ERR-DIG    EN-RSL-FW                                   4154900500013 
EV         B          EV                                          4154900500014 
0.0024      0.014      0.097                                      4154900500015 
ENDCOMMON            3          0                                 4154900500016 
DATA                 3         12                                 4154900500017 
EN         DATA       DATA-ERR                                    4154900500018 
EV         B          B                                           4154900500019 
 18.232     3.651      0.171                                      4154900500020 
 18.399     3.369      0.190                                      4154900500021 
 18.757     3.128      0.151                                      4154900500022 
 18.936     2.657      0.170                                      4154900500023 
 19.121     2.432      0.151                                      4154900500024 
 19.304     1.941      0.151                                      4154900500025 
 19.492     1.963      0.170                                      4154900500026 
 19.680     1.112      0.133                                      4154900500027 
 19.878     1.001      0.151                                      4154900500028 
 20.072     0.587      0.151                                      4154900500029 
 20.272     1.122      0.190                                      4154900500030 
 20.482     6.692      0.322                                      4154900500031 
ENDDATA             14          0                                 4154900500032 
ENDSUBENT           31          0                                 4154900599999 
SUBENT        41549006   20120114                             41564154900600001 
BIB                  4          9                                 4154900600002 
REACTION   (92-U-238(N,SCT)92-U-238,,SIG)                         4154900600003 
METHOD      Measured at 90 deg scattering angle near 6.674 eV     4154900600004 
           resonance.                                             4154900600005 
ERR-ANALYS (EN-ERR-DIG) Digitizing error of EN.                   4154900600006 
           (ERR-DIG)    Digitizing error of DATA.                 4154900600007 
           (DATA-ERR)   Error bar digitized.                      4154900600008 
STATUS     (CURVE)  Fig.2 bottom, light points of                 4154900600009 
                    S,ISINN-8,371,2000.                           4154900600010 
           (UNOBT)                                                4154900600011 
ENDBIB               9          0                                 4154900600012 
COMMON               3          3                                 4154900600013 
EN-ERR-DIG ERR-DIG    EN-RSL-FW                                   4154900600014 
EV         B          EV                                          4154900600015 
0.00032     0.0359     0.021                                      4154900600016 
ENDCOMMON            3          0                                 4154900600017 
DATA                 3         16                                 4154900600018 
EN         DATA       DATA-ERR                                    4154900600019 
EV         B          B                                           4154900600020 
 6.2603     2.723      0.740                                      4154900600021 
 6.2813     1.368      0.699                                      4154900600022 
 6.3019     3.387      0.740                                      4154900600023 
 6.3229     2.113      0.781                                      4154900600024 
 6.3440     1.375      0.781                                      4154900600025 
 6.3650     1.584      0.823                                      4154900600026 
 6.3870     0.846      0.905                                      4154900600027 
 6.4086     0.930      0.987                                      4154900600028 
 6.4296     2.703      1.111                                      4154900600029 
 6.4516     0.113      1.111                                      4154900600030 
 6.4731     0.239      1.358                                      4154900600031 
 6.4946     0.077      1.563                                      4154900600032 
 6.5170     2.014      2.016                                      4154900600033 
 6.5390     3.292      2.592                                      4154900600034 
 6.5605     6.669      3.621                                      4154900600035 
 6.5834     7.248      5.061                                      4154900600036 
ENDDATA             18          0                                 4154900600037 
ENDSUBENT           36          0                                 4154900699999 
SUBENT        41549007   20120114                             41564154900700001 
BIB                  4          8                                 4154900700002 
REACTION   (92-U-238(N,SCT)92-U-238,,SIG)                         4154900700003 
METHOD      Measured at 155 deg scattering angle near 6.674 eV    4154900700004 
           resonance.                                             4154900700005 
ERR-ANALYS (EN-ERR-DIG) Digitizing error of EN.                   4154900700006 
           (ERR-DIG)    Digitizing error of DATA.                 4154900700007 
           (DATA-ERR)   Error bar digitized.                      4154900700008 
STATUS     (CURVE)  Fig.2 bottom, black points of S,ISINN-8,371,204154900700009 
           (UNOBT)                                                4154900700010 
ENDBIB               8          0                                 4154900700011 
COMMON               3          3                                 4154900700012 
EN-ERR-DIG ERR-DIG    EN-RSL-FW                                   4154900700013 
EV         B          EV                                          4154900700014 
0.00032     0.0359     0.021                                      4154900700015 
ENDCOMMON            3          0                                 4154900700016 
DATA                 3         17                                 4154900700017 
EN         DATA       DATA-ERR                                    4154900700018 
EV         B          B                                           4154900700019 
 6.2467      2.310     0.452                                      4154900700020 
 6.2673      2.354     0.411                                      4154900700021 
 6.2879      2.109     0.452                                      4154900700022 
 6.3094      1.824     0.452                                      4154900700023 
 6.3304      1.415     0.452                                      4154900700024 
 6.3515      2.282     0.493                                      4154900700025 
 6.3725      1.461     0.493                                      4154900700026 
 6.3940      1.875     0.576                                      4154900700027 
 6.4151      1.178     0.576                                      4154900700028 
 6.4371      1.510     0.658                                      4154900700029 
 6.4586      1.636     0.740                                      4154900700030 
 6.4801      1.227     0.905                                      4154900700031 
 6.5021     -0.950     0.946                                      4154900700032 
 6.5245      2.138     1.358                                      4154900700033 
 6.5465      2.017     1.604                                      4154900700034 
 6.5680      6.135     2.222                                      4154900700035 
 6.5908     12.393     3.292                                      4154900700036 
ENDDATA             19          0                                 4154900700037 
ENDSUBENT           36          0                                 4154900799999 
ENDENTRY             7          0                                 4154999999999 
