ENTRY            41562   20110407                             41524156200000001 
SUBENT        41562001   20110407                             41524156200100001 
BIB                 10         18                                 4156200100002 
TITLE       Variations of fission fragment mass distributions in  4156200100003 
             238-U(n,f) reaction around vibrational resonances.   4156200100004 
AUTHOR     (A.A.Goverdovskiy,V.F.Mitrofanov, V.V.Ketlerov)        4156200100005 
INSTITUTE  (4RUSFEI)                                              4156200100006 
REFERENCE  (S,ISINN-8,298,2000) Main Reference, in English.       4156200100007 
REL-REF    (M,,H.W.Schmidt+,J,PR,137,837,1965)                    4156200100008 
            Method of detectors calibration.                      4156200100009 
           (M,,A.A.Goverdovskiy+,J,SNP,47,396,1987)               4156200100010 
           Procedure of corrections.                              4156200100011 
FACILITY   (VDG,4RUSFEI)    Electrostatic accelerator KG-2.5      4156200100012 
INC-SOURCE (P-T) T(P,N)He-3 neutron source. Solid tritium-titanium4156200100013 
            target of0.5 mg/cm**2 thickness.                      4156200100014 
SAMPLE     Thin film of U tetrafluoride (about 100 microg/cm**2)  4156200100015 
           deposited on Al oxide backing 40 microg/cm**2 thick    4156200100016 
           transparent.                                           4156200100017 
DETECTOR   (SIBAR) Silicon surface barrier semiconductor detectors4156200100018 
           calibrated by method of Schmidt using U-235 layer.     4156200100019 
HISTORY    (20110407C) M.M.                                       4156200100020 
ENDBIB              18          0                                 4156200100021 
COMMON               1          3                                 4156200100022 
EN-RSL                                                            4156200100023 
KEV                                                               4156200100024 
25.                                                               4156200100025 
ENDCOMMON            3          0                                 4156200100026 
ENDSUBENT           25          0                                 4156200199999 
SUBENT        41562002   20110407                             41524156200200001 
BIB                  3          4                                 4156200200002 
REACTION   (92-U-238(N,F)MASS,PRE,FY) Exp. mass spectra.          4156200200003 
ERR-ANALYS (DATA-ERR)  Errors are not specified                   4156200200004 
           (ERR-DIG)    Digitizing error of DATA.                 4156200200005 
STATUS     (CURVE) Fig.3 top of S,ISINN-8,298,2000                4156200200006 
ENDBIB               4          0                                 4156200200007 
COMMON               2          3                                 4156200200008 
EN         ERR-DIG                                                4156200200009 
MEV        PC/FIS                                                 4156200200010 
1.11       0.0105                                                 4156200200011 
ENDCOMMON            3          0                                 4156200200012 
DATA                 3         42                                 4156200200013 
MASS       DATA       DATA-ERR                                    4156200200014 
NO-DIM     PC/FIS     PC/FIS                                      4156200200015 
 120.       0.0192    0.0613                                      4156200200016 
 121.       0.0402    0.0585                                      4156200200017 
 122.       0.0222    0.0466                                      4156200200018 
 123.       0.0626    0.0780                                      4156200200019 
 124.       0.1227    0.0390                                      4156200200020 
 125.       0.1241    0.0587                                      4156200200021 
 126.       0.0866    0.0390                                      4156200200022 
 127.       0.3416    0.0780                                      4156200200023 
 128.       0.7529    0.1755                                      4156200200024 
 129.       1.3201    0.1952                                      4156200200025 
 130.       2.2778    0.2341                                      4156200200026 
 131.       3.2352    0.2733                                      4156200200027 
 132.       4.1148    0.2928                                      4156200200028 
 133.       5.1113    0.3318                                      4156200200029 
 134.       6.1860    0.3902                                      4156200200030 
 135.       6.7727    0.4099                                      4156200200031 
 136.       6.4621    0.3708                                      4156200200032 
 137.       6.1513    0.4099                                      4156200200033 
 138.       5.9772    0.3902                                      4156200200034 
 139.       5.6080    0.3707                                      4156200200035 
 140.       5.3558    0.3707                                      4156200200036 
 141.       5.0840    0.3318                                      4156200200037 
 142.       4.5197    0.3122                                      4156200200038 
 143.       4.5211    0.3123                                      4156200200039 
 144.       4.3860    0.3122                                      4156200200040 
 145.       4.1727    0.3124                                      4156200200041 
 146.       3.5303    0.2927                                      4156200200042 
 147.       3.0831    0.2927                                      4156200200043 
 148.       2.2846    0.2341                                      4156200200044 
 149.       1.9152    0.2340                                      4156200200045 
 150.       1.7802    0.2146                                      4156200200046 
 151.       1.4695    0.1951                                      4156200200047 
 152.       1.0027    0.1562                                      4156200200048 
 153.       0.6530    0.1366                                      4156200200049 
 154.       0.4788    0.1366                                      4156200200050 
 155.       0.4023    0.1366                                      4156200200051 
 156.       0.2866    0.0782                                      4156200200052 
 157.       0.0929    0.0587                                      4156200200053 
 158.       0.0359    0.0780                                      4156200200054 
 159.       0.0179    0.0780                                      4156200200055 
 160.       0.0013    0.1367                                      4156200200056 
 161.       0.0208    0.0976                                      4156200200057 
ENDDATA             44          0                                 4156200200058 
ENDSUBENT           57          0                                 4156200299999 
SUBENT        41562003   20110407                             41524156200300001 
BIB                  3          3                                 4156200300002 
REACTION   (92-U-238(N,F)MASS,PRE,FY) Exp. mass spectra.          4156200300003 
ERR-ANALYS (DATA-ERR)  Errors are not specified                   4156200300004 
STATUS     (CURVE) Fig.3 bottom of S,ISINN-8,298,2000             4156200300005 
ENDBIB               3          0                                 4156200300006 
COMMON               1          3                                 4156200300007 
EN                                                                4156200300008 
MEV                                                               4156200300009 
1.25                                                              4156200300010 
ENDCOMMON            3          0                                 4156200300011 
DATA                 3         42                                 4156200300012 
MASS       DATA       DATA-ERR                                    4156200300013 
NO-DIM     PC/FIS     PC/FIS                                      4156200300014 
 119.90     0.0132                                                4156200300015 
 121.02     0.0272    0.1368                                      4156200300016 
 121.97     0.0088    0.1173                                      4156200300017 
 122.93     0.0295    0.0783                                      4156200300018 
 124.04     0.0113    0.1172                                      4156200300019 
 124.91     0.0710    0.0783                                      4156200300020 
 126.03     0.1700    0.0585                                      4156200300021 
 126.98     0.3862    0.0978                                      4156200300022 
 127.92     0.7197    0.1173                                      4156200300023 
 128.95     1.1900    0.1368                                      4156200300024 
 129.97     1.8168    0.1564                                      4156200300025 
 130.91     2.5607    0.1761                                      4156200300026 
 131.93     3.5589    0.2347                                      4156200300027 
 132.94     4.4789    0.2932                                      4156200300028 
 133.96     5.3402    0.2932                                      4156200300029 
 134.97     6.5925    0.3324                                      4156200300030 
 135.99     7.3561    0.3324                                      4156200300031 
 137.02     7.2010    0.3323                                      4156200300032 
 137.99     6.5766    0.3519                                      4156200300033 
 138.96     5.8153    0.3129                                      4156200300034 
 139.99     6.1293    0.3128                                      4156200300035 
 140.96     5.4854    0.2932                                      4156200300036 
 142.00     4.9002    0.2737                                      4156200300037 
 142.96     4.5104    0.2541                                      4156200300038 
 143.92     4.2770    0.2739                                      4156200300039 
 144.88     4.0044    0.2347                                      4156200300040 
 145.92     3.8688    0.2346                                      4156200300041 
 146.97     3.3227    0.2150                                      4156200300042 
 147.93     2.7179    0.1955                                      4156200300043 
 148.90     2.0544    0.1564                                      4156200300044 
 149.87     1.4496    0.1565                                      4156200300045 
 150.91     1.0012    0.1173                                      4156200300046 
 151.95     0.7483    0.0977                                      4156200300047 
 152.91     0.5149    0.0978                                      4156200300048 
 153.95     0.2816    0.0783                                      4156200300049 
 154.98     0.1264    0.0586                                      4156200300050 
 155.94     0.0298    0.0391                                      4156200300051 
 156.98     0.0115                                                4156200300052 
 157.93     0.0069                                                4156200300053 
 158.96     0.0057                                                4156200300054 
 160.00     0.0044                                                4156200300055 
 160.95     0.0033                                                4156200300056 
ENDDATA             44          0                                 4156200300057 
ENDSUBENT           56          0                                 4156200399999 
ENDENTRY             3          0                                 4156299999999 
