ENTRY            41622   20171210                             417741622  0    1 
SUBENT        41622001   20171210                             417741622  1    1 
BIB                 11         21                                 41622  1    2 
TITLE      The total cross sections of the interaction of         41622  1    3 
           ultracold neutrons with H2O and D2O.                   41622  1    4 
AUTHOR     (K.N.Zaitsev,V.N.Petrov,S.P.Kuznetsov,O.A.Langer,      41622  1    5 
           I.V.Meshkov,A.D.Perekrestenko)                         41622  1    6 
INSTITUTE  (4RUSMIF,4RUSLEB)                                      41622  1    7 
REFERENCE  (J,SJA,70,238,1991) Engl.translation of:               41622  1    8 
           (J,AE,70,184,1991)  Issue 3.                           41622  1    9 
SAMPLE      H2O and D2O in special container with 1mm thick SiO(2)41622  1   10 
           window bounded by Cd diaphragm of diameter up to 24mm; 41622  1   11 
           provided with a heater. Temperature was monitored with 41622  1   12 
           error +-1 deg C by calibrated ST3-17 thermistor.       41622  1   13 
REL-REF    (R,,A.V.Antonov+,J,KSF,,(3),50,1985)                   41622  1   14 
            SiO(2) total cross section                            41622  1   15 
           (M,,A.V.Antonov+,J,FTT,26,(6),1575,1984)               41622  1   16 
            Method details.                                       41622  1   17 
FACILITY   (REAC,4RUSMIF)                                         41622  1   18 
METHOD     (TRN,TOF)                                              41622  1   19 
DETECTOR   (SPEC) Crystal spectrometer.Energy resolution 16%.     41622  1   20 
COMMENT    Of compiler M.M. EN was calculated as :                41622  1   21 
           EN(eV)=0.0818/((LAMBDA/Angstrom)**2)                   41622  1   22 
HISTORY    (20171210C) M.M.                                       41622  1   23 
ENDBIB              21          0                                 41622  1   24 
COMMON               1          3                                 41622  1   25 
TEMP-ERR                                                          41622  1   26 
DEG-C                                                             41622  1   27 
 1.                                                               41622  1   28 
ENDCOMMON            3          0                                 41622  1   29 
ENDSUBENT           28          0                                 41622  199999 
SUBENT        41622002   20171210                             417741622  2    1 
BIB                  4         12                                 41622  2    2 
REACTION   (1-H-WTR(N,TOT),,SIG,,TMP/REL)                         41622  2    3 
            Total interaction cross section for H2O.Units 1/cm.   41622  2    4 
SAMPLE      Deionized water with resistivity 3E+7 Ohm*cm,         41622  2    5 
           Ca, Mg,Fe impurities of 2, 0.8, 0.7 micromole/liter,   41622  2    6 
           respectively.                                          41622  2    7 
ERR-ANALYS (DATA-ERR) Type of uncertainty is not explained in the 41622  2    8 
           article.                                               41622  2    9 
            Quantization errors ( one pixel):                     41622  2   10 
           scale X - 0.018 nanometer,                             41622  2   11 
           scale Y - 0.172 1/cm .                                 41622  2   12 
           Wave digitization error - 0.00820 nanometer.           41622  2   13 
STATUS     (CURVE) Fig 2a of J,SJA,70,238,1991                    41622  2   14 
ENDBIB              12          0                                 41622  2   15 
COMMON               1          3                                 41622  2   16 
ERR-DIG                                                           41622  2   17 
ARB-UNITS                                                         41622  2   18 
0.0522                                                            41622  2   19 
ENDCOMMON            3          0                                 41622  2   20 
DATA                 4         96                                 41622  2   21 
TEMP       WVE-LN     DATA       DATA-ERR                         41622  2   22 
K          MILLI-MU   ARB-UNITS  ARB-UNITS                        41622  2   23 
24.          3.617     16.867                                     41622  2   24 
24.          4.088     19.814                                     41622  2   25 
24.          4.614     20.860                                     41622  2   26 
24.          4.995     22.595                                     41622  2   27 
24.          5.448     24.677                                     41622  2   28 
24.          5.902     25.895                                     41622  2   29 
24.          6.409     27.978                                     41622  2   30 
24.          7.044     30.754                                     41622  2   31 
24.          7.643     32.666                                     41622  2   32 
24.          8.386     34.061                                     41622  2   33 
24.          9.166     37.878                                     41622  2   34 
24.         10.018     40.831                                     41622  2   35 
24.         10.979     44.823                                     41622  2   36 
24.         11.868     47.604                                     41622  2   37 
24.         12.756     53.496                                     41622  2   38 
24.         12.757     51.076                                     41622  2   39 
24.         13.990     54.554                                     41622  2   40 
24.         15.550     58.729                                     41622  2   41 
24.         17.019     65.150                                     41622  2   42 
24.         18.506     73.300     3.803                           41622  2   43 
30.          3.634     21.016                                     41622  2   44 
30.          4.069     22.061                                     41622  2   45 
30.          4.613     24.490                                     41622  2   46 
30.          4.940     25.360                                     41622  2   47 
30.          5.375     26.923                                     41622  2   48 
30.          5.810     28.486                                     41622  2   49 
30.          6.409     30.743                                     41622  2   50 
30.          7.062     33.002                                     41622  2   51 
30.          7.624     35.431                                     41622  2   52 
30.          8.385     38.210                                     41622  2   53 
30.          9.093     40.988                                     41622  2   54 
30.          9.927     44.459                                     41622  2   55 
30.         10.906     49.143                                     41622  2   56 
30.         11.867     52.271                                     41622  2   57 
30.         12.810     57.645                                     41622  2   58 
30.         13.971     60.258                                     41622  2   59 
30.         15.494     67.371                                     41622  2   60 
30.         16.964     69.470                                     41622  2   61 
30.         18.505     76.929                                     41622  2   62 
40.          3.524     23.952                                     41622  2   63 
40.          3.978     25.343                                     41622  2   64 
40.          4.468     26.734                                     41622  2   65 
40.          4.903     28.643                                     41622  2   66 
40.          5.393     30.207                                     41622  2   67 
40.          5.791     32.288                                     41622  2   68 
40.          6.372     34.891                                     41622  2   69 
40.          6.970     38.013                                     41622  2   70 
40.          7.677     41.827                                     41622  2   71 
40.          8.402     44.778                                     41622  2   72 
40.          9.037     48.765                                     41622  2   73 
40.          9.925     52.583                                     41622  2   74 
40.         10.977     56.576                                     41622  2   75 
40.         11.938     60.914                                     41622  2   76 
40.         12.808     65.423                                     41622  2   77 
40.         13.933     69.072     3.111                           41622  2   78 
40.         15.401     79.469                                     41622  2   79 
40.         16.871     78.457                                     41622  2   80 
40.         18.468     82.287                                     41622  2   81 
50.          3.578     26.200                                     41622  2   82 
50.          3.977     27.417                                     41622  2   83 
50.          4.503     29.155                                     41622  2   84 
50.          4.939     31.582                                     41622  2   85 
50.          5.356     33.836                                     41622  2   86 
50.          5.827     35.573                                     41622  2   87 
50.          6.389     38.867                                     41622  2   88 
50.          7.005     42.334                                     41622  2   89 
50.          7.604     45.629                                     41622  2   90 
50.          8.383     49.272                                     41622  2   91 
50.          9.109     53.087                                     41622  2   92 
50.          9.942     58.633                                     41622  2   93 
50.         10.976     63.145                                     41622  2   94 
50.         11.937     66.791                                     41622  2   95 
50.         12.788     75.102     3.285                           41622  2   96 
50.         13.931     77.715                                     41622  2   97 
50.         15.436     85.692                                     41622  2   98 
50.         16.888     87.099                                     41622  2   99 
50.         18.482    100.090                                     41622  2  100 
60.          3.542     28.965                                     41622  2  101 
60.          3.995     30.183                                     41622  2  102 
60.          4.485     31.401                                     41622  2  103 
60.          4.829     33.654                                     41622  2  104 
60.          5.319     36.083                                     41622  2  105 
60.          5.790     39.375                                     41622  2  106 
60.          6.370     42.151                                     41622  2  107 
60.          7.023     45.792                                     41622  2  108 
60.          7.675     50.124                                     41622  2  109 
60.          8.401     53.248                                     41622  2  110 
60.          9.053     56.716                                     41622  2  111 
60.          9.924     61.571                                     41622  2  112 
60.         10.920     68.675                                     41622  2  113 
60.         11.918     71.112                                     41622  2  114 
60.         12.751     80.460                                     41622  2  115 
60.         13.930     83.073                                     41622  2  116 
60.         15.417     90.877                                     41622  2  117 
60.         16.904     96.261                                     41622  2  118 
60.         18.499    109.940                                     41622  2  119 
ENDDATA             98          0                                 41622  2  120 
ENDSUBENT          119          0                                 41622  299999 
SUBENT        41622003   20171210                             417741622  3    1 
BIB                  4         10                                 41622  3    2 
REACTION   (1-H-D2O(N,TOT),,SIG,,TMP/REL)                         41622  3    3 
            Total interaction cross section for D2O. Units 1/cm.  41622  3    4 
SAMPLE     99.8 % purity, resistivity 10E+6 Ohm*cm.               41622  3    5 
ERR-ANALYS (DATA-ERR) Type of uncertainty is not explained in the 41622  3    6 
           article.                                               41622  3    7 
            Quantization errors ( one pixel):                     41622  3    8 
           scale X - 0.024 nanometer,                             41622  3    9 
           scale Y - 0.023 1/cm .                                 41622  3   10 
           Wave digitization error - 0.0116 nanometer.            41622  3   11 
STATUS     (CURVE) Fig 3a of J,SJA,70,238,1991                    41622  3   12 
ENDBIB              10          0                                 41622  3   13 
COMMON               1          3                                 41622  3   14 
ERR-DIG                                                           41622  3   15 
ARB-UNITS                                                         41622  3   16 
 0.0147                                                           41622  3   17 
ENDCOMMON            3          0                                 41622  3   18 
DATA                 4         48                                 41622  3   19 
TEMP       WVE-LN     DATA       DATA-ERR                         41622  3   20 
K          MILLI-MU   ARB-UNITS  ARB-UNITS                        41622  3   21 
23.          4.834      3.002                                     41622  3   22 
23.          5.234      3.261                                     41622  3   23 
23.          5.777      3.378                                     41622  3   24 
23.          6.460      3.872                                     41622  3   25 
23.          7.144      4.388                                     41622  3   26 
23.          7.969      4.483                                     41622  3   27 
23.          8.559      4.812                                     41622  3   28 
23.          9.242      5.798                                     41622  3   29 
23.         10.044      6.057                                     41622  3   30 
23.         11.104      6.832                                     41622  3   31 
23.         12.142      7.255                                     41622  3   32 
23.         13.203      7.467                                     41622  3   33 
23.         14.122      8.735                                     41622  3   34 
23.         15.324     10.590    0.986                            41622  3   35 
23.         17.399     10.732                                     41622  3   36 
23.         19.616     10.803                                     41622  3   37 
40.          4.691      4.105                                     41622  3   38 
40.          5.187      4.340                                     41622  3   39 
40.          5.799      4.740                                     41622  3   40 
40.          6.365      5.374                                     41622  3   41 
40.          7.002      5.609                                     41622  3   42 
40.          7.780      6.173                                     41622  3   43 
40.          8.440      6.173                                     41622  3   44 
40.          8.958      7.183                                     41622  3   45 
40.          9.901      7.676                                     41622  3   46 
40.         10.868      8.522                                     41622  3   47 
40.         12.093      9.532                                     41622  3   48 
40.         12.942     10.166                                     41622  3   49 
40.         13.979     11.058                                     41622  3   50 
40.         15.346     12.397                                     41622  3   51 
40.         17.492     13.642                                     41622  3   52 
40.         19.637     14.911                                     41622  3   53 
60.          4.715      4.927                                     41622  3   54 
60.          5.280      5.185                                     41622  3   55 
60.          5.775      5.538                                     41622  3   56 
60.          6.388      6.125                                     41622  3   57 
60.          7.072      6.923                                     41622  3   58 
60.          7.849      7.698                                     41622  3   59 
60.          8.486      8.074                                     41622  3   60 
60.          9.075      8.544                                     41622  3   61 
60.          9.971      9.554                                     41622  3   62 
60.         10.985     10.094                                     41622  3   63 
60.         11.927     11.386                                     41622  3   64 
60.         13.011     12.583                                     41622  3   65 
60.         14.001     13.359                                     41622  3   66 
60.         15.345     14.580                                     41622  3   67 
60.         17.420     15.637                                     41622  3   68 
60.         19.683     16.789                                     41622  3   69 
ENDDATA             50          0                                 41622  3   70 
ENDSUBENT           69          0                                 41622  399999 
ENDENTRY             3          0                                 4162299999999 
