ENTRY            41698   20200922                             418941698  0    1 
SUBENT        41698001   20200922                             418941698  1    1 
BIB                  7         15                                 41698  1    2 
REFERENCE  (J,YF,17,935,1973) Issue 5.                            41698  1    3 
           (J,SNP,17,489,1973) Engl.translation of YF,17,935,1973 41698  1    4 
AUTHOR     (A.G.Donichkin,S.M.Solov'ev,V.P.Eismont)               41698  1    5 
TITLE       The spectra of the fission X-rays at different kinetic41698  1    6 
            energies of the light fragment and the 'fine'         41698  1    7 
            structure of the mass yield                           41698  1    8 
INSTITUTE  (4RUSRI)                                               41698  1    9 
SAMPLE      Cf-252 source of 10**4 fis./sec activity on 20 mum Al 41698  1   10 
           backing.                                               41698  1   11 
DETECTOR   (SI) Si(Li) detector of 50 mm2 square for X-rays       41698  1   12 
           registration.Energy resolution 0.9 keV for L-lines from41698  1   13 
           Cm-248 (from alpha-decay of Cf-252).                   41698  1   14 
           . Semiconductor Si(Au) detector for FF kinetic energy  41698  1   15 
           measurement. Placed at 1.5 mm distance from Cf source. 41698  1   16 
HISTORY    (20200922C) M.M.                                       41698  1   17 
ENDBIB              15          0                                 41698  1   18 
NOCOMMON             0          0                                 41698  1   19 
ENDSUBENT           18          0                                 41698  199999 
SUBENT        41698002   20200922                             418941698  2    1 
BIB                  4          8                                 41698  2    2 
REACTION   (98-CF-252(0,F),SEC,FY/DE,,REL)                        41698  2    3 
            Units are counts.                                     41698  2    4 
            FF kinetic energy spectrum after prompt neutron       41698  2    5 
            emission.                                             41698  2    6 
EN-SEC     (E,FF) Fission fragment kinetic energy                 41698  2    7 
ERR-ANALYS . Quantization errors (1/2 pixel):                     41698  2    8 
           scale X - 0.058 MeV, scale Y - 7.5 counts.             41698  2    9 
STATUS     (CURVE) Fig.1 of Yad.Fiz.,v.17,p.935,1973              41698  2   10 
ENDBIB               8          0                                 41698  2   11 
COMMON               2          3                                 41698  2   12 
E-ERR-DIG  ERR-DIG                                                41698  2   13 
MEV        ARB-UNITS                                              41698  2   14 
 0.13       7.2                                                   41698  2   15 
ENDCOMMON            3          0                                 41698  2   16 
DATA                 2        105                                 41698  2   17 
E          DATA                                                   41698  2   18 
MEV        ARB-UNITS                                              41698  2   19 
      41.15       62.7                                            41698  2   20 
      41.98       65.8                                            41698  2   21 
      42.80       83.8                                            41698  2   22 
      43.52       27.0                                            41698  2   23 
      44.21       74.3                                            41698  2   24 
      45.27      108.0                                            41698  2   25 
      45.86       95.4                                            41698  2   26 
      46.68      113.4                                            41698  2   27 
      47.50      116.5                                            41698  2   28 
      48.44      134.9                                            41698  2   29 
      49.02      181.7                                            41698  2   30 
      49.86      125.4                                            41698  2   31 
      50.79      143.8                                            41698  2   32 
      51.48      235.6                                            41698  2   33 
      52.53      254.5                                            41698  2   34 
      53.35      287.3                                            41698  2   35 
      54.05      304.9                                            41698  2   36 
      54.86      382.3                                            41698  2   37 
      55.81      356.1                                            41698  2   38 
      56.25      491.6                                            41698  2   39 
      57.99      587.5                                            41698  2   40 
      58.82      575.7                                            41698  2   41 
      59.62      682.8                                            41698  2   42 
      60.42      760.3                                            41698  2   43 
      61.22      882.2                                            41698  2   44 
      61.90      988.9                                            41698  2   45 
      62.82     1081.6                                            41698  2   46 
      63.63     1159.1                                            41698  2   47 
      64.29     1325.2                                            41698  2   48 
      65.20     1477.3                                            41698  2   49 
      66.00     1554.7                                            41698  2   50 
      66.91     1721.8                                            41698  2   51 
      67.69     1903.2                                            41698  2   52 
      68.38     1980.1                                            41698  2   53 
      69.38     2236.8                                            41698  2   54 
      69.92     2447.0                                            41698  2   55 
      70.93     2644.2                                            41698  2   56 
      71.71     2840.5                                            41698  2   57 
      72.35     3110.6                                            41698  2   58 
      73.25     3277.6                                            41698  2   59 
      74.02     3503.6                                            41698  2   60 
      74.94     3596.4                                            41698  2   61 
      75.70     3881.8                                            41698  2   62 
      76.50     3974.1                                            41698  2   63 
      77.43     4037.1                                            41698  2   64 
      78.08     4262.6                                            41698  2   65 
      78.81     4191.0                                            41698  2   66 
      79.86     4224.7                                            41698  2   67 
      80.24     4107.2                                            41698  2   68 
      81.16     4185.0                                            41698  2   69 
      82.13     4069.7                                            41698  2   70 
      82.98     3968.8                                            41698  2   71 
      83.74     3748.6                                            41698  2   72 
      84.47     3632.4                                            41698  2   73 
      85.22     3471.6                                            41698  2   74 
      85.97     3266.3                                            41698  2   75 
      87.06     3166.3                                            41698  2   76 
      87.57     3004.6                                            41698  2   77 
      89.00     2935.6                                            41698  2   78 
      89.17     2683.5                                            41698  2   79 
      90.36     2643.3                                            41698  2   80 
      90.93     2749.6                                            41698  2   81 
      91.64     2707.7                                            41698  2   82 
      92.67     2845.4                                            41698  2   83 
      93.48     2893.1                                            41698  2   84 
      94.04     3014.2                                            41698  2   85 
      95.19     3122.7                                            41698  2   86 
      95.74     3288.3                                            41698  2   87 
      96.65     3440.5                                            41698  2   88 
      97.29     3740.4                                            41698  2   89 
      98.10     3788.0                                            41698  2   90 
      98.97     4088.8                                            41698  2   91 
      99.97     4360.3                                            41698  2   92 
     100.28     4525.1                                            41698  2   93 
     101.54     4678.5                                            41698  2   94 
     102.32     4860.0                                            41698  2   95 
     103.16     4773.9                                            41698  2   96 
     104.06     4970.7                                            41698  2   97 
     104.81     4795.0                                            41698  2   98 
     105.67     4634.7                                            41698  2   99 
     106.43     4414.5                                            41698  2  100 
     107.33     4105.5                                            41698  2  101 
     108.10     3811.0                                            41698  2  102 
     108.90     3412.5                                            41698  2  103 
     109.80     3118.4                                            41698  2  104 
     110.58     2823.9                                            41698  2  105 
     111.38     2410.5                                            41698  2  106 
     112.30     2027.3                                            41698  2  107 
     112.74     1627.4                                            41698  2  108 
     113.64     1318.5                                            41698  2  109 
     114.53     1054.1                                            41698  2  110 
     114.96      743.4                                            41698  2  111 
     116.17      599.3                                            41698  2  112 
     116.78      482.6                                            41698  2  113 
     117.41      336.3                                            41698  2  114 
     118.49      236.3                                            41698  2  115 
     119.34      120.5                                            41698  2  116 
     120.18       49.3                                            41698  2  117 
     120.89       37.1                                            41698  2  118 
     121.35       83.5                                            41698  2  119 
     121.72       10.5                                            41698  2  120 
     122.43        8.7                                            41698  2  121 
     123.26        3.3                                            41698  2  122 
     124.33        0.1                                            41698  2  123 
     125.14        8.6                                            41698  2  124 
ENDDATA            107          0                                 41698  2  125 
ENDSUBENT          124          0                                 41698  299999 
SUBENT        41698003   20200922                             418941698  3    1 
BIB                  4         11                                 41698  3    2 
REACTION   (98-CF-252(0,F)ELEM,CHG,FY,,MSC)                       41698  3    3 
            Units are %.                                          41698  3    4 
            Intensity for each element relative to sum of         41698  3    5 
           intensities of all elements (heavy fragments) for given41698  3    6 
           kinetic energy.                                        41698  3    7 
EN-SEC     (E-MIN,LF)                                             41698  3    8 
ERR-ANALYS . Quantization errors (1/2 pixel) :                    41698  3    9 
           scale Y - 0.017 arb.units                              41698  3   10 
           (DATA-ERR) Type of uncertainty is not explained in the 41698  3   11 
           article.                                               41698  3   12 
STATUS     (CURVE) Fig.3 of Yad.Fiz.,v.17,p.935,1973              41698  3   13 
ENDBIB              11          0                                 41698  3   14 
COMMON               1          3                                 41698  3   15 
ERR-DIG                                                           41698  3   16 
ARB-UNITS                                                         41698  3   17 
 0.013                                                            41698  3   18 
ENDCOMMON            3          0                                 41698  3   19 
DATA                 4         56                                 41698  3   20 
E-MIN      ELEMENT    DATA       DATA-ERR                         41698  3   21 
MEV        NO-DIM     ARB-UNITS  ARB-UNITS                        41698  3   22 
  92.           51.      1.951                                    41698  3   23 
  92.           52.      2.697                                    41698  3   24 
  92.           53.      9.631                                    41698  3   25 
  92.           54.      3.839                                    41698  3   26 
  92.           55.     18.432                                    41698  3   27 
  92.           56.     10.051                                    41698  3   28 
  92.           57.     16.216      0.700                         41698  3   29 
  92.           58.     11.088                                    41698  3   30 
  92.           59.     10.575                                    41698  3   31 
  92.           60.      6.601                                    41698  3   32 
  92.           61.      4.444                                    41698  3   33 
  92.           62.      2.113                                    41698  3   34 
  92.           63.      0.970                                    41698  3   35 
  92.           64.      0.807                                    41698  3   36 
 104.           51.      1.667                                    41698  3   37 
 104.           52.      2.482                                    41698  3   38 
 104.           53.      6.515                                    41698  3   39 
 104.           54.      4.254                                    41698  3   40 
 104.           55.     13.986                                    41698  3   41 
 104.           56.     10.116                                    41698  3   42 
 104.           57.     16.770      1.259                         41698  3   43 
 104.           58.     12.971                                    41698  3   44 
 104.           59.     11.899                                    41698  3   45 
 104.           60.      8.589                                    41698  3   46 
 104.           61.      5.313                                    41698  3   47 
 104.           62.      3.472                                    41698  3   48 
 104.           63.      2.050                                    41698  3   49 
 104.           64.      1.048                                    41698  3   50 
 110.           51.      0.928                                    41698  3   51 
 110.           52.      2.268                                    41698  3   52 
 110.           53.      3.538                                    41698  3   53 
 110.           54.      4.249                                    41698  3   54 
 110.           55.      9.646                                    41698  3   55 
 110.           56.      9.936                                    41698  3   56 
 110.           57.     15.192      1.468                         41698  3   57 
 110.           58.     15.275                                    41698  3   58 
 110.           59.     12.488                                    41698  3   59 
 110.           60.     12.221                                    41698  3   60 
 110.           61.      7.441                                    41698  3   61 
 110.           62.      4.271                                    41698  3   62 
 110.           63.      1.836                                    41698  3   63 
 110.           64.      1.253                                    41698  3   64 
 112.           51.      0.749                                    41698  3   65 
 112.           52.      1.284                                    41698  3   66 
 112.           53.      3.324                                    41698  3   67 
 112.           54.      1.412                                    41698  3   68 
 112.           55.      8.696                                    41698  3   69 
 112.           56.      9.932                                    41698  3   70 
 112.           57.     15.607      1.818                         41698  3   71 
 112.           58.     17.717                                    41698  3   72 
 112.           59.     12.973                                    41698  3   73 
 112.           60.     13.439                                    41698  3   74 
 112.           61.      6.877                                    41698  3   75 
 112.           62.      4.721                                    41698  3   76 
 112.           63.      2.565                                    41698  3   77 
 112.           64.      1.807                                    41698  3   78 
ENDDATA             58          0                                 41698  3   79 
ENDSUBENT           78          0                                 41698  399999 
SUBENT        41698004   20200922                             418941698  4    1 
BIB                  4         13                                 41698  4    2 
REACTION   (98-CF-252(0,F),PR/PAR,FY,G,MSC)                       41698  4    3 
            Units are %.                                          41698  4    4 
            Spectra of K-rays from heavy fragments at different   41698  4    5 
           kinetic energy of light fragment.                      41698  4    6 
           Spectra were normalized to the same square.            41698  4    7 
EN-SEC     (E1-MIN,LF)                                            41698  4    8 
           (E,G)                                                  41698  4    9 
ERR-ANALYS . Quantization errors (1/2 pixel):                     41698  4   10 
           scale X - 0.018 keV, scale Y - 0.0010 arb.units.       41698  4   11 
           (DATA-ERR) Type of uncertainty is not explained in the 41698  4   12 
           article.                                               41698  4   13 
STATUS     (CURVE) Fig.2 (black circles) of                       41698  4   14 
                   Yad.Fiz.,v.17,p.935,1973                       41698  4   15 
ENDBIB              13          0                                 41698  4   16 
COMMON               2          3                                 41698  4   17 
E-ERR-DIG  ERR-DIG                                                41698  4   18 
KEV        ARB-UNITS                                              41698  4   19 
 0.023      0.0012                                                41698  4   20 
ENDCOMMON            3          0                                 41698  4   21 
DATA                 4        684                                 41698  4   22 
E1-MIN     E          DATA       DATA-ERR                         41698  4   23 
MEV        KEV        ARB-UNITS  ARB-UNITS                        41698  4   24 
  92.        25.357     0.0445     0.0096                         41698  4   25 
  92.        25.466     0.0460     0.0096                         41698  4   26 
  92.        25.570     0.0584                                    41698  4   27 
  92.        25.672     0.0763                                    41698  4   28 
  92.        25.815     0.0819                                    41698  4   29 
  92.        25.885     0.0901     0.0041                         41698  4   30 
  92.        26.031     0.0902                                    41698  4   31 
  92.        26.100     0.0999                                    41698  4   32 
  92.        26.246     0.0986                                    41698  4   33 
  92.        26.389     0.1055                                    41698  4   34 
  92.        26.532     0.1139     0.0082                         41698  4   35 
  92.        26.635     0.1290                                    41698  4   36 
  92.        26.777     0.1373                                    41698  4   37 
  92.        26.882     0.1484                                    41698  4   38 
  92.        26.990     0.1512                                    41698  4   39 
  92.        27.063     0.1512     0.0096                         41698  4   40 
  92.        27.246     0.1514                                    41698  4   41 
  92.        27.340     0.1871                                    41698  4   42 
  92.        27.475     0.2119                                    41698  4   43 
  92.        27.570     0.2435                                    41698  4   44 
  92.        27.732     0.2916     0.0096                         41698  4   45 
  92.        27.821     0.3383                                    41698  4   46 
  92.        27.950     0.3755                                    41698  4   47 
  92.        28.000     0.4290                                    41698  4   48 
  92.        28.136     0.4510                                    41698  4   49 
  92.        28.316     0.4580      0.011                         41698  4   50 
  92.        28.458     0.4663                                    41698  4   51 
  92.        28.542     0.4417                                    41698  4   52 
  92.        28.697     0.4212                                    41698  4   53 
  92.        28.789     0.3801                                    41698  4   54 
  92.        28.949     0.3473     0.0124                         41698  4   55 
  92.        29.076     0.3089                                    41698  4   56 
  92.        29.205     0.2637                                    41698  4   57 
  92.        29.281     0.2583                                    41698  4   58 
  92.        29.427     0.2584                                    41698  4   59 
  92.        29.563     0.2818     0.0082                         41698  4   60 
  92.        29.655     0.3216                                    41698  4   61 
  92.        29.789     0.3492                                    41698  4   62 
  92.        29.921     0.3794                                    41698  4   63 
  92.        30.017     0.4110                                    41698  4   64 
  92.        30.172     0.4743     0.0137                         41698  4   65 
  92.        30.302     0.5937                                    41698  4   66 
  92.        30.398     0.7063     0.0151                         41698  4   67 
  92.        30.508     0.7873                                    41698  4   68 
  92.        30.575     0.8848                                    41698  4   69 
  92.        30.793     0.9700                                    41698  4   70 
  92.        30.931     0.9879                                    41698  4   71 
  92.        31.053     0.9592     0.0178                         41698  4   72 
  92.        31.126     0.8769                                    41698  4   73 
  92.        31.255     0.8331                                    41698  4   74 
  92.        31.399     0.7563                                    41698  4   75 
  92.        31.525     0.7193                                    41698  4   76 
  92.        31.626     0.6549     0.0165                         41698  4   77 
  92.        31.737     0.6509                                    41698  4   78 
  92.        31.843     0.6592                                    41698  4   79 
  92.        32.025     0.6620                                    41698  4   80 
  92.        32.121     0.6923                                    41698  4   81 
  92.        32.259     0.7116     0.0151                         41698  4   82 
  92.        32.340     0.6938                                    41698  4   83 
  92.        32.497     0.6678                                    41698  4   84 
  92.        32.676     0.6762                                    41698  4   85 
  92.        32.811     0.7023                                    41698  4   86 
  92.        32.866     0.7435     0.0192                         41698  4   87 
  92.        33.034     0.7752                                    41698  4   88 
  92.        33.132     0.8013                                    41698  4   89 
  92.        33.215     0.8617                                    41698  4   90 
  92.        33.401     0.8536                                    41698  4   91 
  92.        33.524     0.8235     0.0192                         41698  4   92 
  92.        33.653     0.7810                                    41698  4   93 
  92.        33.811     0.7537                                    41698  4   94 
  92.        33.904     0.7085                                    41698  4   95 
  92.        34.021     0.6907                                    41698  4   96 
  92.        34.150     0.6469     0.0178                         41698  4   97 
  92.        34.234     0.6222                                    41698  4   98 
  92.        34.384     0.6141                                    41698  4   99 
  92.        34.453     0.6224                                    41698  4  100 
  92.        34.598     0.6266                                    41698  4  101 
  92.        34.693     0.6582     0.0164                         41698  4  102 
  92.        34.837     0.6624                                    41698  4  103 
  92.        34.973     0.6858                                    41698  4  104 
  92.        35.076     0.7023                                    41698  4  105 
  92.        35.189     0.6942                                    41698  4  106 
  92.        35.351     0.6586     0.0179                         41698  4  107 
  92.        35.470     0.6354                                    41698  4  108 
  92.        35.690     0.6341                                    41698  4  109 
  92.        35.834     0.6383                                    41698  4  110 
  92.        35.941     0.6453                                    41698  4  111 
  92.        36.093     0.6316     0.0165                         41698  4  112 
  92.        36.240     0.6290                                    41698  4  113 
  92.        36.326     0.6016                                    41698  4  114 
  92.        36.475     0.5934     0.0123                         41698  4  115 
  92.        36.603     0.5524                                    41698  4  116 
  92.        36.725     0.5250                                    41698  4  117 
  92.        36.810     0.4976     0.0124                         41698  4  118 
  92.        36.966     0.4758                                    41698  4  119 
  92.        37.156     0.4594                                    41698  4  120 
  92.        37.240     0.4334                                    41698  4  121 
  92.        37.355     0.4211                                    41698  4  122 
  92.        37.468     0.4143     0.0137                         41698  4  123 
  92.        37.614     0.4144                                    41698  4  124 
  92.        37.767     0.3994                                    41698  4  125 
  92.        37.809     0.3857                                    41698  4  126 
  92.        37.925     0.3707                                    41698  4  127 
  92.        38.105     0.3763     0.0137                         41698  4  128 
  92.        38.185     0.3626                                    41698  4  129 
  92.        38.366     0.3655                                    41698  4  130 
  92.        38.475     0.3669                                    41698  4  131 
  92.        38.692     0.3725                                    41698  4  132 
  92.        38.779     0.3397     0.0137                         41698  4  133 
  92.        38.866     0.3082                                    41698  4  134 
  92.        39.021     0.2891                                    41698  4  135 
  92.        39.127     0.2960                                    41698  4  136 
  92.        39.245     0.2782                                    41698  4  137 
  92.        39.426     0.2824     0.0123                         41698  4  138 
  92.        39.541     0.2688                                    41698  4  139 
  92.        39.658     0.2524                                    41698  4  140 
  92.        39.741     0.2305                                    41698  4  141 
  92.        39.884     0.2374                                    41698  4  142 
  92.        40.001     0.2197     0.0096                         41698  4  143 
  92.        40.082     0.2019                                    41698  4  144 
  92.        40.271     0.1883                                    41698  4  145 
  92.        40.389     0.1692                                    41698  4  146 
  92.        40.506     0.1514                                    41698  4  147 
  92.        40.660     0.1336     0.0082                         41698  4  148 
  92.        40.778     0.1159                                    41698  4  149 
  92.        40.923     0.1173                                    41698  4  150 
  92.        41.016     0.1558                                    41698  4  151 
  92.        41.115     0.1792                                    41698  4  152 
  92.        41.261     0.1793     0.0082                         41698  4  153 
  92.        41.407     0.1794                                    41698  4  154 
  92.        41.489     0.1602                                    41698  4  155 
  92.        41.642     0.1439                                    41698  4  156 
  92.        41.770     0.1028                                    41698  4  157 
  92.        41.989     0.1029     0.0082                         41698  4  158 
  92.        42.135     0.1030                                    41698  4  159 
  92.        42.216     0.0852                                    41698  4  160 
  92.        42.436     0.0840                                    41698  4  161 
  92.        42.582     0.0841     0.0069                         41698  4  162 
  92.        42.718     0.1061                                    41698  4  163 
  92.        42.900     0.1076                                    41698  4  164 
  92.        43.044     0.1132                                    41698  4  165 
  92.        43.127     0.0899                                    41698  4  166 
  92.        43.273     0.0900     0.0069                         41698  4  167 
  92.        43.456     0.0901                                    41698  4  168 
  92.        43.539     0.0668                                    41698  4  169 
  92.        43.685     0.0683                                    41698  4  170 
  92.        43.794     0.0684                                    41698  4  171 
  92.        43.904     0.0671     0.0069                         41698  4  172 
  92.        44.050     0.0685                                    41698  4  173 
  92.        44.122     0.0713                                    41698  4  174 
  92.        44.231     0.0728                                    41698  4  175 
  92.        44.366     0.0962                                    41698  4  176 
  92.        44.550     0.0935     0.0082                         41698  4  177 
  92.        44.648     0.1210                                    41698  4  178 
  92.        44.730     0.0991                                    41698  4  179 
  92.        44.913     0.0992                                    41698  4  180 
  92.        45.032     0.0774                                    41698  4  181 
  92.        45.080     0.0513     0.0055                         41698  4  182 
  92.        45.263     0.0501                                    41698  4  183 
  92.        45.410     0.0502                                    41698  4  184 
  92.        45.581     0.0763                                    41698  4  185 
  92.        45.628     0.0517                                    41698  4  186 
  92.        45.811     0.0518     0.0055                         41698  4  187 
  92.        45.907     0.0820                                    41698  4  188 
  92.        46.054     0.0808                                    41698  4  189 
  92.        46.199     0.0822                                    41698  4  190 
  92.        46.223     0.1097                                    41698  4  191 
  92.        46.444     0.1071     0.0069                         41698  4  192 
 104.        25.339     0.0426     0.0073                         41698  4  193 
 104.        25.500     0.0426                                    41698  4  194 
 104.        25.659     0.0463                                    41698  4  195 
 104.        25.718     0.0634                                    41698  4  196 
 104.        25.878     0.0622                                    41698  4  197 
 104.        25.973     0.0684                                    41698  4  198 
 104.        26.133     0.0697                                    41698  4  199 
 104.        26.160     0.0843                                    41698  4  200 
 104.        26.285     0.0953                                    41698  4  201 
 104.        26.444     0.0990                                    41698  4  202 
 104.        26.507     0.1039     0.0085                         41698  4  203 
 104.        26.665     0.1112                                    41698  4  204 
 104.        26.825     0.1125                                    41698  4  205 
 104.        26.886     0.1223                                    41698  4  206 
 104.        27.079     0.1211                                    41698  4  207 
 104.        27.140     0.1309     0.0085                         41698  4  208 
 104.        27.332     0.1310                                    41698  4  209 
 104.        27.423     0.1480                                    41698  4  210 
 104.        27.516     0.1590                                    41698  4  211 
 104.        27.604     0.1834     0.0146                         41698  4  212 
 104.        27.753     0.2199                                    41698  4  213 
 104.        27.870     0.2577                                    41698  4  214 
 104.        28.015     0.3076                                    41698  4  215 
 104.        28.143     0.3088                                    41698  4  216 
 104.        28.235     0.3210     0.0134                         41698  4  217 
 104.        28.394     0.3260                                    41698  4  218 
 104.        28.493     0.3163                                    41698  4  219 
 104.        28.564     0.2932                                    41698  4  220 
 104.        28.667     0.2714                                    41698  4  221 
 104.        28.833     0.2520     0.0134                         41698  4  222 
 104.        28.995     0.2484                                    41698  4  223 
 104.        29.097     0.2290                                    41698  4  224 
 104.        29.223     0.2352                                    41698  4  225 
 104.        29.320     0.2352                                    41698  4  226 
 104.        29.480     0.2365     0.0097                         41698  4  227 
 104.        29.636     0.2475                                    41698  4  228 
 104.        29.725     0.2719                                    41698  4  229 
 104.        29.841     0.3132                                    41698  4  230 
 104.        29.993     0.3376                                    41698  4  231 
 104.        30.140     0.3827     0.0158                         41698  4  232 
 104.        30.246     0.4532     0.0134                         41698  4  233 
 104.        30.278     0.5578                                    41698  4  234 
 104.        30.483     0.6199                                    41698  4  235 
 104.        30.563     0.6722                                    41698  4  236 
 104.        30.679     0.7112                                    41698  4  237 
 104.        30.802     0.7270     0.0231                         41698  4  238 
 104.        30.961     0.7332                                    41698  4  239 
 104.        31.099     0.6992                                    41698  4  240 
 104.        31.181     0.6421                                    41698  4  241 
 104.        31.260     0.5947                                    41698  4  242 
 104.        31.432     0.5583     0.0195                         41698  4  243 
 104.        31.551     0.5876                                    41698  4  244 
 104.        31.703     0.6156                                    41698  4  245 
 104.        31.793     0.6339                                    41698  4  246 
 104.        31.985     0.6364                                    41698  4  247 
 104.        32.011     0.6546                                    41698  4  248 
 104.        32.140     0.6523     0.0219                         41698  4  249 
 104.        32.271     0.6450                                    41698  4  250 
 104.        32.397     0.6524                                    41698  4  251 
 104.        32.562     0.6366                                    41698  4  252 
 104.        32.654     0.6501                                    41698  4  253 
 104.        32.836     0.6830     0.0243                         41698  4  254 
 104.        32.951     0.7256                                    41698  4  255 
 104.        33.093     0.7852                                    41698  4  256 
 104.        33.175     0.8314                                    41698  4  257 
 104.        33.298     0.8473                                    41698  4  258 
 104.        33.489     0.8522     0.0292                         41698  4  259 
 104.        33.581     0.8644                                    41698  4  260 
 104.        33.692     0.8183                                    41698  4  261 
 104.        33.869     0.7624                                    41698  4  262 
 104.        33.911     0.7321                                    41698  4  263 
 104.        34.062     0.6592     0.0243                         41698  4  264 
 104.        34.192     0.6532                                    41698  4  265 
 104.        34.318     0.6593                                    41698  4  266 
 104.        34.472     0.6800                                    41698  4  267 
 104.        34.598     0.6874                                    41698  4  268 
 104.        34.689     0.7057     0.0255                         41698  4  269 
 104.        34.847     0.7106                                    41698  4  270 
 104.        34.941     0.7179                                    41698  4  271 
 104.        35.040     0.7095                                    41698  4  272 
 104.        35.203     0.7023                                    41698  4  273 
 104.        35.271     0.6901     0.0231                         41698  4  274 
 104.        35.410     0.6549                                    41698  4  275 
 104.        35.537     0.6599                                    41698  4  276 
 104.        35.698     0.6551                                    41698  4  277 
 104.        35.799     0.6417                                    41698  4  278 
 104.        35.920     0.6637     0.0219                         41698  4  279 
 104.        36.047     0.6686                                    41698  4  280 
 104.        36.206     0.6735                                    41698  4  281 
 104.        36.304     0.6651                                    41698  4  282 
 104.        36.468     0.6554                                    41698  4  283 
 104.        36.544     0.6153     0.0194                         41698  4  284 
 104.        36.676     0.6044                                    41698  4  285 
 104.        36.781     0.5765                                    41698  4  286 
 104.        36.889     0.5389                                    41698  4  287 
 104.        37.025     0.5122     0.0134                         41698  4  288 
 104.        37.185     0.5135                                    41698  4  289 
 104.        37.290     0.4868                                    41698  4  290 
 104.        37.449     0.4905                                    41698  4  291 
 104.        37.576     0.4942                                    41698  4  292 
 104.        37.702     0.5003     0.0182                         41698  4  293 
 104.        37.771     0.4858                                    41698  4  294 
 104.        37.929     0.4919                                    41698  4  295 
 104.        38.035     0.4616                                    41698  4  296 
 104.        38.162     0.4653                                    41698  4  297 
 104.        38.299     0.4374     0.0207                         41698  4  298 
 104.        38.460     0.4362                                    41698  4  299 
 104.        38.501     0.4059                                    41698  4  300 
 104.        38.640     0.3731                                    41698  4  301 
 104.        38.778     0.3403                                    41698  4  302 
 104.        38.867     0.3647     0.0194                         41698  4  303 
 104.        39.057     0.3709                                    41698  4  304 
 104.        39.186     0.3697                                    41698  4  305 
 104.        39.286     0.3564                                    41698  4  306 
 104.        39.446     0.3564                                    41698  4  307 
 104.        39.547     0.3419     0.0207                         41698  4  308 
 104.        39.679     0.3286                                    41698  4  309 
 104.        39.813     0.3104                                    41698  4  310 
 104.        39.882     0.2971                                    41698  4  311 
 104.        40.048     0.2789                                    41698  4  312 
 104.        40.143     0.2826     0.0134                         41698  4  313 
 104.        40.276     0.2656                                    41698  4  314 
 104.        40.378     0.2462                                    41698  4  315 
 104.        40.480     0.2292                                    41698  4  316 
 104.        40.614     0.2086                                    41698  4  317 
 104.        40.773     0.2136     0.0109                         41698  4  318 
 104.        40.870     0.2124                                    41698  4  319 
 104.        40.971     0.1966                                    41698  4  320 
 104.        41.065     0.2040                                    41698  4  321 
 104.        41.258     0.2016                                    41698  4  322 
 104.        41.386     0.2017     0.0109                         41698  4  323 
 104.        41.456     0.1835                                    41698  4  324 
 104.        41.648     0.1848                                    41698  4  325 
 104.        41.718     0.1654                                    41698  4  326 
 104.        41.878     0.1654                                    41698  4  327 
 104.        42.005     0.1704     0.0109                         41698  4  328 
 104.        42.133     0.1716                                    41698  4  329 
 104.        42.294     0.1705                                    41698  4  330 
 104.        42.333     0.1462                                    41698  4  331 
 104.        42.524     0.1499                                    41698  4  332 
 104.        42.627     0.1281     0.0109                         41698  4  333 
 104.        42.788     0.1269                                    41698  4  334 
 104.        42.915     0.1319                                    41698  4  335 
 104.        42.953     0.1112                                    41698  4  336 
 104.        43.089     0.0869                                    41698  4  337 
 104.        43.217     0.0870     0.0073                         41698  4  338 
 104.        43.377     0.0883                                    41698  4  339 
 104.        43.473     0.0883                                    41698  4  340 
 104.        43.634     0.0884                                    41698  4  341 
 104.        43.760     0.0933                                    41698  4  342 
 104.        43.833     0.0654     0.0073                         41698  4  343 
 104.        44.089     0.0692                                    41698  4  344 
 104.        44.281     0.0692                                    41698  4  345 
 104.        44.408     0.0717                                    41698  4  346 
 104.        44.537     0.0706     0.0061                         41698  4  347 
 104.        44.633     0.0706                                    41698  4  348 
 104.        44.704     0.0475                                    41698  4  349 
 104.        44.833     0.0476                                    41698  4  350 
 104.        44.993     0.0489                                    41698  4  351 
 104.        45.089     0.0477     0.0073                         41698  4  352 
 104.        45.177     0.0733                                    41698  4  353 
 104.        45.329     0.1001                                    41698  4  354 
 104.        45.457     0.1014                                    41698  4  355 
 104.        45.649     0.1027                                    41698  4  356 
 104.        45.689     0.0796     0.0085                         41698  4  357 
 104.        45.762     0.0505                                    41698  4  358 
 104.        45.922     0.0505                                    41698  4  359 
 104.        46.018     0.0518                                    41698  4  360 
 104.        46.178     0.0519     0.0061                         41698  4  361 
 110.        25.169     0.0121     0.0096                         41698  4  362 
 110.        25.327     0.0122                                    41698  4  363 
 110.        25.451     0.0160                                    41698  4  364 
 110.        25.579     0.0149                                    41698  4  365 
 110.        25.666     0.0246                                    41698  4  366 
 110.        25.795     0.0224                                    41698  4  367 
 110.        25.822     0.0284                                    41698  4  368 
 110.        25.944     0.0358                                    41698  4  369 
 110.        26.030     0.0479      0.012                         41698  4  370 
 110.        26.157     0.0468                                    41698  4  371 
 110.        26.278     0.0554                                    41698  4  372 
 110.        26.398     0.0640                                    41698  4  373 
 110.        26.521     0.0689                                    41698  4  374 
 110.        26.642     0.0775     0.0229                         41698  4  375 
 110.        26.762     0.0860                                    41698  4  376 
 110.        26.857     0.0873                                    41698  4  377 
 110.        27.009     0.0959                                    41698  4  378 
 110.        27.130     0.1033                                    41698  4  379 
 110.        27.253     0.1082     0.0217                         41698  4  380 
 110.        27.341     0.1180                                    41698  4  381 
 110.        27.524     0.1278                                    41698  4  382 
 110.        27.608     0.1435                                    41698  4  383 
 110.        27.727     0.1533                                    41698  4  384 
 110.        27.878     0.1643     0.0325                         41698  4  385 
 110.        27.992     0.1813                                    41698  4  386 
 110.        28.113     0.1899                                    41698  4  387 
 110.        28.235     0.1960                                    41698  4  388 
 110.        28.393     0.1962                                    41698  4  389 
 110.        28.477     0.1686     0.0349                         41698  4  390 
 110.        28.564     0.1361                                    41698  4  391 
 110.        28.722     0.1363                                    41698  4  392 
 110.        28.849     0.1364                                    41698  4  393 
 110.        28.997     0.1498                                    41698  4  394 
 110.        29.085     0.1596     0.0265                         41698  4  395 
 110.        29.207     0.1657                                    41698  4  396 
 110.        29.323     0.1815                                    41698  4  397 
 110.        29.442     0.1913                                    41698  4  398 
 110.        29.617     0.2131                                    41698  4  399 
 110.        29.654     0.2493     0.0265                         41698  4  400 
 110.        29.827     0.2724                                    41698  4  401 
 110.        29.943     0.2870                                    41698  4  402 
 110.        30.071     0.3281                                    41698  4  403 
 110.        30.234     0.4090                                    41698  4  404 
 110.        30.351     0.4223     0.0397                         41698  4  405 
 110.        30.469     0.4779                                    41698  4  406 
 110.        30.587     0.4901                                    41698  4  407 
 110.        30.687     0.4829                                    41698  4  408 
 110.        30.809     0.4903                                    41698  4  409 
 110.        30.949     0.4724     0.0349                         41698  4  410 
 110.        31.085     0.4593                                    41698  4  411 
 110.        31.194     0.4401                                    41698  4  412 
 110.        31.380     0.4451                                    41698  4  413 
 110.        31.489     0.4705                                    41698  4  414 
 110.        31.563     0.4983     0.0265                         41698  4  415 
 110.        31.702     0.5250                                    41698  4  416 
 110.        31.778     0.5515                                    41698  4  417 
 110.        31.958     0.5650                                    41698  4  418 
 110.        32.078     0.5748                                    41698  4  419 
 110.        32.212     0.5653     0.0301                         41698  4  420 
 110.        32.341     0.5618                                    41698  4  421 
 110.        32.455     0.5788                                    41698  4  422 
 110.        32.609     0.5849                                    41698  4  423 
 110.        32.727     0.5971                                    41698  4  424 
 110.        32.855     0.6394     0.0349                         41698  4  425 
 110.        32.984     0.6793                                    41698  4  426 
 110.        33.088     0.7108                                    41698  4  427 
 110.        33.182     0.7554                                    41698  4  428 
 110.        33.297     0.7712                                    41698  4  429 
 110.        33.452     0.7762      0.053                         41698  4  430 
 110.        33.601     0.7462                                    41698  4  431 
 110.        33.709     0.7283                                    41698  4  432 
 110.        33.796     0.6958                                    41698  4  433 
 110.        33.937     0.6755                                    41698  4  434 
 110.        34.037     0.6696     0.0374                         41698  4  435 
 110.        34.182     0.6878                                    41698  4  436 
 110.        34.286     0.7192                                    41698  4  437 
 110.        34.419     0.7543                                    41698  4  438 
 110.        34.501     0.7725     0.0482                         41698  4  439 
 110.        34.684     0.7811                                    41698  4  440 
 110.        34.807     0.7873                                    41698  4  441 
 110.        34.906     0.7813                                    41698  4  442 
 110.        34.986     0.7585                                    41698  4  443 
 110.        35.138     0.7238     0.0458                         41698  4  444 
 110.        35.280     0.7022                                    41698  4  445 
 110.        35.382     0.6927                                    41698  4  446 
 110.        35.525     0.6711                                    41698  4  447 
 110.        35.629     0.6158                                    41698  4  448 
 110.        35.760     0.6087     0.0349                         41698  4  449 
 110.        35.863     0.6426                                    41698  4  450 
 110.        35.995     0.6777                                    41698  4  451 
 110.        36.108     0.6971                                    41698  4  452 
 110.        36.218     0.7201                                    41698  4  453 
 110.        36.310     0.7238                                    41698  4  454 
 110.        36.425     0.6974                                    41698  4  455 
 110.        36.566     0.6771     0.0289                         41698  4  456 
 110.        36.714     0.6483                                    41698  4  457 
 110.        36.857     0.6256                                    41698  4  458 
 110.        36.992     0.6149                                    41698  4  459 
 110.        37.065     0.6017                                    41698  4  460 
 110.        37.219     0.6079     0.0313                         41698  4  461 
 110.        37.352     0.5984                                    41698  4  462 
 110.        37.466     0.6166                                    41698  4  463 
 110.        37.607     0.6396                                    41698  4  464 
 110.        37.718     0.6614                                    41698  4  465 
 110.        37.842     0.6652     0.0361                         41698  4  466 
 110.        37.958     0.6364                                    41698  4  467 
 110.        38.092     0.6269                                    41698  4  468 
 110.        38.210     0.5957                                    41698  4  469 
 110.        38.329     0.5621                                    41698  4  470 
 110.        38.475     0.5357     0.0373                         41698  4  471 
 110.        38.574     0.4864                                    41698  4  472 
 110.        38.661     0.4540                                    41698  4  473 
 110.        38.829     0.4409                                    41698  4  474 
 110.        38.916     0.4085                                    41698  4  475 
 110.        39.052     0.3966     0.0446                         41698  4  476 
 110.        39.180     0.3943                                    41698  4  477 
 110.        39.270     0.4016                                    41698  4  478 
 110.        39.393     0.4066                                    41698  4  479 
 110.        39.552     0.4055                                    41698  4  480 
 110.        39.657     0.3924      0.041                         41698  4  481 
 110.        39.759     0.3395                                    41698  4  482 
 110.        39.864     0.2818                                    41698  4  483 
 110.        40.017     0.2891                                    41698  4  484 
 110.        40.176     0.2881                                    41698  4  485 
 110.        40.223     0.3110     0.0169                         41698  4  486 
 110.        40.395     0.3353                                    41698  4  487 
 110.        40.504     0.3162                                    41698  4  488 
 110.        40.644     0.2982                                    41698  4  489 
 110.        40.766     0.2622                                    41698  4  490 
 110.        40.843     0.2430     0.0252                         41698  4  491 
 110.        40.965     0.2492                                    41698  4  492 
 110.        41.065     0.2421                                    41698  4  493 
 110.        41.078     0.2252                                    41698  4  494 
 110.        41.250     0.2061                                    41698  4  495 
 110.        41.326     0.1893                                    41698  4  496 
 110.        41.485     0.1883     0.0253                         41698  4  497 
 110.        41.611     0.1884                                    41698  4  498 
 110.        41.720     0.1705                                    41698  4  499 
 110.        41.847     0.1694                                    41698  4  500 
 110.        41.928     0.1454                                    41698  4  501 
 110.        42.051     0.1503     0.0241                         41698  4  502 
 110.        42.106     0.1612                                    41698  4  503 
 110.        42.177     0.1517                                    41698  4  504 
 110.        42.254     0.1758                                    41698  4  505 
 110.        42.335     0.1518                                    41698  4  506 
 110.        42.585     0.1569                                    41698  4  507 
 110.        42.729     0.1330     0.0181                         41698  4  508 
 110.        42.823     0.1343                                    41698  4  509 
 110.        42.950     0.1344                                    41698  4  510 
 110.        43.074     0.1381                                    41698  4  511 
 110.        43.185     0.1600                                    41698  4  512 
 110.        43.327     0.1384     0.0157                         41698  4  513 
 110.        43.407     0.1156                                    41698  4  514 
 110.        43.534     0.1157                                    41698  4  515 
 110.        43.677     0.0930                                    41698  4  516 
 110.        43.835     0.0932                                    41698  4  517 
 110.        43.962     0.0933     0.0072                         41698  4  518 
 110.        43.988     0.1006     0.0072                         41698  4  519 
 110.        44.086     0.0970                                    41698  4  520 
 110.        44.134     0.1176                                    41698  4  521 
 110.        44.209     0.1454                                    41698  4  522 
 110.        44.334     0.1479                                    41698  4  523 
 110.        44.447     0.1239                                    41698  4  524 
 110.        44.626     0.0952     0.0144                         41698  4  525 
 110.        44.717     0.1001                                    41698  4  526 
 110.        44.832     0.0737                                    41698  4  527 
 110.        44.958     0.0739                                    41698  4  528 
 110.        45.073     0.0475                                    41698  4  529 
 110.        45.229     0.0501     0.0072                         41698  4  530 
 110.        45.323     0.0514                                    41698  4  531 
 110.        45.375     0.0237                                    41698  4  532 
 110.        45.532     0.0263                                    41698  4  533 
 110.        45.658     0.0264                                    41698  4  534 
 110.        45.784     0.0277     0.0073                         41698  4  535 
 112.        25.283     0.0159                                    41698  4  536 
 112.        25.410     0.0149                                    41698  4  537 
 112.        25.492     0.0292     0.0143                         41698  4  538 
 112.        25.620     0.0282                                    41698  4  539 
 112.        25.746     0.0284                                    41698  4  540 
 112.        25.871     0.0297                                    41698  4  541 
 112.        25.998     0.0299                                    41698  4  542 
 112.        26.123     0.0312     0.0131                         41698  4  543 
 112.        26.245     0.0361                                    41698  4  544 
 112.        26.366     0.0422                                    41698  4  545 
 112.        26.481     0.0555                                    41698  4  546 
 112.        26.609     0.0533                                    41698  4  547 
 112.        26.698     0.0605     0.0143                         41698  4  548 
 112.        26.824     0.0607                                    41698  4  549 
 112.        26.919     0.0608                                    41698  4  550 
 112.        27.044     0.0621                                    41698  4  551 
 112.        27.231     0.0659     0.0203                         41698  4  552 
 112.        27.355     0.0685                                    41698  4  553 
 112.        27.471     0.0805                                    41698  4  554 
 112.        27.671     0.1046                                    41698  4  555 
 112.        27.819     0.1167                                    41698  4  556 
 112.        27.941     0.1216     0.0178                         41698  4  557 
 112.        28.056     0.1348                                    41698  4  558 
 112.        28.212     0.1362                                    41698  4  559 
 112.        28.329     0.1471                                    41698  4  560 
 112.        28.416     0.1567                                    41698  4  561 
 112.        28.575     0.1557     0.0214                         41698  4  562 
 112.        28.633     0.1617                                    41698  4  563 
 112.        28.758     0.1631                                    41698  4  564 
 112.        28.890     0.1573                                    41698  4  565 
 112.        29.085     0.1504     0.0156                         41698  4  566 
 112.        29.244     0.1494                                    41698  4  567 
 112.        29.376     0.1436                                    41698  4  568 
 112.        29.541     0.1355                                    41698  4  569 
 112.        29.661     0.1428                                    41698  4  570 
 112.        29.725     0.1786                                    41698  4  571 
 112.        29.739     0.1619     0.0179                         41698  4  572 
 112.        29.833     0.1989                                    41698  4  573 
 112.        30.005     0.2194                                    41698  4  574 
 112.        30.141     0.2446                                    41698  4  575 
 112.        30.224     0.2935                                    41698  4  576 
 112.        30.344     0.3377     0.0178                         41698  4  577 
 112.        30.448     0.3628                                    41698  4  578 
 112.        30.549     0.3915                                    41698  4  579 
 112.        30.722     0.4108                                    41698  4  580 
 112.        30.835     0.4264                                    41698  4  581 
 112.        30.944     0.4456     0.0237                         41698  4  582 
 112.        31.056     0.4624                                    41698  4  583 
 112.        31.171     0.4756                                    41698  4  584 
 112.        31.286     0.4888                                    41698  4  585 
 112.        31.433     0.5009                                    41698  4  586 
 112.        31.521     0.5094     0.0274                         41698  4  587 
 112.        31.669     0.5203                                    41698  4  588 
 112.        31.786     0.5311                                    41698  4  589 
 112.        31.900     0.5456                                    41698  4  590 
 112.        32.045     0.5600                                    41698  4  591 
 112.        32.095     0.5756                                    41698  4  592 
 112.        32.133     0.5685     0.0298                         41698  4  593 
 112.        32.286     0.5746                                    41698  4  594 
 112.        32.361     0.5961                                    41698  4  595 
 112.        32.471     0.6153                                    41698  4  596 
 112.        32.672     0.6382                                    41698  4  597 
 112.        32.782     0.6574      0.031                         41698  4  598 
 112.        32.887     0.6813                                    41698  4  599 
 112.        33.029     0.7005                                    41698  4  600 
 112.        33.165     0.7257                                    41698  4  601 
 112.        33.202     0.7555                                    41698  4  602 
 112.        33.393     0.7891                                    41698  4  603 
 112.        33.483     0.7952     0.0369                         41698  4  604 
 112.        33.635     0.8025                                    41698  4  605 
 112.        33.743     0.7872                                    41698  4  606 
 112.        33.840     0.7492                                    41698  4  607 
 112.        33.982     0.7315                                    41698  4  608 
 112.        34.102     0.7388      0.025                         41698  4  609 
 112.        34.270     0.7628                                    41698  4  610 
 112.        34.374     0.7891                                    41698  4  611 
 112.        34.494     0.7964                                    41698  4  612 
 112.        34.604     0.8144                                    41698  4  613 
 112.        34.673     0.8085                                    41698  4  614 
 112.        34.686     0.7574                                    41698  4  615 
 112.        34.832     0.8076                                    41698  4  616 
 112.        34.943     0.7886                                    41698  4  617 
 112.        35.060     0.7638                                    41698  4  618 
 112.        35.209     0.7378                                    41698  4  619 
 112.        35.281     0.7284     0.0417                         41698  4  620 
 112.        35.421     0.7131                                    41698  4  621 
 112.        35.561     0.6977                                    41698  4  622 
 112.        35.690     0.6943                                    41698  4  623 
 112.        35.787     0.6921                                    41698  4  624 
 112.        35.889     0.6839     0.0381                         41698  4  625 
 112.        36.043     0.6888                                    41698  4  626 
 112.        36.290     0.6951                                    41698  4  627 
 112.        36.413     0.6988                                    41698  4  628 
 112.        36.568     0.7026     0.0286                         41698  4  629 
 112.        36.657     0.7098                                    41698  4  630 
 112.        36.755     0.7064                                    41698  4  631 
 112.        36.909     0.7101                                    41698  4  632 
 112.        37.007     0.7067                                    41698  4  633 
 112.        37.142     0.6973     0.0381                         41698  4  634 
 112.        37.255     0.6772                                    41698  4  635 
 112.        37.398     0.6584                                    41698  4  636 
 112.        37.518     0.6288                                    41698  4  637 
 112.        37.600     0.6074                                    41698  4  638 
 112.        37.774     0.5898     0.0274                         41698  4  639 
 112.        37.916     0.5721                                    41698  4  640 
 112.        38.028     0.5532                                    41698  4  641 
 112.        38.170     0.5355                                    41698  4  642 
 112.        38.314     0.5155                                    41698  4  643 
 112.        38.460     0.4930     0.0286                         41698  4  644 
 112.        38.549     0.4634                                    41698  4  645 
 112.        38.649     0.4575                                    41698  4  646 
 112.        38.797     0.4327                                    41698  4  647 
 112.        38.898     0.4257                                    41698  4  648 
 112.        39.030     0.4199     0.0179                         41698  4  649 
 112.        39.167     0.4082                                    41698  4  650 
 112.        39.268     0.4012                                    41698  4  651 
 112.        39.433     0.3930                                    41698  4  652 
 112.        39.552     0.3658                                    41698  4  653 
 112.        39.688     0.3553      0.025                         41698  4  654 
 112.        39.792     0.3447                                    41698  4  655 
 112.        39.924     0.3377                                    41698  4  656 
 112.        40.030     0.3259                                    41698  4  657 
 112.        40.165     0.3154                                    41698  4  658 
 112.        40.292     0.3155     0.0167                         41698  4  659 
 112.        40.299     0.3072                                    41698  4  660 
 112.        40.404     0.2954                                    41698  4  661 
 112.        40.663     0.2886                                    41698  4  662 
 112.        40.831     0.2781                                    41698  4  663 
 112.        40.939     0.2628     0.0166                         41698  4  664 
 112.        41.098     0.2618                                    41698  4  665 
 112.        41.137     0.2535                                    41698  4  666 
 112.        41.308     0.2382                                    41698  4  667 
 112.        41.381     0.2276                                    41698  4  668 
 112.        41.540     0.2266     0.0143                         41698  4  669 
 112.        41.703     0.2209                                    41698  4  670 
 112.        41.811     0.2055                                    41698  4  671 
 112.        41.905     0.2068                                    41698  4  672 
 112.        42.095     0.2071                                    41698  4  673 
 112.        42.231     0.1953     0.0155                         41698  4  674 
 112.        42.324     0.1978                                    41698  4  675 
 112.        42.401     0.1825                                    41698  4  676 
 112.        42.557     0.1850                                    41698  4  677 
 112.        42.703     0.1983                                    41698  4  678 
 112.        42.780     0.1829                                    41698  4  679 
 112.        42.791     0.1698     0.0143                         41698  4  680 
 112.        42.830     0.1973                                    41698  4  681 
 112.        42.950     0.1689                                    41698  4  682 
 112.        43.107     0.1702                                    41698  4  683 
 112.        43.148     0.1596                                    41698  4  684 
 112.        43.306     0.1598                                    41698  4  685 
 112.        43.465     0.1588     0.0107                         41698  4  686 
 112.        43.541     0.1446                                    41698  4  687 
 112.        43.667     0.1447                                    41698  4  688 
 112.        43.805     0.1318                                    41698  4  689 
 112.        43.901     0.1308                                    41698  4  690 
 112.        44.043     0.1131     0.0107                         41698  4  691 
 112.        44.165     0.1180                                    41698  4  692 
 112.        44.323     0.1182                                    41698  4  693 
 112.        44.450     0.1172                                    41698  4  694 
 112.        44.530     0.0982                                    41698  4  695 
 112.        44.688     0.0984                                    41698  4  696 
 112.        44.780     0.1021                                    41698  4  697 
 112.        44.906     0.1022                                    41698  4  698 
 112.        45.080     0.0846                                    41698  4  699 
 112.        45.203     0.0883                                    41698  4  700 
 112.        45.328     0.0897                                    41698  4  701 
 112.        45.473     0.0684                                    41698  4  702 
 112.        45.599     0.0698                                    41698  4  703 
 112.        45.691     0.0723                                    41698  4  704 
 112.        45.785     0.0736                                    41698  4  705 
 112.        45.944     0.0726                                    41698  4  706 
 112.        46.054     0.0918                                    41698  4  707 
 112.        46.181     0.0907                                    41698  4  708 
ENDDATA            686          0                                 41698  4  709 
ENDSUBENT          708          0                                 41698  499999 
ENDENTRY             4          0                                 4169899999999 
