ENTRY            41753   20221108                             420941753  0    1 
SUBENT        41753001   20221108                             420941753  1    1 
BIB                 13         27                                 41753  1    2 
TITLE      The measurement of SIGMAt for 235U in the neutron      41753  1    3 
           energy range of 1.5 - 2.0 MeV with ~2 keV resolution   41753  1    4 
AUTHOR     (V.M.Morozov,Yu.G.Zubov,N.S.Lebedeva)                  41753  1    5 
REFERENCE  ((J,YK,,(1/50),11,1983)=                               41753  1    6 
           (R,INDC(CCP)-213,11,1983)) In Russian.                 41753  1    7 
           No Engl.translation as INDC(CCP) report.               41753  1    8 
INSTITUTE  (4RUSKUR)                                              41753  1    9 
REL-REF    (I,41754001,V.M.Morozov+,C,80KIEV,1,200,1980)          41753  1   10 
            Setup details.                                        41753  1   11 
            Method of detector energy scale calibration.          41753  1   12 
FACILITY   (ACCEL,4RUSKUR) Electrostatic accelerator ESU-2.5 .    41753  1   13 
INC-SOURCE (D-C12)                                                41753  1   14 
SAMPLE      Natural and enriched to 75 % U-235 samples in form of 41753  1   15 
            cylinders of 35 mm diameter, 0.07 at/b length.        41753  1   16 
DETECTOR   . Two neutron detectors at 29.6 and 30.4 deg angles.   41753  1   17 
           (SI) Silicon semiconductor detector for registration of41753  1   18 
           protons from C-12(d,p) accompanying reaction -         41753  1   19 
           for monitoring.                                        41753  1   20 
METHOD     (TRN)                                                  41753  1   21 
MONITOR     Maximum in C-S of C-12 at En=2078.0+-0.3 keV and      41753  1   22 
            minimum in C-S of Pb-208 at En=1744.8 keV             41753  1   23 
            were used for detectors energy calibration with       41753  1   24 
            energy scale accuracy ~4 keV.                         41753  1   25 
            Energy resolution of experiment varied from 2.2 keV   41753  1   26 
            at 1.5 MeV to 2.1 keV at 2.0 MeV.                     41753  1   27 
ERR-ANALYS (ERR-S) Statistical uncertainty 1-2 %.                 41753  1   28 
HISTORY    (20221108C)                                            41753  1   29 
ENDBIB              27          0                                 41753  1   30 
NOCOMMON             0          0                                 41753  1   31 
ENDSUBENT           30          0                                 41753  199999 
SUBENT        41753002   20221108                             420941753  2    1 
BIB                  4          9                                 41753  2    2 
REACTION   (92-U-238(N,TOT),,SIG)                                 41753  2    3 
REL-REF    (D,,D.Kopsh+,R,KFK-1000,1968)                          41753  2    4 
            Difference 1-2 %                                      41753  2    5 
           (D,10280006,R.B.Schwartz+,J,NSE,54,322,1974)           41753  2    6 
            Difference 1-2 %                                      41753  2    7 
           (A,10279002,S.H.Hayes+,J,NSE,50,243,1973)              41753  2    8 
ERR-ANALYS . Quantization errors:                                 41753  2    9 
           scale X - 0.22 keV, scale Y - 0.0022 b.                41753  2   10 
STATUS     (CURVE) Fig. upper of INDC(CCP)-213,11,1983            41753  2   11 
ENDBIB               9          0                                 41753  2   12 
COMMON               2          3                                 41753  2   13 
EN-ERR-DIG ERR-DIG                                                41753  2   14 
KEV        B                                                      41753  2   15 
0.46       0.0016                                                 41753  2   16 
ENDCOMMON            3          0                                 41753  2   17 
DATA                 3        145                                 41753  2   18 
EN         DATA       ERR-S                                       41753  2   19 
KEV        B          B                                           41753  2   20 
     1519.3     7.0860     0.0903                                 41753  2   21 
     1523.2     7.1462     0.0688                                 41753  2   22 
     1528.8     7.2623     0.1075                                 41753  2   23 
     1531.9     7.1419      0.086                                 41753  2   24 
     1537.5     7.1290                                            41753  2   25 
     1540.5     7.1418                                            41753  2   26 
     1545.7     7.1762                                            41753  2   27 
     1548.8     7.0816                                            41753  2   28 
     1554.4     7.1203                                            41753  2   29 
     1557.0     7.1332                                            41753  2   30 
     1563.5     7.1977                                            41753  2   31 
     1567.0     7.2020                                            41753  2   32 
     1571.8     7.2235                                            41753  2   33 
     1574.8     7.1718                                            41753  2   34 
     1580.4     7.2019                                            41753  2   35 
     1583.5     7.3266                                            41753  2   36 
     1587.8     7.2793                                            41753  2   37 
     1590.4     7.1202                                            41753  2   38 
     1594.7     7.2750                                            41753  2   39 
     1596.9     7.3395                                            41753  2   40 
     1598.2     7.2922                                            41753  2   41 
     1599.5     7.0728                                            41753  2   42 
     1602.5     7.0169                                            41753  2   43 
     1603.8     7.0384                                            41753  2   44 
     1605.1     7.0599                                            41753  2   45 
     1606.9     7.0126                                            41753  2   46 
     1609.5     7.1932                                            41753  2   47 
     1611.2     7.1502                                            41753  2   48 
     1612.9     7.1889                                            41753  2   49 
     1614.2     7.2061                                            41753  2   50 
     1616.4     7.1416                                            41753  2   51 
     1618.6     7.3523                                            41753  2   52 
     1620.7     7.2061                                            41753  2   53 
     1625.1     7.3566                                            41753  2   54 
     1628.1     7.2017                                            41753  2   55 
     1632.4     7.2662                                            41753  2   56 
     1635.9     7.0985                                            41753  2   57 
     1640.2     7.1501                                            41753  2   58 
     1643.3     7.3264                                            41753  2   59 
     1648.0     7.3092                                            41753  2   60 
     1650.6     7.0468                                            41753  2   61 
     1655.0     7.3221                                            41753  2   62 
     1658.9     7.0210                                            41753  2   63 
     1662.8     7.1242                                            41753  2   64 
     1665.8     7.1715                                            41753  2   65 
     1670.6     7.1973                                            41753  2   66 
     1673.2     7.1027                                            41753  2   67 
     1675.8     7.4209                                            41753  2   68 
     1677.9     7.1758                                            41753  2   69 
     1679.3     7.3822                                            41753  2   70 
     1681.0     7.1930                                            41753  2   71 
     1683.6     7.2704                                            41753  2   72 
     1686.2     7.1069                                            41753  2   73 
     1691.0     7.3650                                            41753  2   74 
     1694.0     7.2445                                            41753  2   75 
     1698.8     7.2789                                            41753  2   76 
     1701.8     7.2015                                            41753  2   77 
     1706.1     7.1886                                            41753  2   78 
     1710.0     7.2789                                            41753  2   79 
     1713.9     7.3004                                            41753  2   80 
     1717.8     7.2444                                            41753  2   81 
     1721.3     7.1197                                            41753  2   82 
     1725.6     7.3218                                            41753  2   83 
     1730.0     7.3648                                            41753  2   84 
     1733.4     7.1584                                            41753  2   85 
     1737.3     7.2315                                            41753  2   86 
     1740.8     7.1841                                            41753  2   87 
     1746.4     7.3390                                            41753  2   88 
     1749.5     7.2787                                            41753  2   89 
     1752.9     7.2744                                            41753  2   90 
     1756.0     7.3088                                            41753  2   91 
     1760.7     7.2228                                            41753  2   92 
     1763.3     7.3604                                            41753  2   93 
     1768.6     7.4120                                            41753  2   94 
     1771.2     7.3819                                            41753  2   95 
     1775.0     7.2313     0.0731                                 41753  2   96 
     1779.4     7.3689     0.0688                                 41753  2   97 
     1783.3     7.1625     0.1161                                 41753  2   98 
     1787.6     7.2270                                            41753  2   99 
     1792.0     7.2313                                            41753  2  100 
     1795.4     7.2141                                            41753  2  101 
     1799.8     7.3818                                            41753  2  102 
     1803.7     7.2871                                            41753  2  103 
     1808.0     7.1194                                            41753  2  104 
     1811.9     7.3473                                            41753  2  105 
     1815.8     7.3172                                            41753  2  106 
     1818.8     7.2699                                            41753  2  107 
     1824.0     7.3989                                            41753  2  108 
     1827.1     7.3258                                            41753  2  109 
     1831.4     7.2913                                            41753  2  110 
     1835.3     7.4892                                            41753  2  111 
     1840.1     7.3945                                            41753  2  112 
     1842.7     7.3343                                            41753  2  113 
     1847.9     7.2225                                            41753  2  114 
     1851.8     7.3945                                            41753  2  115 
     1856.1     7.2525                                            41753  2  116 
     1859.6     7.3343                                            41753  2  117 
     1863.5     7.3256                                            41753  2  118 
     1867.8     7.2654                                            41753  2  119 
     1871.7     7.2869                                            41753  2  120 
     1874.7     7.3385                                            41753  2  121 
     1876.9     7.3858                                            41753  2  122 
     1878.6     7.3256                                            41753  2  123 
     1880.4     7.2353                                            41753  2  124 
     1883.4     7.4675                                            41753  2  125 
     1887.8     7.3299                                            41753  2  126 
     1890.4     7.3126                                            41753  2  127 
     1894.7     7.4115                                            41753  2  128 
     1898.6     7.3169                                            41753  2  129 
     1902.9     7.4459                                            41753  2  130 
     1906.4     7.5577                                            41753  2  131 
     1910.7     7.4029                                            41753  2  132 
     1913.3     7.3470                                            41753  2  133 
     1915.1     7.4932                                            41753  2  134 
     1919.0     7.1921                                            41753  2  135 
     1922.0     7.3082                                            41753  2  136 
     1924.6     7.3125                                            41753  2  137 
     1927.6     7.4716                                            41753  2  138 
     1929.8     7.4630                                            41753  2  139 
     1932.4     7.5749                                            41753  2  140 
     1935.0     7.2652                                            41753  2  141 
     1937.6     7.2394                                            41753  2  142 
     1939.8     7.2738                                            41753  2  143 
     1943.2     7.5103                                            41753  2  144 
     1946.7     7.2694                                            41753  2  145 
     1948.4     7.5920                                            41753  2  146 
     1951.5     7.4415                                            41753  2  147 
     1954.5     7.4672                                            41753  2  148 
     1956.2     7.4457                                            41753  2  149 
     1958.8     7.4500                                            41753  2  150 
     1962.3     7.5790                                            41753  2  151 
     1964.5     7.5102                                            41753  2  152 
     1967.1     7.3898                                            41753  2  153 
     1971.0     7.3511                                            41753  2  154 
     1971.9     7.6650                                            41753  2  155 
     1975.3     7.4500                                            41753  2  156 
     1979.7     7.4241                                            41753  2  157 
     1980.5     7.5790                                            41753  2  158 
     1984.4     7.5188                                            41753  2  159 
     1987.5     7.6005                                            41753  2  160 
     1989.2     7.4026                                            41753  2  161 
     1993.1     7.4198                                            41753  2  162 
     1996.6     7.4628                                            41753  2  163 
     1997.0     7.3424                                            41753  2  164 
     2001.8     7.5144                                            41753  2  165 
ENDDATA            147          0                                 41753  2  166 
ENDSUBENT          165          0                                 41753  299999 
SUBENT        41753003   20221108                             420941753  3    1 
BIB                  4          5                                 41753  3    2 
REACTION   (92-U-235(N,TOT),,SIG)                                 41753  3    3 
REL-REF    (A,10280005,R.B.Schwartz+,J,NSE,54,322,1974)           41753  3    4 
ERR-ANALYS . Quantization errors:                                 41753  3    5 
           scale X - 0.22 keV, scale Y - 0.0021 b.                41753  3    6 
STATUS     (CURVE) Fig. lower of INDC(CCP)-213,11,1983            41753  3    7 
ENDBIB               5          0                                 41753  3    8 
COMMON               2          3                                 41753  3    9 
EN-ERR-DIG ERR-DIG                                                41753  3   10 
KEV        B                                                      41753  3   11 
0.46       0.0016                                                 41753  3   12 
ENDCOMMON            3          0                                 41753  3   13 
DATA                 3        144                                 41753  3   14 
EN         DATA       ERR-S                                       41753  3   15 
KEV        B          B                                           41753  3   16 
     1521.1     6.8745     0.1283                                 41753  3   17 
     1524.5     6.5921     0.1198                                 41753  3   18 
     1530.1     6.7547                                            41753  3   19 
     1532.3     6.7375                                            41753  3   20 
     1537.9     6.6134                                            41753  3   21 
     1541.4     6.8616                                            41753  3   22 
     1546.1     6.8102                                            41753  3   23 
     1550.0     6.8187                                            41753  3   24 
     1554.7     6.8144                                            41753  3   25 
     1557.8     6.8615                                            41753  3   26 
     1563.8     6.9556                                            41753  3   27 
     1567.7     7.0112                                            41753  3   28 
     1572.0     6.6817                                            41753  3   29 
     1575.0     6.8143                                            41753  3   30 
     1581.1     6.8913                                            41753  3   31 
     1583.7     6.8314                                            41753  3   32 
     1588.0     6.7972                                            41753  3   33 
     1591.0     6.9041                                            41753  3   34 
     1596.2     6.6046                                            41753  3   35 
     1596.2     6.8228                                            41753  3   36 
     1598.8     6.8998                                            41753  3   37 
     1599.7     6.5789                                            41753  3   38 
     1603.5     6.7415                                            41753  3   39 
     1607.4     6.7671                                            41753  3   40 
     1610.5     6.9682                                            41753  3   41 
     1612.6     7.1436                                            41753  3   42 
     1613.5     6.7628                                            41753  3   43 
     1615.2     6.9083                                            41753  3   44 
     1617.4     6.7927                                            41753  3   45 
     1619.5     6.8569                                            41753  3   46 
     1620.8     6.6259                                            41753  3   47 
     1623.0     6.8569                                            41753  3   48 
     1626.0     7.0323                                            41753  3   49 
     1628.6     6.9039                                            41753  3   50 
     1632.1     6.6215                                            41753  3   51 
     1636.4     6.9039                                            41753  3   52 
     1641.1     6.8867                                            41753  3   53 
     1644.2     6.9295                                            41753  3   54 
     1649.3     7.0493                                            41753  3   55 
     1651.5     6.6856                                            41753  3   56 
     1656.3     6.9166                                            41753  3   57 
     1658.8     6.8310                                            41753  3   58 
     1662.7     6.6471                                            41753  3   59 
     1666.6     6.8438                                            41753  3   60 
     1671.8     6.9636                                            41753  3   61 
     1675.3     7.1946                                            41753  3   62 
     1677.4     7.0192                                            41753  3   63 
     1679.1     6.8267                                            41753  3   64 
     1680.0     6.7026                                            41753  3   65 
     1682.6     6.7454                                            41753  3   66 
     1683.9     6.8352                                            41753  3   67 
     1687.3     6.8052                                            41753  3   68 
     1691.7     7.0704                                            41753  3   69 
     1694.7     6.7624                                            41753  3   70 
     1698.2     6.8608                                            41753  3   71 
     1701.6     6.6725                                            41753  3   72 
     1707.7     7.0661                                            41753  3   73 
     1709.8     6.5356                                            41753  3   74 
     1715.0     6.8521                                            41753  3   75 
     1718.0     6.8008                                            41753  3   76 
     1723.2     6.9462                                            41753  3   77 
     1725.8     6.8607                                            41753  3   78 
     1730.1     7.1686                                            41753  3   79 
     1734.0     6.8948                                            41753  3   80 
     1739.2     6.8777                                            41753  3   81 
     1740.9     6.6338                                            41753  3   82 
     1745.7     7.0360                                            41753  3   83 
     1750.0     6.7022                                            41753  3   84 
     1754.3     6.7878                                            41753  3   85 
     1756.5     7.2156                                            41753  3   86 
     1761.2     6.8476                                            41753  3   87 
     1764.7     6.9118                                            41753  3   88 
     1769.0     6.7877                                            41753  3   89 
     1772.0     7.1556                                            41753  3   90 
     1775.9     7.0187     0.0984                                 41753  3   91 
     1779.4     6.9374     0.0856                                 41753  3   92 
     1783.2     6.7705     0.1497                                 41753  3   93 
     1788.0     6.9031                                            41753  3   94 
     1792.8     7.0186                                            41753  3   95 
     1795.8     6.9330                                            41753  3   96 
     1799.7     6.7918                                            41753  3   97 
     1804.0     7.0485                                            41753  3   98 
     1807.9     6.8987                                            41753  3   99 
     1812.2     7.0142                                            41753  3  100 
     1815.6     6.9843                                            41753  3  101 
     1819.5     6.8559                                            41753  3  102 
     1823.8     6.8602                                            41753  3  103 
     1827.7     7.0569                                            41753  3  104 
     1832.1     6.9115                                            41753  3  105 
     1834.7     6.9671                                            41753  3  106 
     1838.1     6.9157                                            41753  3  107 
     1843.7     6.9970                                            41753  3  108 
     1848.0     7.0312                                            41753  3  109 
     1851.5     7.0183                                            41753  3  110 
     1856.7     7.0482                                            41753  3  111 
     1860.1     7.0439                                            41753  3  112 
     1862.7     6.9241                                            41753  3  113 
     1867.5     7.0525                                            41753  3  114 
     1872.7     6.8514                                            41753  3  115 
     1874.4     6.8171                                            41753  3  116 
     1877.4     7.1123                                            41753  3  117 
     1880.0     6.8342                                            41753  3  118 
     1880.4     6.7743                                            41753  3  119 
     1883.9     6.7871                                            41753  3  120 
     1888.2     7.0438                                            41753  3  121 
     1891.7     6.9839                                            41753  3  122 
     1895.6     7.0780                                            41753  3  123 
     1899.9     7.2705                                            41753  3  124 
     1903.8     7.0266                                            41753  3  125 
     1907.7     6.9795                                            41753  3  126 
     1911.5     7.0522                                            41753  3  127 
     1914.1     6.9453                                            41753  3  128 
     1916.3     7.1635                                            41753  3  129 
     1919.8     7.0693                                            41753  3  130 
     1922.8     7.1206                                            41753  3  131 
     1925.4     7.2147                                            41753  3  132 
     1927.5     7.1078                                            41753  3  133 
     1931.4     7.1163                                            41753  3  134 
     1933.2     7.3644                                            41753  3  135 
     1935.3     7.0051                                            41753  3  136 
     1938.8     7.0264                                            41753  3  137 
     1940.9     7.2446                                            41753  3  138 
     1943.9     7.1847                                            41753  3  139 
     1947.0     7.2061                                            41753  3  140 
     1950.4     7.2061                                            41753  3  141 
     1952.2     7.1804                                            41753  3  142 
     1955.6     7.0905                                            41753  3  143 
     1956.9     7.2616                                            41753  3  144 
     1959.9     7.1376                                            41753  3  145 
     1963.4     7.1204                                            41753  3  146 
     1965.1     7.0819                                            41753  3  147 
     1967.7     7.1161                                            41753  3  148 
     1971.1     6.8509                                            41753  3  149 
     1973.3     7.1204                                            41753  3  150 
     1976.8     7.1418                                            41753  3  151 
     1978.9     7.0177                                            41753  3  152 
     1980.6     6.8551                                            41753  3  153 
     1985.0     7.1760                                            41753  3  154 
     1988.9     7.0775                                            41753  3  155 
     1989.7     7.0348                                            41753  3  156 
     1994.1     7.2144                                            41753  3  157 
     1996.6     6.9962                                            41753  3  158 
     1999.7     7.0304                                            41753  3  159 
     2002.3     7.1502                                            41753  3  160 
ENDDATA            146          0                                 41753  3  161 
ENDSUBENT          160          0                                 41753  399999 
ENDENTRY             3          0                                 4175399999999 
