ENTRY            10009   19990617                             00001000900000001 
SUBENT        10009001   19990617                             00001000900100001 
BIB                  9         14                                 1000900100002 
INSTITUTE  (1USAANL)                                              1000900100003 
REFERENCE  (P,ANL-7710,9,197101)                                  1000900100004 
AUTHOR     (J.F.WHALEN,A.B.SMITH)                                 1000900100005 
TITLE      - Uranium total cross section. -                       1000900100006 
FACILITY   (VDG) 3-MeV Van-de-Graaff.                             1000900100007 
INC-SOURCE (P-LI7)  7Li (p,n).                                    1000900100008 
ERR-ANALYS Data error given is statistical error.                 1000900100009 
STATUS     (APRVD) Data approved by author.                       1000900100010 
            Data taken from private comm., Whalen, 69/12.         1000900100011 
HISTORY    (19690908C)                                            1000900100012 
           (19700106A)                                            1000900100013 
           (19800812A) Converted to REACTION formalism            1000900100014 
           (19840319A) BIB update.                                1000900100015 
           (19860815A) BIB update.                                1000900100016 
ENDBIB              14          0                                 1000900100017 
NOCOMMON             0          0                                 1000900100018 
ENDSUBENT           17          0                                 1000900199999 
SUBENT        10009002   19990617                             00001000900200001 
BIB                  6         10                                 1000900200002 
REACTION   (92-U-238(N,TOT),,SIG)                                 1000900200003 
INC-SPECT  Monoenergetic source (+-2 keV).                        1000900200004 
SAMPLE     Rectangular block of 4 stacked plates 2 x 2 x .25 in.  1000900200005 
DETECTOR   (SCIN) In energy range 650 - 1500 keV, liquid          1000900200006 
            scintillator coupled to photomultipliers used - biased1000900200007 
            for 2nd group discrimination.                         1000900200008 
           (BF3) In energy range 100 - 650 keV, bank of 24 BF3    1000900200009 
            counters used. Flux monitored by BF3 counters.        1000900200010 
CORRECTION Corrected for background and target thickness.         1000900200011 
HISTORY    (19811016A) Corrected title heading.                   1000900200012 
ENDBIB              10          0                                 1000900200013 
NOCOMMON             0          0                                 1000900200014 
DATA                 3        524                                 1000900200015 
EN         DATA       ERR-S                                       1000900200016 
KEV        B          B                                           1000900200017 
 1.0220E+02 1.1870E+01 1.4000E-01                                 1000900200018 
 1.0620E+02 1.1610E+01 1.4000E-01                                 1000900200019 
 1.1030E+02 1.1900E+01 1.4000E-01                                 1000900200020 
 1.1430E+02 1.1620E+01 1.4000E-01                                 1000900200021 
 1.1830E+02 1.1270E+01 1.4000E-01                                 1000900200022 
 1.2240E+02 1.1600E+01 1.4000E-01                                 1000900200023 
 1.2640E+02 1.1520E+01 1.4000E-01                                 1000900200024 
 1.3040E+02 1.1420E+01 1.4000E-01                                 1000900200025 
 1.3440E+02 1.1480E+01 1.4000E-01                                 1000900200026 
 1.3840E+02 1.1170E+01 1.4000E-01                                 1000900200027 
 1.4240E+02 1.1000E+01 1.4000E-01                                 1000900200028 
 1.4650E+02 1.1440E+01 1.4000E-01                                 1000900200029 
 1.5050E+02 1.1310E+01 1.4000E-01                                 1000900200030 
 1.5450E+02 1.1200E+01 1.4000E-01                                 1000900200031 
 1.5850E+02 1.1260E+01 1.4000E-01                                 1000900200032 
 1.6250E+02 1.1090E+01 1.4000E-01                                 1000900200033 
 1.6650E+02 1.1240E+01 1.4000E-01                                 1000900200034 
 1.7050E+02 1.0760E+01 1.4000E-01                                 1000900200035 
 1.7450E+02 1.1360E+01 1.4000E-01                                 1000900200036 
 1.7650E+02 1.0790E+01 1.4000E-01                                 1000900200037 
 1.7850E+02 1.1040E+01 1.4000E-01                                 1000900200038 
 1.8050E+02 1.1100E+01 1.4000E-01                                 1000900200039 
 1.8250E+02 1.0830E+01 1.4000E-01                                 1000900200040 
 1.8450E+02 1.0740E+01 1.4000E-01                                 1000900200041 
 1.8650E+02 1.0630E+01 1.4000E-01                                 1000900200042 
 1.8860E+02 1.1070E+01 1.4000E-01                                 1000900200043 
 1.9060E+02 1.0970E+01 1.4000E-01                                 1000900200044 
 1.9260E+02 1.0940E+01 1.4000E-01                                 1000900200045 
 1.9460E+02 1.0680E+01 1.4000E-01                                 1000900200046 
 1.9660E+02 1.0850E+01 1.4000E-01                                 1000900200047 
 2.0260E+02 1.0840E+01 1.4000E-01                                 1000900200048 
 2.0460E+02 1.0590E+01 1.4000E-01                                 1000900200049 
 2.0660E+02 1.0620E+01 1.4000E-01                                 1000900200050 
 2.0860E+02 1.0570E+01 1.4000E-01                                 1000900200051 
 2.1060E+02 1.0190E+01 1.4000E-01                                 1000900200052 
 2.1260E+02 1.0590E+01 1.4000E-01                                 1000900200053 
 2.1460E+02 1.0770E+01 1.4000E-01                                 1000900200054 
 2.1660E+02 1.0320E+01 1.4000E-01                                 1000900200055 
 2.1860E+02 1.0610E+01 1.4000E-01                                 1000900200056 
 2.2060E+02 1.0660E+01 1.4000E-01                                 1000900200057 
 2.2260E+02 9.9500E+00 1.4000E-01                                 1000900200058 
 2.2460E+02 1.0910E+01 1.4000E-01                                 1000900200059 
 2.2660E+02 1.0440E+01 1.4000E-01                                 1000900200060 
 2.2860E+02 1.0340E+01 1.4000E-01                                 1000900200061 
 2.3060E+02 1.0110E+01 1.4000E-01                                 1000900200062 
 2.3260E+02 1.0270E+01 1.4000E-01                                 1000900200063 
 2.3460E+02 1.0040E+01 1.4000E-01                                 1000900200064 
 2.3660E+02 1.0000E+01 1.4000E-01                                 1000900200065 
 2.3860E+02 1.0040E+01 1.4000E-01                                 1000900200066 
 2.4060E+02 1.0390E+01 1.4000E-01                                 1000900200067 
 2.4260E+02 1.0550E+01 1.4000E-01                                 1000900200068 
 2.4660E+02 1.0120E+01 1.4000E-01                                 1000900200069 
 2.4860E+02 1.0160E+01 1.4000E-01                                 1000900200070 
 2.5060E+02 1.0030E+01 1.4000E-01                                 1000900200071 
 2.5270E+02 1.0610E+01 1.4000E-01                                 1000900200072 
 2.5470E+02 1.0310E+01 1.4000E-01                                 1000900200073 
 2.5670E+02 1.0250E+01 1.4000E-01                                 1000900200074 
 2.5870E+02 1.0330E+01 1.4000E-01                                 1000900200075 
 2.6070E+02 9.7200E+00 1.4000E-01                                 1000900200076 
 2.6270E+02 1.0180E+01 1.4000E-01                                 1000900200077 
 2.6670E+02 1.0230E+01 1.4000E-01                                 1000900200078 
 2.6870E+02 1.0160E+01 1.4000E-01                                 1000900200079 
 2.7070E+02 1.0200E+01 1.4000E-01                                 1000900200080 
 2.7270E+02 1.0110E+01 1.4000E-01                                 1000900200081 
 2.7470E+02 9.8800E+00 1.4000E-01                                 1000900200082 
 2.7670E+02 1.0410E+01 1.4000E-01                                 1000900200083 
 2.7870E+02 9.8100E+00 1.4000E-01                                 1000900200084 
 2.8070E+02 1.0030E+01 1.4000E-01                                 1000900200085 
 2.8270E+02 1.0010E+01 1.4000E-01                                 1000900200086 
 2.8470E+02 1.0010E+01 1.4000E-01                                 1000900200087 
 2.8870E+02 1.0000E+01 1.4000E-01                                 1000900200088 
 2.9070E+02 9.8500E+00 1.4000E-01                                 1000900200089 
 2.9270E+02 1.0050E+01 1.4000E-01                                 1000900200090 
 2.9470E+02 9.7200E+00 1.4000E-01                                 1000900200091 
 2.9640E+02 9.6600E+00 1.4000E-01                                 1000900200092 
 2.9840E+02 9.5100E+00 1.4000E-01                                 1000900200093 
 3.0040E+02 9.5500E+00 1.4000E-01                                 1000900200094 
 3.0240E+02 9.8800E+00 1.4000E-01                                 1000900200095 
 3.0440E+02 9.4700E+00 1.4000E-01                                 1000900200096 
 3.0640E+02 9.9300E+00 1.4000E-01                                 1000900200097 
 3.1040E+02 9.8000E+00 1.4000E-01                                 1000900200098 
 3.1240E+02 9.8000E+00 1.4000E-01                                 1000900200099 
 3.1440E+02 9.2800E+00 1.4000E-01                                 1000900200100 
 3.1640E+02 9.7400E+00 1.4000E-01                                 1000900200101 
 3.1840E+02 9.2800E+00 1.4000E-01                                 1000900200102 
 3.2040E+02 9.8200E+00 1.4000E-01                                 1000900200103 
 3.2240E+02 9.5000E+00 1.4000E-01                                 1000900200104 
 3.2440E+02 9.9900E+00 1.4000E-01                                 1000900200105 
 3.2640E+02 9.4700E+00 1.4000E-01                                 1000900200106 
 3.2840E+02 9.6000E+00 1.4000E-01                                 1000900200107 
 3.3040E+02 9.3600E+00 1.4000E-01                                 1000900200108 
 3.3240E+02 9.4500E+00 1.4000E-01                                 1000900200109 
 3.3440E+02 9.1000E+00 1.4000E-01                                 1000900200110 
 3.3640E+02 9.5200E+00 1.4000E-01                                 1000900200111 
 3.3840E+02 9.4300E+00 1.4000E-01                                 1000900200112 
 3.4040E+02 9.5900E+00 1.4000E-01                                 1000900200113 
 3.4240E+02 9.3200E+00 1.4000E-01                                 1000900200114 
 3.4440E+02 9.5700E+00 1.4000E-01                                 1000900200115 
 3.4640E+02 9.4600E+00 1.4000E-01                                 1000900200116 
 3.4840E+02 9.7600E+00 1.4000E-01                                 1000900200117 
 3.5040E+02 9.6900E+00 1.4000E-01                                 1000900200118 
 3.5240E+02 8.9300E+00 1.4000E-01                                 1000900200119 
 3.5440E+02 9.3100E+00 1.4000E-01                                 1000900200120 
 3.5640E+02 9.3700E+00 1.4000E-01                                 1000900200121 
 3.5840E+02 9.1800E+00 1.4000E-01                                 1000900200122 
 3.6040E+02 8.9300E+00 1.4000E-01                                 1000900200123 
 3.6240E+02 9.6400E+00 1.4000E-01                                 1000900200124 
 3.6440E+02 9.6100E+00 1.4000E-01                                 1000900200125 
 3.6640E+02 9.3100E+00 1.4000E-01                                 1000900200126 
 3.6850E+02 9.1100E+00 1.4000E-01                                 1000900200127 
 3.7050E+02 9.6100E+00 1.4000E-01                                 1000900200128 
 3.7250E+02 9.2100E+00 1.4000E-01                                 1000900200129 
 3.7450E+02 9.2500E+00 1.4000E-01                                 1000900200130 
 3.7650E+02 9.1900E+00 1.4000E-01                                 1000900200131 
 3.7850E+02 8.8500E+00 1.4000E-01                                 1000900200132 
 3.8050E+02 9.1800E+00 1.4000E-01                                 1000900200133 
 3.8250E+02 8.9800E+00 1.4000E-01                                 1000900200134 
 3.8450E+02 9.2100E+00 1.4000E-01                                 1000900200135 
 3.8650E+02 9.4300E+00 1.4000E-01                                 1000900200136 
 3.8850E+02 8.6400E+00 1.4000E-01                                 1000900200137 
 3.9050E+02 8.9400E+00 1.4000E-01                                 1000900200138 
 3.9250E+02 9.0400E+00 1.4000E-01                                 1000900200139 
 3.9450E+02 8.9000E+00 1.4000E-01                                 1000900200140 
 3.9670E+02 8.8940E+00 1.4000E-01                                 1000900200141 
 3.9870E+02 9.3250E+00 1.4000E-01                                 1000900200142 
 4.0070E+02 8.8960E+00 1.4000E-01                                 1000900200143 
 4.0270E+02 8.8740E+00 1.4000E-01                                 1000900200144 
 4.0470E+02 9.2120E+00 1.4000E-01                                 1000900200145 
 4.0670E+02 8.9190E+00 1.4000E-01                                 1000900200146 
 4.0870E+02 8.9770E+00 1.4000E-01                                 1000900200147 
 4.1070E+02 8.9820E+00 1.4000E-01                                 1000900200148 
 4.1270E+02 8.9790E+00 1.4000E-01                                 1000900200149 
 4.1470E+02 8.7770E+00 1.4000E-01                                 1000900200150 
 4.1670E+02 8.9990E+00 1.4000E-01                                 1000900200151 
 4.1870E+02 8.8310E+00 1.4000E-01                                 1000900200152 
 4.2050E+02 8.9600E+00 1.4000E-01                                 1000900200153 
 4.2250E+02 8.7900E+00 1.4000E-01                                 1000900200154 
 4.2450E+02 8.7000E+00 1.4000E-01                                 1000900200155 
 4.2650E+02 8.9600E+00 1.4000E-01                                 1000900200156 
 4.2850E+02 8.8300E+00 1.4000E-01                                 1000900200157 
 4.3050E+02 8.9100E+00 1.4000E-01                                 1000900200158 
 4.3250E+02 9.1000E+00 1.4000E-01                                 1000900200159 
 4.3450E+02 8.7700E+00 1.4000E-01                                 1000900200160 
 4.3650E+02 8.8400E+00 1.4000E-01                                 1000900200161 
 4.3850E+02 9.1500E+00 1.4000E-01                                 1000900200162 
 4.4050E+02 9.0300E+00 1.4000E-01                                 1000900200163 
 4.4250E+02 8.9800E+00 1.4000E-01                                 1000900200164 
 4.4450E+02 8.7600E+00 1.4000E-01                                 1000900200165 
 4.4650E+02 8.9400E+00 1.4000E-01                                 1000900200166 
 4.4850E+02 8.7400E+00 1.4000E-01                                 1000900200167 
 4.5050E+02 9.0100E+00 1.4000E-01                                 1000900200168 
 4.5250E+02 8.9900E+00 1.4000E-01                                 1000900200169 
 4.5450E+02 8.3700E+00 1.4000E-01                                 1000900200170 
 4.5650E+02 8.5600E+00 1.4000E-01                                 1000900200171 
 4.5850E+02 8.5700E+00 1.4000E-01                                 1000900200172 
 4.6250E+02 8.5400E+00 1.4000E-01                                 1000900200173 
 4.6450E+02 8.5600E+00 1.4000E-01                                 1000900200174 
 4.6650E+02 8.7400E+00 1.4000E-01                                 1000900200175 
 4.6850E+02 8.9700E+00 1.4000E-01                                 1000900200176 
 4.7050E+02 8.5200E+00 1.4000E-01                                 1000900200177 
 4.7250E+02 8.7900E+00 1.4000E-01                                 1000900200178 
 4.7460E+02 8.3400E+00 1.4000E-01                                 1000900200179 
 4.7660E+02 8.6800E+00 1.4000E-01                                 1000900200180 
 4.7860E+02 8.6900E+00 1.4000E-01                                 1000900200181 
 4.8060E+02 8.2600E+00 1.4000E-01                                 1000900200182 
 4.8260E+02 8.3800E+00 1.4000E-01                                 1000900200183 
 4.8460E+02 8.5000E+00 1.4000E-01                                 1000900200184 
 4.8660E+02 8.4400E+00 1.4000E-01                                 1000900200185 
 4.9060E+02 8.4700E+00 1.4000E-01                                 1000900200186 
 4.9260E+02 8.1800E+00 1.4000E-01                                 1000900200187 
 4.9460E+02 8.4300E+00 1.4000E-01                                 1000900200188 
 4.9660E+02 8.3100E+00 1.4000E-01                                 1000900200189 
 4.9860E+02 8.1000E+00 1.4000E-01                                 1000900200190 
 4.9880E+02 8.4900E+00 1.5000E-01                                 1000900200191 
 5.0080E+02 8.7200E+00 1.5000E-01                                 1000900200192 
 5.0280E+02 8.5900E+00 1.5000E-01                                 1000900200193 
 5.0480E+02 8.7000E+00 1.5000E-01                                 1000900200194 
 5.0680E+02 8.1300E+00 1.5000E-01                                 1000900200195 
 5.0880E+02 8.5300E+00 1.5000E-01                                 1000900200196 
 5.1080E+02 8.4100E+00 1.5000E-01                                 1000900200197 
 5.1280E+02 8.4700E+00 1.5000E-01                                 1000900200198 
 5.1480E+02 8.1800E+00 1.5000E-01                                 1000900200199 
 5.1680E+02 8.2800E+00 1.5000E-01                                 1000900200200 
 5.1880E+02 8.7600E+00 1.5000E-01                                 1000900200201 
 5.2080E+02 8.4600E+00 1.5000E-01                                 1000900200202 
 5.2280E+02 8.7400E+00 1.5000E-01                                 1000900200203 
 5.2480E+02 8.5100E+00 1.5000E-01                                 1000900200204 
 5.2680E+02 8.6200E+00 1.5000E-01                                 1000900200205 
 5.2880E+02 8.0500E+00 1.5000E-01                                 1000900200206 
 5.3080E+02 8.2200E+00 1.5000E-01                                 1000900200207 
 5.3280E+02 8.7000E+00 1.5000E-01                                 1000900200208 
 5.3480E+02 8.3900E+00 1.5000E-01                                 1000900200209 
 5.3680E+02 8.6400E+00 1.5000E-01                                 1000900200210 
 5.3880E+02 8.7300E+00 1.5000E-01                                 1000900200211 
 5.4080E+02 8.7400E+00 1.5000E-01                                 1000900200212 
 5.4480E+02 8.6900E+00 1.5000E-01                                 1000900200213 
 5.4680E+02 8.2500E+00 1.5000E-01                                 1000900200214 
 5.4880E+02 8.6200E+00 1.5000E-01                                 1000900200215 
 5.5080E+02 8.4300E+00 1.5000E-01                                 1000900200216 
 5.5480E+02 8.3200E+00 1.5000E-01                                 1000900200217 
 5.5680E+02 8.5100E+00 1.5000E-01                                 1000900200218 
 5.5880E+02 8.1200E+00 1.5000E-01                                 1000900200219 
 5.6080E+02 8.4000E+00 1.5000E-01                                 1000900200220 
 5.6280E+02 8.3200E+00 1.5000E-01                                 1000900200221 
 5.6480E+02 8.2700E+00 1.5000E-01                                 1000900200222 
 5.6680E+02 8.3400E+00 1.5000E-01                                 1000900200223 
 5.6880E+02 8.1000E+00 1.5000E-01                                 1000900200224 
 5.7080E+02 8.2800E+00 1.5000E-01                                 1000900200225 
 5.7280E+02 8.1200E+00 1.5000E-01                                 1000900200226 
 5.7480E+02 8.1300E+00 1.5000E-01                                 1000900200227 
 5.7880E+02 8.4300E+00 1.5000E-01                                 1000900200228 
 5.8080E+02 8.6200E+00 1.5000E-01                                 1000900200229 
 5.8280E+02 8.3700E+00 1.5000E-01                                 1000900200230 
 5.8480E+02 8.1800E+00 1.5000E-01                                 1000900200231 
 5.8680E+02 7.8400E+00 1.5000E-01                                 1000900200232 
 5.8880E+02 8.3100E+00 1.5000E-01                                 1000900200233 
 5.9080E+02 8.1500E+00 1.5000E-01                                 1000900200234 
 5.9280E+02 8.0800E+00 1.5000E-01                                 1000900200235 
 5.9480E+02 8.1200E+00 1.5000E-01                                 1000900200236 
 5.9680E+02 8.3500E+00 1.5000E-01                                 1000900200237 
 5.9880E+02 8.1100E+00 1.5000E-01                                 1000900200238 
 6.0080E+02 8.2800E+00 1.5000E-01                                 1000900200239 
 6.0280E+02 8.0400E+00 1.5000E-01                                 1000900200240 
 6.0480E+02 8.3300E+00 1.5000E-01                                 1000900200241 
 6.0680E+02 8.2500E+00 1.5000E-01                                 1000900200242 
 6.0880E+02 8.1800E+00 1.5000E-01                                 1000900200243 
 6.1080E+02 8.1700E+00 1.5000E-01                                 1000900200244 
 6.1280E+02 7.9500E+00 1.5000E-01                                 1000900200245 
 6.1480E+02 7.9500E+00 1.5000E-01                                 1000900200246 
 6.1680E+02 8.0300E+00 1.5000E-01                                 1000900200247 
 6.1880E+02 7.9300E+00 1.5000E-01                                 1000900200248 
 6.2080E+02 8.1700E+00 1.5000E-01                                 1000900200249 
 6.2280E+02 8.0200E+00 1.5000E-01                                 1000900200250 
 6.2480E+02 7.9200E+00 1.5000E-01                                 1000900200251 
 6.2680E+02 8.0500E+00 1.5000E-01                                 1000900200252 
 6.2880E+02 7.9600E+00 1.5000E-01                                 1000900200253 
 6.3080E+02 7.7200E+00 1.5000E-01                                 1000900200254 
 6.3280E+02 7.9900E+00 1.5000E-01                                 1000900200255 
 6.3490E+02 7.9200E+00 1.5000E-01                                 1000900200256 
 6.3690E+02 7.9900E+00 1.5000E-01                                 1000900200257 
 6.3890E+02 7.9500E+00 1.5000E-01                                 1000900200258 
 6.4090E+02 8.2400E+00 1.5000E-01                                 1000900200259 
 6.4290E+02 7.9900E+00 1.5000E-01                                 1000900200260 
 6.4490E+02 8.1700E+00 1.5000E-01                                 1000900200261 
 6.4690E+02 7.8400E+00 1.5000E-01                                 1000900200262 
 6.4890E+02 7.9800E+00 1.5000E-01                                 1000900200263 
 6.5128E+02 7.9369E+00 1.2787E-01                                 1000900200264 
 6.5528E+02 7.5410E+00 1.2808E-01                                 1000900200265 
 6.5929E+02 7.6942E+00 1.2671E-01                                 1000900200266 
 6.6329E+02 7.9154E+00 1.2709E-01                                 1000900200267 
 6.6730E+02 7.7645E+00 1.2884E-01                                 1000900200268 
 6.7130E+02 7.9926E+00 1.3022E-01                                 1000900200269 
 6.7531E+02 7.8277E+00 1.2938E-01                                 1000900200270 
 6.7931E+02 7.7759E+00 1.3016E-01                                 1000900200271 
 6.8332E+02 7.7907E+00 1.2911E-01                                 1000900200272 
 6.8732E+02 7.7255E+00 1.2928E-01                                 1000900200273 
 6.9133E+02 7.5661E+00 1.2992E-01                                 1000900200274 
 6.9533E+02 7.8424E+00 1.2973E-01                                 1000900200275 
 6.9533E+02 7.9395E+00 2.2416E-01                                 1000900200276 
 6.9934E+02 7.7749E+00 1.2924E-01                                 1000900200277 
 7.0334E+02 8.0198E+00 1.3138E-01                                 1000900200278 
 7.0735E+02 7.9486E+00 1.2979E-01                                 1000900200279 
 7.1135E+02 7.8653E+00 1.3038E-01                                 1000900200280 
 7.1536E+02 7.3172E+00 1.2896E-01                                 1000900200281 
 7.1936E+02 7.9128E+00 1.3131E-01                                 1000900200282 
 7.2337E+02 7.7387E+00 1.3145E-01                                 1000900200283 
 7.2737E+02 7.9960E+00 1.3181E-01                                 1000900200284 
 7.3138E+02 7.8102E+00 1.3171E-01                                 1000900200285 
 7.3538E+02 7.6748E+00 1.3166E-01                                 1000900200286 
 7.3939E+02 7.5644E+00 1.3178E-01                                 1000900200287 
 7.4339E+02 7.4722E+00 1.3268E-01                                 1000900200288 
 7.4740E+02 7.8813E+00 1.3178E-01                                 1000900200289 
 7.5140E+02 7.6865E+00 1.3211E-01                                 1000900200290 
 7.5541E+02 7.6177E+00 1.3203E-01                                 1000900200291 
 7.5941E+02 7.4341E+00 1.3224E-01                                 1000900200292 
 7.6342E+02 7.5354E+00 1.3213E-01                                 1000900200293 
 7.6742E+02 7.8608E+00 1.3257E-01                                 1000900200294 
 7.7142E+02 7.7545E+00 1.3254E-01                                 1000900200295 
 7.7543E+02 7.4882E+00 1.3257E-01                                 1000900200296 
 7.7943E+02 7.8509E+00 1.3142E-01                                 1000900200297 
 7.8344E+02 7.3279E+00 1.3106E-01                                 1000900200298 
 7.8744E+02 7.6672E+00 1.3097E-01                                 1000900200299 
 7.9145E+02 7.4913E+00 1.3185E-01                                 1000900200300 
 7.9545E+02 7.5541E+00 1.3173E-01                                 1000900200301 
 7.9946E+02 7.5311E+00 1.3139E-01                                 1000900200302 
 8.0346E+02 7.4893E+00 1.3133E-01                                 1000900200303 
 8.0747E+02 7.4436E+00 1.3141E-01                                 1000900200304 
 8.1147E+02 7.5692E+00 1.6120E-01                                 1000900200305 
 8.1547E+02 7.5638E+00 1.3151E-01                                 1000900200306 
 8.1948E+02 7.6583E+00 1.3188E-01                                 1000900200307 
 8.2348E+02 7.4102E+00 1.3251E-01                                 1000900200308 
 8.2749E+02 7.6580E+00 1.3157E-01                                 1000900200309 
 8.3149E+02 7.6613E+00 1.3148E-01                                 1000900200310 
 8.3550E+02 7.4324E+00 1.3221E-01                                 1000900200311 
 8.3950E+02 7.8326E+00 1.3252E-01                                 1000900200312 
 8.4350E+02 7.4022E+00 1.3136E-01                                 1000900200313 
 8.4751E+02 7.6733E+00 1.3065E-01                                 1000900200314 
 8.5151E+02 7.4273E+00 1.3100E-01                                 1000900200315 
 8.5552E+02 7.5419E+00 1.3083E-01                                 1000900200316 
 8.5952E+02 7.4128E+00 1.3108E-01                                 1000900200317 
 8.6353E+02 7.5786E+00 1.3169E-01                                 1000900200318 
 8.6753E+02 7.3705E+00 1.3096E-01                                 1000900200319 
 8.6753E+02 7.1528E+00 2.2658E-01                                 1000900200320 
 8.7153E+02 7.6214E+00 1.3142E-01                                 1000900200321 
 8.7554E+02 7.5318E+00 1.3145E-01                                 1000900200322 
 8.7954E+02 7.4366E+00 1.3151E-01                                 1000900200323 
 8.8355E+02 7.3643E+00 1.3170E-01                                 1000900200324 
 8.8755E+02 7.4004E+00 1.3133E-01                                 1000900200325 
 8.9156E+02 7.1621E+00 1.3180E-01                                 1000900200326 
 8.9556E+02 7.8180E+00 1.3216E-01                                 1000900200327 
 8.9956E+02 7.4326E+00 1.3279E-01                                 1000900200328 
 9.0357E+02 7.6034E+00 1.3280E-01                                 1000900200329 
 9.0757E+02 7.8106E+00 1.3254E-01                                 1000900200330 
 9.1158E+02 7.4499E+00 1.3254E-01                                 1000900200331 
 9.1558E+02 7.4336E+00 1.3283E-01                                 1000900200332 
 9.1958E+02 7.6853E+00 1.3257E-01                                 1000900200333 
 9.2359E+02 7.4091E+00 1.3270E-01                                 1000900200334 
 9.2759E+02 7.2124E+00 1.3263E-01                                 1000900200335 
 9.3160E+02 7.0658E+00 1.3156E-01                                 1000900200336 
 9.3560E+02 7.2772E+00 1.3274E-01                                 1000900200337 
 9.3960E+02 7.2978E+00 1.3264E-01                                 1000900200338 
 9.4361E+02 7.3620E+00 1.3219E-01                                 1000900200339 
 9.4761E+02 7.4957E+00 1.3196E-01                                 1000900200340 
 9.5161E+02 7.0395E+00 1.2933E-01                                 1000900200341 
 9.5562E+02 7.1523E+00 1.3173E-01                                 1000900200342 
 9.5962E+02 7.1337E+00 1.3010E-01                                 1000900200343 
 9.6363E+02 7.1533E+00 1.2849E-01                                 1000900200344 
 9.6763E+02 7.3575E+00 1.2945E-01                                 1000900200345 
 9.7164E+02 7.5052E+00 1.3107E-01                                 1000900200346 
 9.7564E+02 7.3943E+00 1.3009E-01                                 1000900200347 
 9.7964E+02 7.2408E+00 1.2839E-01                                 1000900200348 
 9.8365E+02 7.1034E+00 1.5833E-01                                 1000900200349 
 9.8765E+02 6.8757E+00 1.2931E-01                                 1000900200350 
 9.9165E+02 7.0844E+00 1.2908E-01                                 1000900200351 
 9.9566E+02 7.2189E+00 1.2937E-01                                 1000900200352 
 9.9966E+02 6.9718E+00 1.2903E-01                                 1000900200353 
 1.0037E+03 7.2487E+00 1.2996E-01                                 1000900200354 
 1.0077E+03 7.2322E+00 1.3016E-01                                 1000900200355 
 1.0117E+03 6.9374E+00 1.2992E-01                                 1000900200356 
 1.0157E+03 7.1702E+00 1.3025E-01                                 1000900200357 
 1.0197E+03 7.2815E+00 1.3008E-01                                 1000900200358 
 1.0237E+03 7.5397E+00 1.2953E-01                                 1000900200359 
 1.0277E+03 7.2999E+00 1.2955E-01                                 1000900200360 
 1.0317E+03 6.9301E+00 1.3039E-01                                 1000900200361 
 1.0357E+03 7.1836E+00 1.2973E-01                                 1000900200362 
 1.0397E+03 6.9216E+00 1.2794E-01                                 1000900200363 
 1.0397E+03 6.9638E+00 2.2072E-01                                 1000900200364 
 1.0437E+03 7.4216E+00 1.2783E-01                                 1000900200365 
 1.0477E+03 7.2798E+00 1.2812E-01                                 1000900200366 
 1.0517E+03 7.2829E+00 1.2860E-01                                 1000900200367 
 1.0557E+03 7.1674E+00 1.2804E-01                                 1000900200368 
 1.0597E+03 7.2430E+00 1.2755E-01                                 1000900200369 
 1.0637E+03 7.1219E+00 1.2759E-01                                 1000900200370 
 1.0677E+03 7.1711E+00 1.2772E-01                                 1000900200371 
 1.0717E+03 7.1778E+00 1.2783E-01                                 1000900200372 
 1.0757E+03 7.4318E+00 1.2729E-01                                 1000900200373 
 1.0797E+03 7.2421E+00 1.2771E-01                                 1000900200374 
 1.0837E+03 6.6662E+00 1.2648E-01                                 1000900200375 
 1.0877E+03 7.0740E+00 1.2754E-01                                 1000900200376 
 1.0917E+03 7.0076E+00 1.2641E-01                                 1000900200377 
 1.0957E+03 7.2544E+00 1.2769E-01                                 1000900200378 
 1.0998E+03 7.4376E+00 1.2664E-01                                 1000900200379 
 1.1038E+03 7.3409E+00 1.2689E-01                                 1000900200380 
 1.1078E+03 6.8410E+00 1.2672E-01                                 1000900200381 
 1.1118E+03 7.3137E+00 1.2740E-01                                 1000900200382 
 1.1158E+03 7.3062E+00 1.2629E-01                                 1000900200383 
 1.1198E+03 7.1708E+00 1.2590E-01                                 1000900200384 
 1.1238E+03 7.1484E+00 1.2472E-01                                 1000900200385 
 1.1278E+03 7.2859E+00 1.2613E-01                                 1000900200386 
 1.1318E+03 7.2083E+00 1.2521E-01                                 1000900200387 
 1.1358E+03 7.2091E+00 1.2537E-01                                 1000900200388 
 1.1398E+03 7.0276E+00 1.2587E-01                                 1000900200389 
 1.1438E+03 6.9098E+00 1.2599E-01                                 1000900200390 
 1.1478E+03 7.3046E+00 1.2539E-01                                 1000900200391 
 1.1518E+03 6.8334E+00 1.2502E-01                                 1000900200392 
 1.1558E+03 7.3757E+00 1.5371E-01                                 1000900200393 
 1.1598E+03 7.0529E+00 1.2413E-01                                 1000900200394 
 1.1638E+03 7.0904E+00 1.2348E-01                                 1000900200395 
 1.1678E+03 7.3110E+00 1.2392E-01                                 1000900200396 
 1.1718E+03 7.1007E+00 1.2418E-01                                 1000900200397 
 1.1758E+03 7.0282E+00 1.2450E-01                                 1000900200398 
 1.1798E+03 7.0373E+00 1.2445E-01                                 1000900200399 
 1.1838E+03 7.0142E+00 1.2458E-01                                 1000900200400 
 1.1878E+03 7.0186E+00 1.2484E-01                                 1000900200401 
 1.1918E+03 6.9573E+00 1.2459E-01                                 1000900200402 
 1.1958E+03 6.9107E+00 1.2313E-01                                 1000900200403 
 1.1998E+03 6.8968E+00 1.2293E-01                                 1000900200404 
 1.2038E+03 7.0913E+00 1.2326E-01                                 1000900200405 
 1.2078E+03 7.1093E+00 1.2395E-01                                 1000900200406 
 1.2118E+03 6.6941E+00 2.1102E-01                                 1000900200407 
 1.2118E+03 6.8389E+00 1.2246E-01                                 1000900200408 
 1.2158E+03 6.9900E+00 1.2297E-01                                 1000900200409 
 1.2198E+03 7.0336E+00 1.2401E-01                                 1000900200410 
 1.2238E+03 7.0588E+00 1.2349E-01                                 1000900200411 
 1.2278E+03 6.9258E+00 1.2306E-01                                 1000900200412 
 1.2318E+03 6.9547E+00 1.2273E-01                                 1000900200413 
 1.2359E+03 7.1708E+00 1.2244E-01                                 1000900200414 
 1.2399E+03 7.0058E+00 1.2257E-01                                 1000900200415 
 1.2439E+03 6.9708E+00 1.2301E-01                                 1000900200416 
 1.2479E+03 6.9514E+00 1.2266E-01                                 1000900200417 
 1.2519E+03 6.9878E+00 1.2237E-01                                 1000900200418 
 1.2559E+03 7.2943E+00 1.2261E-01                                 1000900200419 
 1.2599E+03 6.8680E+00 1.2310E-01                                 1000900200420 
 1.2639E+03 7.2017E+00 1.2300E-01                                 1000900200421 
 1.2679E+03 6.8552E+00 1.2278E-01                                 1000900200422 
 1.2719E+03 6.9589E+00 1.2140E-01                                 1000900200423 
 1.2759E+03 6.8736E+00 1.2190E-01                                 1000900200424 
 1.2799E+03 7.1843E+00 1.2209E-01                                 1000900200425 
 1.2839E+03 7.1809E+00 1.2229E-01                                 1000900200426 
 1.2879E+03 7.0220E+00 1.2127E-01                                 1000900200427 
 1.2919E+03 6.7583E+00 1.2210E-01                                 1000900200428 
 1.2959E+03 6.9425E+00 1.2134E-01                                 1000900200429 
 1.2999E+03 6.8237E+00 1.2185E-01                                 1000900200430 
 1.3039E+03 6.9011E+00 1.2146E-01                                 1000900200431 
 1.3079E+03 6.5951E+00 1.2152E-01                                 1000900200432 
 1.3119E+03 6.9850E+00 1.2159E-01                                 1000900200433 
 1.3159E+03 7.0422E+00 1.2191E-01                                 1000900200434 
 1.3199E+03 6.9666E+00 1.2122E-01                                 1000900200435 
 1.3239E+03 7.1561E+00 1.2091E-01                                 1000900200436 
 1.3279E+03 6.9938E+00 1.4763E-01                                 1000900200437 
 1.3319E+03 7.1520E+00 1.2084E-01                                 1000900200438 
 1.3359E+03 6.8016E+00 1.2153E-01                                 1000900200439 
 1.3399E+03 7.0322E+00 1.2070E-01                                 1000900200440 
 1.3439E+03 6.8173E+00 1.2024E-01                                 1000900200441 
 1.3479E+03 6.9993E+00 1.2041E-01                                 1000900200442 
 1.3519E+03 6.7571E+00 1.1979E-01                                 1000900200443 
 1.3559E+03 6.8186E+00 1.2053E-01                                 1000900200444 
 1.3599E+03 6.9286E+00 1.2023E-01                                 1000900200445 
 1.3639E+03 7.2778E+00 1.2058E-01                                 1000900200446 
 1.3680E+03 6.8818E+00 1.2017E-01                                 1000900200447 
 1.3720E+03 6.8061E+00 1.2027E-01                                 1000900200448 
 1.3760E+03 7.2786E+00 1.2059E-01                                 1000900200449 
 1.3800E+03 7.2665E+00 1.2032E-01                                 1000900200450 
 1.3840E+03 6.9506E+00 1.1984E-01                                 1000900200451 
 1.3840E+03 6.9642E+00 2.0804E-01                                 1000900200452 
 1.3880E+03 7.0858E+00 1.1983E-01                                 1000900200453 
 1.3920E+03 7.1428E+00 1.1983E-01                                 1000900200454 
 1.3960E+03 7.1411E+00 1.1990E-01                                 1000900200455 
 1.4000E+03 6.7934E+00 1.1983E-01                                 1000900200456 
 1.4040E+03 6.9964E+00 1.1962E-01                                 1000900200457 
 1.4080E+03 7.0080E+00 1.1900E-01                                 1000900200458 
 1.4120E+03 6.9087E+00 1.1955E-01                                 1000900200459 
 1.4160E+03 7.0816E+00 1.1956E-01                                 1000900200460 
 1.4200E+03 7.0344E+00 1.1928E-01                                 1000900200461 
 1.4240E+03 7.1658E+00 1.2013E-01                                 1000900200462 
 1.4280E+03 7.1550E+00 1.1962E-01                                 1000900200463 
 1.4320E+03 6.9090E+00 1.1978E-01                                 1000900200464 
 1.4360E+03 6.9559E+00 1.1981E-01                                 1000900200465 
 1.4400E+03 7.1116E+00 1.1934E-01                                 1000900200466 
 1.4440E+03 7.2000E+00 1.1894E-01                                 1000900200467 
 1.4480E+03 7.0195E+00 1.1890E-01                                 1000900200468 
 1.4500E+03 7.0827E+00 1.1937E-01                                 1000900200469 
 1.4520E+03 7.0469E+00 1.1933E-01                                 1000900200470 
 1.4540E+03 7.0181E+00 1.1940E-01                                 1000900200471 
 1.4560E+03 7.1060E+00 1.1919E-01                                 1000900200472 
 1.4580E+03 6.9865E+00 1.1942E-01                                 1000900200473 
 1.4580E+03 6.9373E+00 1.1927E-01                                 1000900200474 
 1.4600E+03 6.7209E+00 1.1841E-01                                 1000900200475 
 1.4600E+03 6.8282E+00 1.1929E-01                                 1000900200476 
 1.4620E+03 6.8678E+00 1.1888E-01                                 1000900200477 
 1.4620E+03 7.0572E+00 1.1915E-01                                 1000900200478 
 1.4640E+03 7.1834E+00 1.1911E-01                                 1000900200479 
 1.4640E+03 7.1248E+00 1.1888E-01                                 1000900200480 
 1.4660E+03 6.9433E+00 1.1868E-01                                 1000900200481 
 1.4660E+03 6.7554E+00 1.1916E-01                                 1000900200482 
 1.4680E+03 7.0505E+00 1.1863E-01                                 1000900200483 
 1.4680E+03 7.3051E+00 1.1863E-01                                 1000900200484 
 1.4700E+03 7.1749E+00 1.1906E-01                                 1000900200485 
 1.4700E+03 7.0828E+00 1.1944E-01                                 1000900200486 
 1.4720E+03 7.0436E+00 1.1918E-01                                 1000900200487 
 1.4720E+03 7.1475E+00 1.1882E-01                                 1000900200488 
 1.4720E+03 6.9704E+00 1.1923E-01                                 1000900200489 
 1.4740E+03 6.6821E+00 1.4594E-01                                 1000900200490 
 1.4740E+03 6.9054E+00 1.1901E-01                                 1000900200491 
 1.4740E+03 7.1328E+00 1.1924E-01                                 1000900200492 
 1.4740E+03 6.8800E+00 1.1881E-01                                 1000900200493 
 1.4760E+03 7.0186E+00 1.1877E-01                                 1000900200494 
 1.4760E+03 7.3487E+00 1.1917E-01                                 1000900200495 
 1.4760E+03 6.9145E+00 1.1911E-01                                 1000900200496 
 1.4760E+03 6.8402E+00 1.1866E-01                                 1000900200497 
 1.4780E+03 6.8742E+00 1.1894E-01                                 1000900200498 
 1.4780E+03 6.6481E+00 1.1867E-01                                 1000900200499 
 1.4780E+03 6.9913E+00 1.1885E-01                                 1000900200500 
 1.4780E+03 6.9372E+00 1.1916E-01                                 1000900200501 
 1.4800E+03 7.0567E+00 1.1871E-01                                 1000900200502 
 1.4800E+03 7.1480E+00 2.0574E-01                                 1000900200503 
 1.4800E+03 7.0619E+00 1.1867E-01                                 1000900200504 
 1.4800E+03 6.7272E+00 1.1834E-01                                 1000900200505 
 1.4800E+03 6.5583E+00 1.1893E-01                                 1000900200506 
 1.4820E+03 6.9284E+00 1.1888E-01                                 1000900200507 
 1.4820E+03 7.0505E+00 1.1857E-01                                 1000900200508 
 1.4820E+03 6.9855E+00 1.1883E-01                                 1000900200509 
 1.4820E+03 7.2127E+00 1.1846E-01                                 1000900200510 
 1.4840E+03 7.0704E+00 1.1870E-01                                 1000900200511 
 1.4840E+03 7.0447E+00 1.1886E-01                                 1000900200512 
 1.4840E+03 6.9479E+00 1.1867E-01                                 1000900200513 
 1.4840E+03 7.0141E+00 1.1853E-01                                 1000900200514 
 1.4860E+03 7.1767E+00 1.1898E-01                                 1000900200515 
 1.4860E+03 7.0505E+00 1.1890E-01                                 1000900200516 
 1.4860E+03 6.7913E+00 1.1872E-01                                 1000900200517 
 1.4860E+03 7.1251E+00 1.1879E-01                                 1000900200518 
 1.4880E+03 6.8948E+00 1.1910E-01                                 1000900200519 
 1.4880E+03 7.2384E+00 1.1922E-01                                 1000900200520 
 1.4880E+03 6.9214E+00 1.1856E-01                                 1000900200521 
 1.4880E+03 7.1204E+00 1.1886E-01                                 1000900200522 
 1.4900E+03 7.2005E+00 1.1898E-01                                 1000900200523 
 1.4900E+03 6.9051E+00 1.1872E-01                                 1000900200524 
 1.4900E+03 7.2982E+00 1.1872E-01                                 1000900200525 
 1.4900E+03 7.0525E+00 1.1886E-01                                 1000900200526 
 1.4920E+03 7.1256E+00 1.1880E-01                                 1000900200527 
 1.4920E+03 6.9757E+00 1.1891E-01                                 1000900200528 
 1.4920E+03 6.9940E+00 1.1882E-01                                 1000900200529 
 1.4920E+03 6.8357E+00 1.4574E-01                                 1000900200530 
 1.4940E+03 7.2158E+00 1.1870E-01                                 1000900200531 
 1.4940E+03 7.0507E+00 1.1890E-01                                 1000900200532 
 1.4940E+03 7.0087E+00 1.1883E-01                                 1000900200533 
 1.4940E+03 6.8738E+00 1.1885E-01                                 1000900200534 
 1.4961E+03 7.1898E+00 1.1869E-01                                 1000900200535 
 1.4961E+03 7.2255E+00 1.1870E-01                                 1000900200536 
 1.4961E+03 7.0241E+00 1.1906E-01                                 1000900200537 
 1.4961E+03 6.7916E+00 1.1906E-01                                 1000900200538 
 1.4961E+03 6.9318E+00 2.0437E-01                                 1000900200539 
 1.4981E+03 7.1359E+00 8.3854E-02                                 1000900200540 
 1.4981E+03 7.1358E+00 8.3997E-02                                 1000900200541 
ENDDATA            526          0                                 1000900200542 
ENDSUBENT          541          0                                 1000900299999 
SUBENT        10009003   19990617                             00001000900300001 
BIB                  6          8                                 1000900300002 
REACTION   (92-U-238(N,TOT),,SIG)                                 1000900300003 
INC-SPECT  20-keV spread over primary energy.                     1000900300004 
SAMPLE     Right cylinder - 1 in. length x 1 in. diameter         1000900300005 
METHOD     (TOF) Time-of-flight.                                  1000900300006 
DETECTOR   (SCIN) NE213 liquid scintillator coupled with          1000900300007 
            photomultipliers.                                     1000900300008 
           (BF3) flux monitored by BF3 counters.                  1000900300009 
CORRECTION Corrected for inscattering.                            1000900300010 
ENDBIB               8          0                                 1000900300011 
COMMON               1          3                                 1000900300012 
EN-RSL                                                            1000900300013 
KEV                                                               1000900300014 
 20.                                                              1000900300015 
ENDCOMMON            3          0                                 1000900300016 
DATA                 3          4                                 1000900300017 
EN         DATA       DATA-ERR                                    1000900300018 
KEV        B          B                                           1000900300019 
 6.0667E+02 8.0730E+00 1.6000E-01                                 1000900300020 
 8.0574E+02 7.2300E+00 1.7100E-01                                 1000900300021 
 1.0048E+03 6.9830E+00 1.9800E-01                                 1000900300022 
 1.2041E+03 6.4118E+00 2.1100E-01                                 1000900300023 
ENDDATA              6          0                                 1000900300024 
ENDSUBENT           23          0                                 1000900399999 
ENDENTRY             3          0                                 1000999999999 
