ENTRY            10012   19990617                             00001001200000001 
SUBENT        10012001   19990617                             00001001200100001 
BIB                  8         15                                 1001200100002 
INSTITUTE  (1USAWIS)                                              1001200100003 
REFERENCE  (J,NP/A,124,369,196902)                                1001200100004 
AUTHOR     (S.M.GRIMES)                                           1001200100005 
TITLE      Fluctuations in the neutron cross sections of Si.      1001200100006 
FACILITY   (VDGT) Tandem Van-de-Graaff.                           1001200100007 
ERR-ANALYS Energy spread uncertain to about 10% due to uncertainty1001200100008 
            in energy loss straggling in entrance foil.           1001200100009 
STATUS     (APRVD) Approved by author.                            1001200100010 
           Data taken from private communication, Barschall, 6/68.1001200100011 
HISTORY    (19690818C)                                            1001200100012 
           (19731231A) Energy resolution added to proper          1001200100013 
             subentries.  BIB corrections.                        1001200100014 
           (19750905A) BIB corrections                            1001200100015 
           (19800813A) Converted to REACTION formalism            1001200100016 
           (19850307A) BIB corrections.                           1001200100017 
ENDBIB              15          0                                 1001200100018 
NOCOMMON             0          0                                 1001200100019 
ENDSUBENT           18          0                                 1001200199999 
SUBENT        10012002   19990617                             00001001200200001 
BIB                  6          9                                 1001200200002 
REACTION   (14-SI-0(N,EL)14-SI-0,,DA)                             1001200200003 
INC-SOURCE (D-D) Deuterons on D2 gas target.                      1001200200004 
SAMPLE     Solid Si cylinder.                                     1001200200005 
DETECTOR   (SCIN) Liquid hydrogenous scintillator viewed by       1001200200006 
           photomultiplier tubes with pulse shape discriminator.  1001200200007 
CORRECTION Corrected for multiple scattering. corrected for       1001200200008 
            attenuation in scattered intensity produced by        1001200200009 
            absorption in sample.                                 1001200200010 
HISTORY    (19860424A) REACTION SF4 added.                        1001200200011 
ENDBIB               9          0                                 1001200200012 
COMMON               4          3                                 1001200200013 
ANG        ANG-RSL    EN-RSL     DATA-ERR                         1001200200014 
ADEG       ADEG       MEV        PER-CENT                         1001200200015 
 15.        1.6       0.03        10.                             1001200200016 
ENDCOMMON            3          0                                 1001200200017 
DATA                 2        254                                 1001200200018 
EN         DATA                                                   1001200200019 
MEV        MB/SR                                                  1001200200020 
6.64       362.                                                   1001200200021 
6.67       487.                                                   1001200200022 
6.70       701.                                                   1001200200023 
6.73       779.                                                   1001200200024 
6.76       629.                                                   1001200200025 
6.79       553.                                                   1001200200026 
6.82       462.                                                   1001200200027 
6.85       442.                                                   1001200200028 
6.88       514.                                                   1001200200029 
6.91       362.                                                   1001200200030 
6.94       348.                                                   1001200200031 
6.97       700.                                                   1001200200032 
6.99       537.                                                   1001200200033 
7.02       519.                                                   1001200200034 
7.05       572.                                                   1001200200035 
7.08       529.                                                   1001200200036 
7.11       560.                                                   1001200200037 
7.14       385.                                                   1001200200038 
7.17       352.                                                   1001200200039 
7.20       481.                                                   1001200200040 
7.23       534.                                                   1001200200041 
7.26       576.                                                   1001200200042 
7.29       598.                                                   1001200200043 
7.32       716.                                                   1001200200044 
7.35       906.                                                   1001200200045 
7.38       912.                                                   1001200200046 
7.41       751.                                                   1001200200047 
7.44       743.                                                   1001200200048 
7.47       705.                                                   1001200200049 
7.50       639.                                                   1001200200050 
7.53       728.                                                   1001200200051 
7.56       654.                                                   1001200200052 
7.59       704.                                                   1001200200053 
7.62       798.                                                   1001200200054 
7.65       841.                                                   1001200200055 
7.68       735.                                                   1001200200056 
7.71       674.                                                   1001200200057 
7.74       816.                                                   1001200200058 
7.77       824.                                                   1001200200059 
7.80       870.                                                   1001200200060 
7.83       718.                                                   1001200200061 
7.86       763.                                                   1001200200062 
7.89       750.                                                   1001200200063 
7.92       785.                                                   1001200200064 
7.95       768.                                                   1001200200065 
7.98       816.                                                   1001200200066 
8.01       751.                                                   1001200200067 
8.04       688.                                                   1001200200068 
8.06       718.                                                   1001200200069 
8.09       623.                                                   1001200200070 
8.12       605.                                                   1001200200071 
8.15       589.                                                   1001200200072 
8.18       654.                                                   1001200200073 
8.21       647.                                                   1001200200074 
8.24       726.                                                   1001200200075 
8.27       775.                                                   1001200200076 
8.30       760.                                                   1001200200077 
8.33       678.                                                   1001200200078 
8.36       785.                                                   1001200200079 
8.39       821.                                                   1001200200080 
8.42       717.                                                   1001200200081 
8.45       706.                                                   1001200200082 
8.48       762.                                                   1001200200083 
8.51       678.                                                   1001200200084 
8.54       670.                                                   1001200200085 
8.57       678.                                                   1001200200086 
8.60       649.                                                   1001200200087 
8.63       809.                                                   1001200200088 
8.66       593.                                                   1001200200089 
8.69       775.                                                   1001200200090 
8.72       675.                                                   1001200200091 
8.75       564.                                                   1001200200092 
8.78       611.                                                   1001200200093 
8.81       434.                                                   1001200200094 
8.84       474.                                                   1001200200095 
8.87       539.                                                   1001200200096 
8.90       649.                                                   1001200200097 
8.93       680.                                                   1001200200098 
8.96       653.                                                   1001200200099 
8.99       832.                                                   1001200200100 
9.02       763.                                                   1001200200101 
9.04       702.                                                   1001200200102 
9.07       661.                                                   1001200200103 
9.10       542.                                                   1001200200104 
9.13       477.                                                   1001200200105 
9.16       572.                                                   1001200200106 
9.19       490.                                                   1001200200107 
9.22       470.                                                   1001200200108 
9.25       440.                                                   1001200200109 
9.28       400.                                                   1001200200110 
9.30       370.                                                   1001200200111 
9.33       430.                                                   1001200200112 
9.36       480.                                                   1001200200113 
9.39       490.                                                   1001200200114 
9.42       510.                                                   1001200200115 
9.45       550.                                                   1001200200116 
9.48       690.                                                   1001200200117 
9.51       530.                                                   1001200200118 
9.54       490.                                                   1001200200119 
9.56       540.                                                   1001200200120 
9.59       560.                                                   1001200200121 
9.62       470.                                                   1001200200122 
9.65       400.                                                   1001200200123 
9.68       440.                                                   1001200200124 
9.71       410.                                                   1001200200125 
9.74       480.                                                   1001200200126 
9.77       520.                                                   1001200200127 
9.80       530.                                                   1001200200128 
9.83       540.                                                   1001200200129 
9.86       550.                                                   1001200200130 
9.89       470.                                                   1001200200131 
9.91       530.                                                   1001200200132 
9.94       670.                                                   1001200200133 
9.97       620.                                                   1001200200134 
10.00      630.                                                   1001200200135 
10.03      570.                                                   1001200200136 
10.06      620.                                                   1001200200137 
10.09      540.                                                   1001200200138 
10.12      670.                                                   1001200200139 
10.15      570.                                                   1001200200140 
10.17      630.                                                   1001200200141 
10.20      700.                                                   1001200200142 
10.23      600.                                                   1001200200143 
10.26      530.                                                   1001200200144 
10.28      580.                                                   1001200200145 
10.31      480.                                                   1001200200146 
10.34      610.                                                   1001200200147 
10.37      610.                                                   1001200200148 
10.40      570.                                                   1001200200149 
10.43      570.                                                   1001200200150 
10.46      470.                                                   1001200200151 
10.49      440.                                                   1001200200152 
10.52      420.                                                   1001200200153 
10.55      470.                                                   1001200200154 
10.58      470.                                                   1001200200155 
10.61      460.                                                   1001200200156 
10.64      530.                                                   1001200200157 
10.67      470.                                                   1001200200158 
10.69      480.                                                   1001200200159 
10.72      500.                                                   1001200200160 
10.75      560.                                                   1001200200161 
10.78      570.                                                   1001200200162 
10.81      610.                                                   1001200200163 
10.84      620.                                                   1001200200164 
10.87      540.                                                   1001200200165 
10.90      570.                                                   1001200200166 
10.92      600.                                                   1001200200167 
10.95      580.                                                   1001200200168 
10.98      600.                                                   1001200200169 
11.01      540.                                                   1001200200170 
11.04      560.                                                   1001200200171 
11.07      520.                                                   1001200200172 
11.10      490.                                                   1001200200173 
11.13      410.                                                   1001200200174 
11.16      440.                                                   1001200200175 
11.19      470.                                                   1001200200176 
11.22      490.                                                   1001200200177 
11.25      490.                                                   1001200200178 
11.28      520.                                                   1001200200179 
11.31      630.                                                   1001200200180 
11.33      610.                                                   1001200200181 
11.36      580.                                                   1001200200182 
11.39      580.                                                   1001200200183 
11.42      600.                                                   1001200200184 
11.45      580.                                                   1001200200185 
11.48      530.                                                   1001200200186 
11.51      550.                                                   1001200200187 
11.54      600.                                                   1001200200188 
11.57      670.                                                   1001200200189 
11.60      590.                                                   1001200200190 
11.63      610.                                                   1001200200191 
11.66      580.                                                   1001200200192 
11.68      500.                                                   1001200200193 
11.71      490.                                                   1001200200194 
11.74      520.                                                   1001200200195 
11.77      550.                                                   1001200200196 
11.80      490.                                                   1001200200197 
11.83      470.                                                   1001200200198 
11.86      580.                                                   1001200200199 
11.88      540.                                                   1001200200200 
11.91      530.                                                   1001200200201 
11.94      530.                                                   1001200200202 
11.97      550.                                                   1001200200203 
12.00      600.                                                   1001200200204 
12.03      620.                                                   1001200200205 
12.06      600.                                                   1001200200206 
12.08      690.                                                   1001200200207 
12.11      740.                                                   1001200200208 
12.14      600.                                                   1001200200209 
12.17      610.                                                   1001200200210 
12.20      670.                                                   1001200200211 
12.23      600.                                                   1001200200212 
12.25      580.                                                   1001200200213 
12.28      630.                                                   1001200200214 
12.31      600.                                                   1001200200215 
12.34      650.                                                   1001200200216 
12.37      740.                                                   1001200200217 
12.40      690.                                                   1001200200218 
12.43      620.                                                   1001200200219 
12.46      630.                                                   1001200200220 
12.49      540.                                                   1001200200221 
12.52      520.                                                   1001200200222 
12.55      550.                                                   1001200200223 
12.58      630.                                                   1001200200224 
12.61      670.                                                   1001200200225 
12.63      620.                                                   1001200200226 
12.66      580.                                                   1001200200227 
12.69      590.                                                   1001200200228 
12.72      570.                                                   1001200200229 
12.75      510.                                                   1001200200230 
12.78      560.                                                   1001200200231 
12.81      600.                                                   1001200200232 
12.84      590.                                                   1001200200233 
12.87      630.                                                   1001200200234 
12.89      620.                                                   1001200200235 
12.92      580.                                                   1001200200236 
12.95      540.                                                   1001200200237 
12.98      550.                                                   1001200200238 
13.00      570.                                                   1001200200239 
13.03      600.                                                   1001200200240 
13.06      620.                                                   1001200200241 
13.09      620.                                                   1001200200242 
13.12      550.                                                   1001200200243 
13.15      570.                                                   1001200200244 
13.17      540.                                                   1001200200245 
13.20      540.                                                   1001200200246 
13.23      560.                                                   1001200200247 
13.26      580.                                                   1001200200248 
13.29      570.                                                   1001200200249 
13.32      610.                                                   1001200200250 
13.35      670.                                                   1001200200251 
13.38      620.                                                   1001200200252 
13.41      590.                                                   1001200200253 
13.44      540.                                                   1001200200254 
13.47      550.                                                   1001200200255 
13.50      590.                                                   1001200200256 
13.53      550.                                                   1001200200257 
13.56      530.                                                   1001200200258 
13.59      590.                                                   1001200200259 
13.62      660.                                                   1001200200260 
13.65      610.                                                   1001200200261 
13.68      560.                                                   1001200200262 
13.71      530.                                                   1001200200263 
13.74      500.                                                   1001200200264 
13.77      520.                                                   1001200200265 
13.80      570.                                                   1001200200266 
13.82      650.                                                   1001200200267 
13.85      610.                                                   1001200200268 
13.88      560.                                                   1001200200269 
13.91      570.                                                   1001200200270 
13.94      540.                                                   1001200200271 
13.96      580.                                                   1001200200272 
13.99      600.                                                   1001200200273 
14.02      630.                                                   1001200200274 
ENDDATA            256          0                                 1001200200275 
ENDSUBENT          274          0                                 1001200299999 
SUBENT        10012003   19990617                             00001001200300001 
BIB                  6          9                                 1001200300002 
REACTION   (14-SI-0(N,EL)14-SI-0,,DA)                             1001200300003 
INC-SOURCE (D-D) Deuterons on D2 gas target.                      1001200300004 
SAMPLE     Solid Si cylinder.                                     1001200300005 
DETECTOR   (SCIN) Liquid hydrogenous scintillator viewed by       1001200300006 
           photomultiplier tubes with pulse shape discriminator.  1001200300007 
CORRECTION Corrected for multiple scattering. Corrected for       1001200300008 
            attenuation in scattered intensity produced by        1001200300009 
            absorption in sample.                                 1001200300010 
HISTORY    (19860424A) REACTION SF4 added.                        1001200300011 
ENDBIB               9          0                                 1001200300012 
COMMON               4          3                                 1001200300013 
ANG        ANG-RSL    EN-RSL     DATA-ERR                         1001200300014 
ADEG       ADEG       MEV        PER-CENT                         1001200300015 
 30.        1.6       0.03        10.                             1001200300016 
ENDCOMMON            3          0                                 1001200300017 
DATA                 2        254                                 1001200300018 
EN         DATA                                                   1001200300019 
MEV        MB/SR                                                  1001200300020 
6.64       233.                                                   1001200300021 
6.67       329.                                                   1001200300022 
6.70       482.                                                   1001200300023 
6.73       556.                                                   1001200300024 
6.76       456.                                                   1001200300025 
6.79       377.                                                   1001200300026 
6.82       318.                                                   1001200300027 
6.85       257.                                                   1001200300028 
6.88       298.                                                   1001200300029 
6.91       219.                                                   1001200300030 
6.94       264.                                                   1001200300031 
6.97       565.                                                   1001200300032 
6.99       402.                                                   1001200300033 
7.02       292.                                                   1001200300034 
7.05       377.                                                   1001200300035 
7.08       390.                                                   1001200300036 
7.11       351.                                                   1001200300037 
7.14       301.                                                   1001200300038 
7.17       282.                                                   1001200300039 
7.20       393.                                                   1001200300040 
7.23       400.                                                   1001200300041 
7.26       423.                                                   1001200300042 
7.29       456.                                                   1001200300043 
7.32       523.                                                   1001200300044 
7.35       659.                                                   1001200300045 
7.38       603.                                                   1001200300046 
7.41       573.                                                   1001200300047 
7.44       570.                                                   1001200300048 
7.47       520.                                                   1001200300049 
7.50       432.                                                   1001200300050 
7.53       483.                                                   1001200300051 
7.56       446.                                                   1001200300052 
7.59       446.                                                   1001200300053 
7.62       504.                                                   1001200300054 
7.65       528.                                                   1001200300055 
7.68       504.                                                   1001200300056 
7.71       479.                                                   1001200300057 
7.74       563.                                                   1001200300058 
7.77       619.                                                   1001200300059 
7.80       552.                                                   1001200300060 
7.83       440.                                                   1001200300061 
7.86       461.                                                   1001200300062 
7.89       486.                                                   1001200300063 
7.92       534.                                                   1001200300064 
7.95       467.                                                   1001200300065 
7.98       457.                                                   1001200300066 
8.01       400.                                                   1001200300067 
8.04       382.                                                   1001200300068 
8.06       365.                                                   1001200300069 
8.09       352.                                                   1001200300070 
8.12       320.                                                   1001200300071 
8.15       329.                                                   1001200300072 
8.18       355.                                                   1001200300073 
8.21       377.                                                   1001200300074 
8.24       416.                                                   1001200300075 
8.27       463.                                                   1001200300076 
8.30       459.                                                   1001200300077 
8.33       418.                                                   1001200300078 
8.36       413.                                                   1001200300079 
8.39       416.                                                   1001200300080 
8.42       466.                                                   1001200300081 
8.45       363.                                                   1001200300082 
8.48       404.                                                   1001200300083 
8.51       363.                                                   1001200300084 
8.54       396.                                                   1001200300085 
8.57       366.                                                   1001200300086 
8.60       352.                                                   1001200300087 
8.63       439.                                                   1001200300088 
8.66       370.                                                   1001200300089 
8.69       366.                                                   1001200300090 
8.72       372.                                                   1001200300091 
8.75       329.                                                   1001200300092 
8.78       370.                                                   1001200300093 
8.81       281.                                                   1001200300094 
8.84       352.                                                   1001200300095 
8.87       381.                                                   1001200300096 
8.90       419.                                                   1001200300097 
8.93       449.                                                   1001200300098 
8.96       420.                                                   1001200300099 
8.99       513.                                                   1001200300100 
9.02       453.                                                   1001200300101 
9.04       430.                                                   1001200300102 
9.07       395.                                                   1001200300103 
9.10       383.                                                   1001200300104 
9.13       279.                                                   1001200300105 
9.16       362.                                                   1001200300106 
9.19       360.                                                   1001200300107 
9.22       330.                                                   1001200300108 
9.25       340.                                                   1001200300109 
9.28       310.                                                   1001200300110 
9.30       250.                                                   1001200300111 
9.33       340.                                                   1001200300112 
9.36       370.                                                   1001200300113 
9.39       390.                                                   1001200300114 
9.42       430.                                                   1001200300115 
9.45       380.                                                   1001200300116 
9.48       470.                                                   1001200300117 
9.51       400.                                                   1001200300118 
9.54       350.                                                   1001200300119 
9.56       400.                                                   1001200300120 
9.59       360.                                                   1001200300121 
9.62       320.                                                   1001200300122 
9.65       280.                                                   1001200300123 
9.68       300.                                                   1001200300124 
9.71       310.                                                   1001200300125 
9.74       380.                                                   1001200300126 
9.77       380.                                                   1001200300127 
9.80       410.                                                   1001200300128 
9.83       360.                                                   1001200300129 
9.86       400.                                                   1001200300130 
9.89       350.                                                   1001200300131 
9.91       340.                                                   1001200300132 
9.94       380.                                                   1001200300133 
9.97       360.                                                   1001200300134 
10.00      400.                                                   1001200300135 
10.03      360.                                                   1001200300136 
10.06      290.                                                   1001200300137 
10.09      360.                                                   1001200300138 
10.12      330.                                                   1001200300139 
10.15      320.                                                   1001200300140 
10.17      380.                                                   1001200300141 
10.20      350.                                                   1001200300142 
10.23      390.                                                   1001200300143 
10.26      360.                                                   1001200300144 
10.28      310.                                                   1001200300145 
10.31      260.                                                   1001200300146 
10.34      320.                                                   1001200300147 
10.37      390.                                                   1001200300148 
10.40      360.                                                   1001200300149 
10.43      340.                                                   1001200300150 
10.46      310.                                                   1001200300151 
10.49      300.                                                   1001200300152 
10.52      270.                                                   1001200300153 
10.55      310.                                                   1001200300154 
10.58      330.                                                   1001200300155 
10.61      280.                                                   1001200300156 
10.64      350.                                                   1001200300157 
10.67      300.                                                   1001200300158 
10.69      320.                                                   1001200300159 
10.72      330.                                                   1001200300160 
10.75      340.                                                   1001200300161 
10.78      370.                                                   1001200300162 
10.81      410.                                                   1001200300163 
10.84      410.                                                   1001200300164 
10.87      380.                                                   1001200300165 
10.90      420.                                                   1001200300166 
10.92      420.                                                   1001200300167 
10.95      410.                                                   1001200300168 
10.98      330.                                                   1001200300169 
11.01      320.                                                   1001200300170 
11.04      350.                                                   1001200300171 
11.07      280.                                                   1001200300172 
11.10      310.                                                   1001200300173 
11.13      270.                                                   1001200300174 
11.16      310.                                                   1001200300175 
11.19      310.                                                   1001200300176 
11.22      320.                                                   1001200300177 
11.25      350.                                                   1001200300178 
11.28      300.                                                   1001200300179 
11.31      380.                                                   1001200300180 
11.33      370.                                                   1001200300181 
11.36      350.                                                   1001200300182 
11.39      340.                                                   1001200300183 
11.42      350.                                                   1001200300184 
11.45      340.                                                   1001200300185 
11.48      390.                                                   1001200300186 
11.51      390.                                                   1001200300187 
11.54      410.                                                   1001200300188 
11.57      440.                                                   1001200300189 
11.60      410.                                                   1001200300190 
11.63      350.                                                   1001200300191 
11.66      330.                                                   1001200300192 
11.68      320.                                                   1001200300193 
11.71      330.                                                   1001200300194 
11.74      310.                                                   1001200300195 
11.77      300.                                                   1001200300196 
11.80      290.                                                   1001200300197 
11.83      270.                                                   1001200300198 
11.86      330.                                                   1001200300199 
11.89      330.                                                   1001200300200 
11.91      350.                                                   1001200300201 
11.94      310.                                                   1001200300202 
11.97      340.                                                   1001200300203 
12.00      360.                                                   1001200300204 
12.03      400.                                                   1001200300205 
12.06      370.                                                   1001200300206 
12.08      430.                                                   1001200300207 
12.11      440.                                                   1001200300208 
12.14      410.                                                   1001200300209 
12.17      400.                                                   1001200300210 
12.20      370.                                                   1001200300211 
12.23      340.                                                   1001200300212 
12.25      320.                                                   1001200300213 
12.28      340.                                                   1001200300214 
12.31      340.                                                   1001200300215 
12.34      350.                                                   1001200300216 
12.37      380.                                                   1001200300217 
12.40      360.                                                   1001200300218 
12.43      350.                                                   1001200300219 
12.46      370.                                                   1001200300220 
12.49      310.                                                   1001200300221 
12.52      330.                                                   1001200300222 
12.55      360.                                                   1001200300223 
12.58      380.                                                   1001200300224 
12.61      410.                                                   1001200300225 
12.63      350.                                                   1001200300226 
12.66      320.                                                   1001200300227 
12.69      320.                                                   1001200300228 
12.72      290.                                                   1001200300229 
12.75      290.                                                   1001200300230 
12.78      310.                                                   1001200300231 
12.81      330.                                                   1001200300232 
12.84      350.                                                   1001200300233 
12.87      370.                                                   1001200300234 
12.89      360.                                                   1001200300235 
12.92      340.                                                   1001200300236 
12.95      310.                                                   1001200300237 
12.98      310.                                                   1001200300238 
13.00      310.                                                   1001200300239 
13.03      340.                                                   1001200300240 
13.06      370.                                                   1001200300241 
13.09      390.                                                   1001200300242 
13.12      360.                                                   1001200300243 
13.15      330.                                                   1001200300244 
13.17      290.                                                   1001200300245 
13.20      310.                                                   1001200300246 
13.23      320.                                                   1001200300247 
13.26      300.                                                   1001200300248 
13.29      260.                                                   1001200300249 
13.32      290.                                                   1001200300250 
13.35      320.                                                   1001200300251 
13.38      310.                                                   1001200300252 
13.41      320.                                                   1001200300253 
13.44      330.                                                   1001200300254 
13.47      320.                                                   1001200300255 
13.50      320.                                                   1001200300256 
13.53      280.                                                   1001200300257 
13.56      260.                                                   1001200300258 
13.59      310.                                                   1001200300259 
13.62      320.                                                   1001200300260 
13.65      290.                                                   1001200300261 
13.68      280.                                                   1001200300262 
13.71      260.                                                   1001200300263 
13.74      230.                                                   1001200300264 
13.77      250.                                                   1001200300265 
13.80      280.                                                   1001200300266 
13.82      300.                                                   1001200300267 
13.85      300.                                                   1001200300268 
13.88      280.                                                   1001200300269 
13.91      250.                                                   1001200300270 
13.94      210.                                                   1001200300271 
13.96      220.                                                   1001200300272 
13.99      230.                                                   1001200300273 
14.02      250.                                                   1001200300274 
ENDDATA            256          0                                 1001200300275 
ENDSUBENT          274          0                                 1001200399999 
SUBENT        10012004   19990617                             00001001200400001 
BIB                  6          7                                 1001200400002 
REACTION   (14-SI-28(N,P)13-AL-28,PAR,SIG)                        1001200400003 
INC-SOURCE (D-D) Deuterons on D2 gas target.                      1001200400004 
MONITOR    (1-H-2(D,N)2-HE-3,,SIG) Flux monitor.                  1001200400005 
MONIT-REF  (,FOWLER+,J,RMP,28,103,1956)                           1001200400006 
SAMPLE     Si surface barrier detector served as both detector and1001200400007 
           target.                                                1001200400008 
DETECTOR   (SOLST) Si surface barrier detector.                   1001200400009 
ENDBIB               7          0                                 1001200400010 
COMMON               3          3                                 1001200400011 
E-LVL      E-LVL      EN-RSL                                      1001200400012 
MEV        MEV        MEV                                         1001200400013 
 0.         0.031      0.03                                       1001200400014 
ENDCOMMON            3          0                                 1001200400015 
DATA                 2        232                                 1001200400016 
EN         DATA                                                   1001200400017 
MEV        MB                                                     1001200400018 
6.64       179.4                                                  1001200400019 
6.67       161.4                                                  1001200400020 
6.70       92.4                                                   1001200400021 
6.73       108.0                                                  1001200400022 
6.76       114.0                                                  1001200400023 
6.79       143.4                                                  1001200400024 
6.82       162.6                                                  1001200400025 
6.85       175.2                                                  1001200400026 
6.88       250.2                                                  1001200400027 
6.91       234.6                                                  1001200400028 
6.94       169.2                                                  1001200400029 
6.97       192.6                                                  1001200400030 
7.00       138.0                                                  1001200400031 
7.03       147.1                                                  1001200400032 
7.05       116.8                                                  1001200400033 
7.08       143.1                                                  1001200400034 
7.11       160.8                                                  1001200400035 
7.14       170.1                                                  1001200400036 
7.17       198.6                                                  1001200400037 
7.20       183.3                                                  1001200400038 
7.23       126.8                                                  1001200400039 
7.26       172.0                                                  1001200400040 
7.29       167.8                                                  1001200400041 
7.32       159.0                                                  1001200400042 
7.35       223.0                                                  1001200400043 
7.38       160.2                                                  1001200400044 
7.41       172.6                                                  1001200400045 
7.44       187.0                                                  1001200400046 
7.47       198.2                                                  1001200400047 
7.50       172.0                                                  1001200400048 
7.53       141.2                                                  1001200400049 
7.56       161.7                                                  1001200400050 
7.59       164.1                                                  1001200400051 
7.62       171.5                                                  1001200400052 
7.65       144.4                                                  1001200400053 
7.68       137.2                                                  1001200400054 
7.71       150.4                                                  1001200400055 
7.74       148.8                                                  1001200400056 
7.77       144.4                                                  1001200400057 
7.80       156.4                                                  1001200400058 
7.83       144.4                                                  1001200400059 
7.86       124.6                                                  1001200400060 
7.89       118.4                                                  1001200400061 
7.92       130.6                                                  1001200400062 
7.95       109.2                                                  1001200400063 
7.98       100.2                                                  1001200400064 
8.01       82.9                                                   1001200400065 
8.04       73.2                                                   1001200400066 
8.06       79.2                                                   1001200400067 
8.09       69.6                                                   1001200400068 
8.12       63.0                                                   1001200400069 
8.15       58.4                                                   1001200400070 
8.18        69.8                                                  1001200400071 
8.21        67.8                                                  1001200400072 
8.24       79.0                                                   1001200400073 
8.27       68.3                                                   1001200400074 
8.30       59.2                                                   1001200400075 
8.33       54.0                                                   1001200400076 
8.36       63.2                                                   1001200400077 
8.39       83.1                                                   1001200400078 
8.42       77.4                                                   1001200400079 
8.45       79.5                                                   1001200400080 
8.48       80.0                                                   1001200400081 
8.51       82.0                                                   1001200400082 
8.57       81.4                                                   1001200400083 
8.60       87.0                                                   1001200400084 
8.63       83.7                                                   1001200400085 
8.66       95.0                                                   1001200400086 
8.69       98.0                                                   1001200400087 
8.72       89.1                                                   1001200400088 
8.75       78.1                                                   1001200400089 
8.78       62.6                                                   1001200400090 
8.81       66.9                                                   1001200400091 
8.84       67.6                                                   1001200400092 
8.87       51.5                                                   1001200400093 
8.90       77.7                                                   1001200400094 
8.93       64.6                                                   1001200400095 
8.96       55.3                                                   1001200400096 
8.99       46.0                                                   1001200400097 
9.02       61.3                                                   1001200400098 
9.04       65.1                                                   1001200400099 
9.07       66.5                                                   1001200400100 
9.10       63.4                                                   1001200400101 
9.13       58.5                                                   1001200400102 
9.16       57.3                                                   1001200400103 
9.19       68.4                                                   1001200400104 
9.22       68.6                                                   1001200400105 
9.25       80.1                                                   1001200400106 
9.28       69.6                                                   1001200400107 
9.31       75.1                                                   1001200400108 
9.34       85.1                                                   1001200400109 
9.37       89.7                                                   1001200400110 
9.40       76.4                                                   1001200400111 
9.43       94.6                                                   1001200400112 
9.46       89.9                                                   1001200400113 
9.49       63.6                                                   1001200400114 
9.52       46.9                                                   1001200400115 
9.55       51.2                                                   1001200400116 
9.58       66.0                                                   1001200400117 
9.61       61.1                                                   1001200400118 
9.64       73.1                                                   1001200400119 
9.67       73.3                                                   1001200400120 
9.70       74.6                                                   1001200400121 
9.73       62.2                                                   1001200400122 
9.76       57.3                                                   1001200400123 
9.78       61.9                                                   1001200400124 
9.81       65.8                                                   1001200400125 
9.84       83.1                                                   1001200400126 
9.87       73.7                                                   1001200400127 
9.90       81.2                                                   1001200400128 
9.93       73.8                                                   1001200400129 
9.96       60.6                                                   1001200400130 
9.99       59.3                                                   1001200400131 
10.02      63.8                                                   1001200400132 
10.05      55.3                                                   1001200400133 
10.09      46.3                                                   1001200400134 
10.10      34.7                                                   1001200400135 
10.13      45.0                                                   1001200400136 
10.16      43.1                                                   1001200400137 
10.19      48.4                                                   1001200400138 
10.22      58.3                                                   1001200400139 
10.25      82.6                                                   1001200400140 
10.28      87.1                                                   1001200400141 
10.30      80.2                                                   1001200400142 
10.33      98.3                                                   1001200400143 
10.36      74.6                                                   1001200400144 
10.39      57.6                                                   1001200400145 
10.42      35.3                                                   1001200400146 
10.45      41.4                                                   1001200400147 
10.48      46.6                                                   1001200400148 
10.51      43.7                                                   1001200400149 
10.54      55.3                                                   1001200400150 
10.57      63.1                                                   1001200400151 
10.60      51.4                                                   1001200400152 
10.63      77.7                                                   1001200400153 
10.66      47.4                                                   1001200400154 
10.69      39.8                                                   1001200400155 
10.72      41.4                                                   1001200400156 
10.75      48.7                                                   1001200400157 
10.78      60.3                                                   1001200400158 
10.80      62.0                                                   1001200400159 
10.83      71.7                                                   1001200400160 
10.86      50.4                                                   1001200400161 
10.89      56.4                                                   1001200400162 
10.92      51.4                                                   1001200400163 
10.95      46.4                                                   1001200400164 
10.98      46.4                                                   1001200400165 
11.01      48.4                                                   1001200400166 
11.04      37.5                                                   1001200400167 
11.06      44.2                                                   1001200400168 
11.09      45.8                                                   1001200400169 
11.12      36.0                                                   1001200400170 
11.15      37.7                                                   1001200400171 
11.18      20.2                                                   1001200400172 
11.21      24.3                                                   1001200400173 
11.24      23.7                                                   1001200400174 
11.27      36.6                                                   1001200400175 
11.30      34.2                                                   1001200400176 
11.33      41.7                                                   1001200400177 
11.36      38.7                                                   1001200400178 
11.39      37.1                                                   1001200400179 
11.42      33.3                                                   1001200400180 
11.45      47.1                                                   1001200400181 
11.48      48.6                                                   1001200400182 
11.51      53.6                                                   1001200400183 
11.54      42.1                                                   1001200400184 
11.57      39.6                                                   1001200400185 
11.60      37.7                                                   1001200400186 
11.63      33.2                                                   1001200400187 
11.66      31.0                                                   1001200400188 
11.69      33.6                                                   1001200400189 
11.72      32.3                                                   1001200400190 
11.74      30.7                                                   1001200400191 
11.77      27.4                                                   1001200400192 
11.80      28.0                                                   1001200400193 
11.83      32.8                                                   1001200400194 
11.86      29.2                                                   1001200400195 
11.89      25.4                                                   1001200400196 
11.91      24.3                                                   1001200400197 
11.94      24.1                                                   1001200400198 
11.97      20.9                                                   1001200400199 
12.00      22.6                                                   1001200400200 
12.03      26.7                                                   1001200400201 
12.06      27.0                                                   1001200400202 
12.09      29.4                                                   1001200400203 
12.11      27.1                                                   1001200400204 
12.14      23.3                                                   1001200400205 
12.17      21.6                                                   1001200400206 
12.20      25.8                                                   1001200400207 
12.23      31.2                                                   1001200400208 
12.26      25.8                                                   1001200400209 
12.29      23.8                                                   1001200400210 
12.31      27.3                                                   1001200400211 
12.34      27.5                                                   1001200400212 
12.37      26.2                                                   1001200400213 
12.40      25.5                                                   1001200400214 
12.43      22.8                                                   1001200400215 
12.46      19.6                                                   1001200400216 
12.49      20.0                                                   1001200400217 
12.52      26.5                                                   1001200400218 
12.55      23.0                                                   1001200400219 
12.58      19.6                                                   1001200400220 
12.61      13.6                                                   1001200400221 
12.64      14.4                                                   1001200400222 
12.67      15.9                                                   1001200400223 
12.70      18.2                                                   1001200400224 
12.72      21.6                                                   1001200400225 
12.75      22.1                                                   1001200400226 
12.78      21.0                                                   1001200400227 
12.81      19.8                                                   1001200400228 
12.84      14.6                                                   1001200400229 
12.87      16.7                                                   1001200400230 
12.89      12.8                                                   1001200400231 
12.92      13.2                                                   1001200400232 
12.95      14.5                                                   1001200400233 
12.98      14.4                                                   1001200400234 
13.01      15.2                                                   1001200400235 
13.04      16.4                                                   1001200400236 
13.07      19.4                                                   1001200400237 
13.10      19.0                                                   1001200400238 
13.13      18.9                                                   1001200400239 
13.15      16.6                                                   1001200400240 
13.18      13.9                                                   1001200400241 
13.21      13.9                                                   1001200400242 
13.24      14.4                                                   1001200400243 
13.27      15.5                                                   1001200400244 
13.30      18.9                                                   1001200400245 
13.32      19.3                                                   1001200400246 
13.35      18.9                                                   1001200400247 
13.38      17.1                                                   1001200400248 
13.41      16.8                                                   1001200400249 
13.44      13.4                                                   1001200400250 
ENDDATA            234          0                                 1001200400251 
ENDSUBENT          250          0                                 1001200499999 
SUBENT        10012005   19990617                             00001001200500001 
BIB                  7          8                                 1001200500002 
REACTION   (14-SI-28(N,P)13-AL-28,PAR,SIG)                        1001200500003 
INC-SOURCE (D-D) Deuterons on D2 gas target.                      1001200500004 
MONITOR    (1-H-2(D,N)2-HE-3,,SIG) Flux monitor.                  1001200500005 
MONIT-REF  (,FOWLER+,J,RMP,28,103,1956)                           1001200500006 
SAMPLE     Si surface barrier detector served as both detector and1001200500007 
            target.                                               1001200500008 
DETECTOR   (SOLST) Si surface barrier detector.                   1001200500009 
HISTORY    (19850307A) Energy levels corrected.                   1001200500010 
ENDBIB               8          0                                 1001200500011 
COMMON               3          3                                 1001200500012 
E-LVL      E-LVL      EN-RSL                                      1001200500013 
MEV        MEV        MEV                                         1001200500014 
 0.97       1.02       0.03                                       1001200500015 
ENDCOMMON            3          0                                 1001200500016 
DATA                 2        233                                 1001200500017 
EN         DATA                                                   1001200500018 
MEV        MB                                                     1001200500019 
6.64       24.4                                                   1001200500020 
6.67       17.8                                                   1001200500021 
6.70       25.3                                                   1001200500022 
6.73       41.9                                                   1001200500023 
6.76       33.8                                                   1001200500024 
6.79       35.8                                                   1001200500025 
6.82       33.6                                                   1001200500026 
6.85       42.0                                                   1001200500027 
6.88       59.0                                                   1001200500028 
6.91       76.2                                                   1001200500029 
6.94       78.6                                                   1001200500030 
6.97       63.6                                                   1001200500031 
7.00       45.6                                                   1001200500032 
7.03       24.1                                                   1001200500033 
7.05       27.8                                                   1001200500034 
7.08       24.1                                                   1001200500035 
7.11       36.9                                                   1001200500036 
7.14       40.8                                                   1001200500037 
7.17       52.5                                                   1001200500038 
7.20       57.6                                                   1001200500039 
7.23       54.2                                                   1001200500040 
7.26       74.5                                                   1001200500041 
7.29       41.6                                                   1001200500042 
7.32       65.8                                                   1001200500043 
7.35       87.0                                                   1001200500044 
7.38       55.2                                                   1001200500045 
7.41       66.5                                                   1001200500046 
7.44       72.1                                                   1001200500047 
7.47       46.3                                                   1001200500048 
7.50       43.2                                                   1001200500049 
7.53       54.8                                                   1001200500050 
7.56       46.1                                                   1001200500051 
7.59       60.3                                                   1001200500052 
7.62       52.5                                                   1001200500053 
7.65       65.6                                                   1001200500054 
7.68       87.4                                                   1001200500055 
7.71       94.8                                                   1001200500056 
7.74       64.2                                                   1001200500057 
7.77       62.0                                                   1001200500058 
7.80       85.4                                                   1001200500059 
7.83       107.2                                                  1001200500060 
7.86       95.0                                                   1001200500061 
7.89       73.0                                                   1001200500062 
7.92       71.0                                                   1001200500063 
7.95       68.6                                                   1001200500064 
7.98       47.6                                                   1001200500065 
8.01       46.1                                                   1001200500066 
8.04       66.8                                                   1001200500067 
8.06       60.2                                                   1001200500068 
8.09       62.0                                                   1001200500069 
8.12       57.2                                                   1001200500070 
8.15       58.2                                                   1001200500071 
8.18       69.6                                                   1001200500072 
8.21       59.6                                                   1001200500073 
8.24       41.3                                                   1001200500074 
8.27       46.7                                                   1001200500075 
8.30       38.1                                                   1001200500076 
8.33       35.3                                                   1001200500077 
8.36       20.3                                                   1001200500078 
8.39       24.8                                                   1001200500079 
8.42       26.1                                                   1001200500080 
8.45       39.3                                                   1001200500081 
8.48       48.9                                                   1001200500082 
8.51       39.6                                                   1001200500083 
8.54       22.1                                                   1001200500084 
8.57       20.6                                                   1001200500085 
8.60       25.8                                                   1001200500086 
8.63       22.7                                                   1001200500087 
8.66       17.9                                                   1001200500088 
8.69       17.7                                                   1001200500089 
8.72       21.3                                                   1001200500090 
8.75       23.1                                                   1001200500091 
8.78       16.6                                                   1001200500092 
8.81       18.4                                                   1001200500093 
8.84       20.4                                                   1001200500094 
8.87       31.3                                                   1001200500095 
8.90       29.7                                                   1001200500096 
8.93       26.6                                                   1001200500097 
8.96       24.7                                                   1001200500098 
8.99       38.4                                                   1001200500099 
9.02       41.4                                                   1001200500100 
9.04       49.7                                                   1001200500101 
9.07       43.9                                                   1001200500102 
9.10       37.8                                                   1001200500103 
9.13       32.7                                                   1001200500104 
9.16       30.8                                                   1001200500105 
9.19       28.8                                                   1001200500106 
9.22       23.9                                                   1001200500107 
9.25       31.5                                                   1001200500108 
9.28       34.4                                                   1001200500109 
9.31       36.2                                                   1001200500110 
9.34       26.5                                                   1001200500111 
9.37       32.4                                                   1001200500112 
9.40       23.0                                                   1001200500113 
9.43       19.0                                                   1001200500114 
9.46       32.8                                                   1001200500115 
9.49       43.2                                                   1001200500116 
9.52       54.8                                                   1001200500117 
9.55       52.3                                                   1001200500118 
9.58       63.5                                                   1001200500119 
9.61       45.5                                                   1001200500120 
9.64       39.2                                                   1001200500121 
9.67       53.1                                                   1001200500122 
9.70       45.6                                                   1001200500123 
9.73       29.5                                                   1001200500124 
9.76       28.7                                                   1001200500125 
9.78       29.2                                                   1001200500126 
9.81       24.1                                                   1001200500127 
9.84       24.5                                                   1001200500128 
9.87       37.3                                                   1001200500129 
9.90       45.9                                                   1001200500130 
9.93       37.8                                                   1001200500131 
9.96       42.7                                                   1001200500132 
9.99       29.7                                                   1001200500133 
10.02      35.9                                                   1001200500134 
10.05      29.8                                                   1001200500135 
10.09      29.8                                                   1001200500136 
10.10      25.4                                                   1001200500137 
10.13      26.9                                                   1001200500138 
10.16      18.7                                                   1001200500139 
10.19      26.9                                                   1001200500140 
10.22      37.7                                                   1001200500141 
10.25      47.4                                                   1001200500142 
10.28      44.3                                                   1001200500143 
10.30      44.9                                                   1001200500144 
10.33      28.8                                                   1001200500145 
10.36      22.6                                                   1001200500146 
10.39      20.8                                                   1001200500147 
10.42      27.4                                                   1001200500148 
10.45      29.8                                                   1001200500149 
10.48      30.7                                                   1001200500150 
10.51      33.9                                                   1001200500151 
10.54      43.4                                                   1001200500152 
10.57      37.2                                                   1001200500153 
10.60      29.4                                                   1001200500154 
10.63      32.3                                                   1001200500155 
10.66      31.2                                                   1001200500156 
10.69      32.5                                                   1001200500157 
10.72      42.4                                                   1001200500158 
10.75      40.9                                                   1001200500159 
10.78      40.6                                                   1001200500160 
10.80      34.7                                                   1001200500161 
10.83      29.0                                                   1001200500162 
10.86      33.3                                                   1001200500163 
10.89      26.1                                                   1001200500164 
10.92      21.3                                                   1001200500165 
10.95      31.9                                                   1001200500166 
10.98      37.8                                                   1001200500167 
11.01      35.9                                                   1001200500168 
11.04      29.9                                                   1001200500169 
11.06      18.9                                                   1001200500170 
11.09      20.7                                                   1001200500171 
11.12      17.6                                                   1001200500172 
11.15      16.0                                                   1001200500173 
11.18      23.0                                                   1001200500174 
11.21      28.0                                                   1001200500175 
11.24      26.3                                                   1001200500176 
11.27      23.6                                                   1001200500177 
11.30      21.1                                                   1001200500178 
11.33      20.3                                                   1001200500179 
11.36      21.1                                                   1001200500180 
11.39      20.3                                                   1001200500181 
11.42      22.1                                                   1001200500182 
11.45      22.4                                                   1001200500183 
11.48      20.7                                                   1001200500184 
11.51      19.4                                                   1001200500185 
11.54      19.7                                                   1001200500186 
11.57      15.1                                                   1001200500187 
11.60      18.9                                                   1001200500188 
11.63      20.5                                                   1001200500189 
11.66      22.4                                                   1001200500190 
11.69      28.8                                                   1001200500191 
11.72      22.9                                                   1001200500192 
11.74      17.7                                                   1001200500193 
11.77      24.2                                                   1001200500194 
11.80      28.2                                                   1001200500195 
11.83      24.4                                                   1001200500196 
11.86      18.0                                                   1001200500197 
11.89      15.8                                                   1001200500198 
11.91      12.0                                                   1001200500199 
11.94      11.4                                                   1001200500200 
11.97      10.5                                                   1001200500201 
12.00      12.2                                                   1001200500202 
12.03      9.8                                                    1001200500203 
12.06      11.8                                                   1001200500204 
12.09      13.9                                                   1001200500205 
12.11      15.5                                                   1001200500206 
12.14      15.2                                                   1001200500207 
12.17      11.7                                                   1001200500208 
12.20      14.2                                                   1001200500209 
12.23      17.3                                                   1001200500210 
12.26      20.6                                                   1001200500211 
12.29      22.9                                                   1001200500212 
12.31      19.2                                                   1001200500213 
12.34      18.0                                                   1001200500214 
12.37      18.8                                                   1001200500215 
12.40      21.3                                                   1001200500216 
12.43      16.0                                                   1001200500217 
12.46      17.2                                                   1001200500218 
12.49      21.7                                                   1001200500219 
12.52      18.0                                                   1001200500220 
12.55      18.3                                                   1001200500221 
12.58      22.1                                                   1001200500222 
12.61      18.8                                                   1001200500223 
12.64      17.3                                                   1001200500224 
12.67      15.3                                                   1001200500225 
12.70      13.2                                                   1001200500226 
12.72      14.2                                                   1001200500227 
12.75      16.0                                                   1001200500228 
12.78      18.0                                                   1001200500229 
12.81      14.2                                                   1001200500230 
12.84      16.9                                                   1001200500231 
12.87      18.3                                                   1001200500232 
12.89      12.2                                                   1001200500233 
12.92      11.5                                                   1001200500234 
12.95      9.5                                                    1001200500235 
12.98      11.0                                                   1001200500236 
13.01      13.0                                                   1001200500237 
13.04      13.3                                                   1001200500238 
13.07      12.6                                                   1001200500239 
13.10      13.6                                                   1001200500240 
13.13      12.1                                                   1001200500241 
13.15      10.6                                                   1001200500242 
13.18      9.9                                                    1001200500243 
13.21      8.5                                                    1001200500244 
13.24      8.8                                                    1001200500245 
13.27      11.3                                                   1001200500246 
13.30      10.8                                                   1001200500247 
13.32      12.4                                                   1001200500248 
13.35      10.0                                                   1001200500249 
13.38      13.4                                                   1001200500250 
13.41      13.2                                                   1001200500251 
13.44      11.5                                                   1001200500252 
ENDDATA            235          0                                 1001200500253 
ENDSUBENT          252          0                                 1001200599999 
SUBENT        10012006   19990617                             00001001200600001 
BIB                  4          6                                 1001200600002 
REACTION   (14-SI-0(N,TOT),,SIG)                                  1001200600003 
INC-SOURCE (D-D) Above 6.7 MeV deuterons on deuterium gas target. 1001200600004 
           (P-T) Below 6.7 MeV T(p,n) source.                     1001200600005 
DETECTOR   (SCIN) Liquid scintillator.                            1001200600006 
CORRECTION Corrected for room-scattered neutrons and for neutrons 1001200600007 
            not produced in target cell.                          1001200600008 
ENDBIB               6          0                                 1001200600009 
COMMON               1          3                                 1001200600010 
DATA-ERR                                                          1001200600011 
PER-CENT                                                          1001200600012 
 3.                                                               1001200600013 
ENDCOMMON            3          0                                 1001200600014 
DATA                 3        311                                 1001200600015 
EN         EN-RSL     DATA                                        1001200600016 
MEV        MEV        B                                           1001200600017 
 4.75   +00 4.     -02 3.01   +00                                 1001200600018 
 4.79   +00 4.     -02 3.30   +00                                 1001200600019 
 4.83   +00 4.     -02 3.06   +00                                 1001200600020 
 4.87   +00 4.     -02 2.67   +00                                 1001200600021 
 4.91   +00 4.     -02 2.55   +00                                 1001200600022 
 4.95   +00 4.     -02 2.58   +00                                 1001200600023 
 4.99   +00 4.     -02 2.21   +00                                 1001200600024 
 5.03   +00 4.     -02 2.52   +00                                 1001200600025 
 5.07   +00 4.     -02 2.05   +00                                 1001200600026 
 5.11   +00 4.     -02 2.31   +00                                 1001200600027 
 5.16   +00 4.     -02 2.47   +00                                 1001200600028 
 5.20   +00 4.     -02 2.79   +00                                 1001200600029 
 5.24   +00 4.     -02 2.30   +00                                 1001200600030 
 5.28   +00 4.     -02 2.11   +00                                 1001200600031 
 5.32   +00 4.     -02 1.97   +00                                 1001200600032 
 5.36   +00 4.     -02 1.81   +00                                 1001200600033 
 5.40   +00 4.     -02 1.70   +00                                 1001200600034 
 5.44   +00 4.     -02 1.80   +00                                 1001200600035 
 5.48   +00 4.     -02 1.49   +00                                 1001200600036 
 5.52   +00 4.     -02 2.12   +00                                 1001200600037 
 5.56   +00 4.     -02 2.04   +00                                 1001200600038 
 5.60   +00 4.     -02 2.03   +00                                 1001200600039 
 5.64   +00 4.     -02 2.10   +00                                 1001200600040 
 5.68   +00 4.     -02 2.15   +00                                 1001200600041 
 5.72   +00 4.     -02 2.70   +00                                 1001200600042 
 5.75   +00 3.     -02 2.58   +00                                 1001200600043 
 5.76   +00 4.     -02 2.45   +00                                 1001200600044 
 5.78   +00 3.     -02 2.37   +00                                 1001200600045 
 5.80   +00 4.     -02 2.32   +00                                 1001200600046 
 5.81   +00 3.     -02 2.42   +00                                 1001200600047 
 5.84   +00 3.     -02 2.40   +00                                 1001200600048 
 5.87   +00 3.     -02 2.61   +00                                 1001200600049 
 5.90   +00 3.     -02 2.20   +00                                 1001200600050 
 5.93   +00 3.     -02 2.00   +00                                 1001200600051 
 5.96   +00 3.     -02 1.91   +00                                 1001200600052 
 5.99   +00 3.     -02 2.03   +00                                 1001200600053 
 6.02   +00 3.     -02 2.17   +00                                 1001200600054 
 6.05   +00 3.     -02 2.44   +00                                 1001200600055 
 6.08   +00 3.     -02 2.38   +00                                 1001200600056 
 6.11   +00 3.     -02 2.12   +00                                 1001200600057 
 6.14   +00 3.     -02 1.66   +00                                 1001200600058 
 6.17   +00 3.     -02 1.77   +00                                 1001200600059 
 6.20   +00 3.     -02 1.98   +00                                 1001200600060 
 6.23   +00 3.     -02 2.25   +00                                 1001200600061 
 6.26   +00 3.     -02 2.67   +00                                 1001200600062 
 6.29   +00 3.     -02 2.83   +00                                 1001200600063 
 6.32   +00 3.     -02 2.40   +00                                 1001200600064 
 6.35   +00 3.     -02 2.10   +00                                 1001200600065 
 6.38   +00 3.     -02 2.16   +00                                 1001200600066 
 6.41   +00 3.     -02 1.91   +00                                 1001200600067 
 6.44   +00 3.     -02 2.28   +00                                 1001200600068 
 6.47   +00 3.     -02 1.67   +00                                 1001200600069 
 6.50   +00 3.     -02 1.67   +00                                 1001200600070 
 6.53   +00 3.     -02 1.71   +00                                 1001200600071 
 6.56   +00 3.     -02 1.54   +00                                 1001200600072 
 6.58   +00 3.     -02 1.33   +00                                 1001200600073 
 6.61   +00 3.     -02 1.26   +00                                 1001200600074 
 6.64   +00 3.     -02 1.46   +00                                 1001200600075 
 6.67   +00 3.     -02 2.00   +00                                 1001200600076 
 6.70   +00 3.     -02 2.34   +00                                 1001200600077 
 6.73   +00 3.     -02 2.13   +00                                 1001200600078 
 6.76   +00 3.     -02 2.06   +00                                 1001200600079 
 6.79   +00 3.     -02 2.09   +00                                 1001200600080 
 6.82   +00 3.     -02 1.88   +00                                 1001200600081 
 6.85   +00 3.     -02 1.87   +00                                 1001200600082 
 6.88   +00 3.     -02 1.97   +00                                 1001200600083 
 6.91   +00 3.     -02 1.74   +00                                 1001200600084 
 6.94   +00 3.     -02 1.60   +00                                 1001200600085 
 6.97   +00 3.     -02 2.02   +00                                 1001200600086 
 6.99   +00 3.     -02 1.98   +00                                 1001200600087 
 7.02   +00 3.     -02 1.91   +00                                 1001200600088 
 7.05   +00 3.     -02 2.12   +00                                 1001200600089 
 7.08   +00 3.     -02 2.08   +00                                 1001200600090 
 7.11   +00 3.     -02 1.90   +00                                 1001200600091 
 7.14   +00 3.     -02 1.53   +00                                 1001200600092 
 7.17   +00 3.     -02 1.77   +00                                 1001200600093 
 7.20   +00 3.     -02 1.92   +00                                 1001200600094 
 7.23   +00 3.     -02 1.97   +00                                 1001200600095 
 7.26   +00 3.     -02 2.03   +00                                 1001200600096 
 7.29   +00 3.     -02 2.10   +00                                 1001200600097 
 7.32   +00 3.     -02 2.30   +00                                 1001200600098 
 7.35   +00 3.     -02 2.11   +00                                 1001200600099 
 7.38   +00 3.     -02 2.15   +00                                 1001200600100 
 7.41   +00 3.     -02 2.01   +00                                 1001200600101 
 7.44   +00 3.     -02 2.10   +00                                 1001200600102 
 7.47   +00 3.     -02 1.97   +00                                 1001200600103 
 7.50   +00 3.     -02 1.87   +00                                 1001200600104 
 7.53   +00 3.     -02 1.94   +00                                 1001200600105 
 7.56   +00 3.     -02 1.89   +00                                 1001200600106 
 7.59   +00 3.     -02 1.93   +00                                 1001200600107 
 7.62   +00 3.     -02 1.90   +00                                 1001200600108 
 7.65   +00 3.     -02 2.10   +00                                 1001200600109 
 7.68   +00 3.     -02 1.97   +00                                 1001200600110 
 7.71   +00 3.     -02 1.94   +00                                 1001200600111 
 7.74   +00 3.     -02 2.11   +00                                 1001200600112 
 7.77   +00 3.     -02 2.12   +00                                 1001200600113 
 7.80   +00 3.     -02 2.04   +00                                 1001200600114 
 7.83   +00 3.     -02 1.97   +00                                 1001200600115 
 7.86   +00 3.     -02 2.00   +00                                 1001200600116 
 7.89   +00 3.     -02 2.11   +00                                 1001200600117 
 7.92   +00 3.     -02 2.24   +00                                 1001200600118 
 7.95   +00 3.     -02 2.16   +00                                 1001200600119 
 7.98   +00 3.     -02 2.04   +00                                 1001200600120 
 8.01   +00 3.     -02 2.07   +00                                 1001200600121 
 8.04   +00 3.     -02 1.93   +00                                 1001200600122 
 8.06   +00 3.     -02 1.79   +00                                 1001200600123 
 8.09   +00 3.     -02 1.67   +00                                 1001200600124 
 8.12   +00 3.     -02 1.71   +00                                 1001200600125 
 8.15   +00 3.     -02 1.81   +00                                 1001200600126 
 8.18   +00 3.     -02 1.77   +00                                 1001200600127 
 8.21   +00 3.     -02 1.88   +00                                 1001200600128 
 8.24   +00 3.     -02 1.86   +00                                 1001200600129 
 8.27   +00 3.     -02 1.96   +00                                 1001200600130 
 8.30   +00 3.     -02 1.89   +00                                 1001200600131 
 8.33   +00 3.     -02 1.93   +00                                 1001200600132 
 8.36   +00 3.     -02 2.12   +00                                 1001200600133 
 8.39   +00 3.     -02 2.18   +00                                 1001200600134 
 8.42   +00 3.     -02 2.12   +00                                 1001200600135 
 8.45   +00 3.     -02 2.07   +00                                 1001200600136 
 8.48   +00 3.     -02 2.04   +00                                 1001200600137 
 8.51   +00 3.     -02 1.95   +00                                 1001200600138 
 8.54   +00 3.     -02 1.93   +00                                 1001200600139 
 8.57   +00 3.     -02 1.89   +00                                 1001200600140 
 8.60   +00 3.     -02 2.03   +00                                 1001200600141 
 8.63   +00 3.     -02 1.91   +00                                 1001200600142 
 8.66   +00 3.     -02 1.93   +00                                 1001200600143 
 8.69   +00 3.     -02 1.86   +00                                 1001200600144 
 8.72   +00 3.     -02 1.81   +00                                 1001200600145 
 8.75   +00 3.     -02 1.68   +00                                 1001200600146 
 8.78   +00 3.     -02 1.59   +00                                 1001200600147 
 8.81   +00 3.     -02 1.63   +00                                 1001200600148 
 8.84   +00 3.     -02 1.67   +00                                 1001200600149 
 8.87   +00 3.     -02 1.78   +00                                 1001200600150 
 8.90   +00 3.     -02 2.11   +00                                 1001200600151 
 8.93   +00 3.     -02 2.02   +00                                 1001200600152 
 8.96   +00 3.     -02 1.97   +00                                 1001200600153 
 8.99   +00 3.     -02 2.09   +00                                 1001200600154 
 9.02   +00 3.     -02 2.08   +00                                 1001200600155 
 9.04   +00 3.     -02 2.14   +00                                 1001200600156 
 9.07   +00 3.     -02 2.01   +00                                 1001200600157 
 9.10   +00 3.     -02 1.83   +00                                 1001200600158 
 9.13   +00 3.     -02 1.84   +00                                 1001200600159 
 9.16   +00 3.     -02 1.83   +00                                 1001200600160 
 9.19   +00 3.     -02 1.76   +00                                 1001200600161 
 9.22   +00 3.     -02 1.77   +00                                 1001200600162 
 9.25   +00 3.     -02 1.68   +00                                 1001200600163 
 9.28   +00 3.     -02 1.66   +00                                 1001200600164 
 9.30   +00 3.     -02 1.68   +00                                 1001200600165 
 9.33   +00 3.     -02 1.72   +00                                 1001200600166 
 9.36   +00 3.     -02 2.03   +00                                 1001200600167 
 9.39   +00 3.     -02 1.87   +00                                 1001200600168 
 9.42   +00 3.     -02 1.89   +00                                 1001200600169 
 9.45   +00 3.     -02 2.06   +00                                 1001200600170 
 9.48   +00 3.     -02 2.05   +00                                 1001200600171 
 9.51   +00 3.     -02 1.99   +00                                 1001200600172 
 9.54   +00 3.     -02 1.88   +00                                 1001200600173 
 9.56   +00 3.     -02 1.97   +00                                 1001200600174 
 9.59   +00 3.     -02 1.89   +00                                 1001200600175 
 9.62   +00 3.     -02 1.80   +00                                 1001200600176 
 9.65   +00 3.     -02 1.76   +00                                 1001200600177 
 9.68   +00 3.     -02 1.67   +00                                 1001200600178 
 9.71   +00 3.     -02 1.72   +00                                 1001200600179 
 9.74   +00 3.     -02 1.77   +00                                 1001200600180 
 9.77   +00 3.     -02 1.72   +00                                 1001200600181 
 9.80   +00 3.     -02 1.80   +00                                 1001200600182 
 9.83   +00 3.     -02 1.86   +00                                 1001200600183 
 9.86   +00 3.     -02 1.82   +00                                 1001200600184 
 9.89   +00 3.     -02 1.79   +00                                 1001200600185 
 9.91   +00 3.     -02 1.80   +00                                 1001200600186 
 9.94   +00 3.     -02 1.86   +00                                 1001200600187 
 9.97   +00 3.     -02 1.99   +00                                 1001200600188 
 1.000  +01 3.     -02 1.91   +00                                 1001200600189 
 1.003  +01 3.     -02 1.74   +00                                 1001200600190 
 1.006  +01 3.     -02 1.83   +00                                 1001200600191 
 1.009  +01 3.     -02 1.88   +00                                 1001200600192 
 1.012  +01 3.     -02 1.86   +00                                 1001200600193 
 1.015  +01 3.     -02 1.89   +00                                 1001200600194 
 1.017  +01 3.     -02 1.87   +00                                 1001200600195 
 1.020  +01 3.     -02 1.84   +00                                 1001200600196 
 1.023  +01 3.     -02 1.94   +00                                 1001200600197 
 1.026  +01 3.     -02 1.91   +00                                 1001200600198 
 1.028  +01 3.     -02 1.81   +00                                 1001200600199 
 1.031  +01 3.     -02 1.94   +00                                 1001200600200 
 1.034  +01 3.     -02 2.00   +00                                 1001200600201 
 1.037  +01 3.     -02 1.92   +00                                 1001200600202 
 1.040  +01 3.     -02 1.86   +00                                 1001200600203 
 1.043  +01 3.     -02 1.71   +00                                 1001200600204 
 1.046  +01 3.     -02 1.71   +00                                 1001200600205 
 1.049  +01 3.     -02 1.70   +00                                 1001200600206 
 1.052  +01 3.     -02 1.67   +00                                 1001200600207 
 1.055  +01 3.     -02 1.73   +00                                 1001200600208 
 1.058  +01 3.     -02 1.86   +00                                 1001200600209 
 1.061  +01 3.     -02 1.76   +00                                 1001200600210 
 1.064  +01 3.     -02 1.68   +00                                 1001200600211 
 1.067  +01 3.     -02 1.70   +00                                 1001200600212 
 1.069  +01 3.     -02 1.74   +00                                 1001200600213 
 1.072  +01 3.     -02 1.77   +00                                 1001200600214 
 1.075  +01 3.     -02 1.85   +00                                 1001200600215 
 1.078  +01 3.     -02 1.84   +00                                 1001200600216 
 1.081  +01 3.     -02 1.86   +00                                 1001200600217 
 1.084  +01 3.     -02 1.87   +00                                 1001200600218 
 1.087  +01 3.     -02 1.90   +00                                 1001200600219 
 1.090  +01 3.     -02 1.92   +00                                 1001200600220 
 1.092  +01 3.     -02 1.91   +00                                 1001200600221 
 1.095  +01 3.     -02 1.87   +00                                 1001200600222 
 1.098  +01 3.     -02 1.79   +00                                 1001200600223 
 1.101  +01 3.     -02 1.80   +00                                 1001200600224 
 1.104  +01 3.     -02 1.81   +00                                 1001200600225 
 1.107  +01 3.     -02 1.72   +00                                 1001200600226 
 1.110  +01 3.     -02 1.68   +00                                 1001200600227 
 1.113  +01 3.     -02 1.67   +00                                 1001200600228 
 1.116  +01 3.     -02 1.69   +00                                 1001200600229 
 1.119  +01 3.     -02 1.71   +00                                 1001200600230 
 1.122  +01 3.     -02 1.77   +00                                 1001200600231 
 1.125  +01 3.     -02 1.72   +00                                 1001200600232 
 1.128  +01 3.     -02 1.77   +00                                 1001200600233 
 1.131  +01 3.     -02 1.83   +00                                 1001200600234 
 1.133  +01 3.     -02 1.85   +00                                 1001200600235 
 1.136  +01 3.     -02 1.86   +00                                 1001200600236 
 1.139  +01 3.     -02 1.89   +00                                 1001200600237 
 1.142  +01 3.     -02 1.85   +00                                 1001200600238 
 1.145  +01 3.     -02 1.79   +00                                 1001200600239 
 1.148  +01 3.     -02 1.74   +00                                 1001200600240 
 1.151  +01 3.     -02 1.80   +00                                 1001200600241 
 1.154  +01 3.     -02 1.87   +00                                 1001200600242 
 1.157  +01 3.     -02 1.85   +00                                 1001200600243 
 1.160  +01 3.     -02 1.80   +00                                 1001200600244 
 1.163  +01 3.     -02 1.85   +00                                 1001200600245 
 1.166  +01 3.     -02 1.84   +00                                 1001200600246 
 1.168  +01 3.     -02 1.85   +00                                 1001200600247 
 1.171  +01 3.     -02 1.85   +00                                 1001200600248 
 1.174  +01 3.     -02 1.81   +00                                 1001200600249 
 1.177  +01 3.     -02 1.84   +00                                 1001200600250 
 1.180  +01 3.     -02 1.86   +00                                 1001200600251 
 1.183  +01 3.     -02 1.80   +00                                 1001200600252 
 1.186  +01 3.     -02 1.75   +00                                 1001200600253 
 1.188  +01 3.     -02 1.75   +00                                 1001200600254 
 1.191  +01 3.     -02 1.78   +00                                 1001200600255 
 1.194  +01 3.     -02 1.70   +00                                 1001200600256 
 1.197  +01 3.     -02 1.75   +00                                 1001200600257 
 1.200  +01 3.     -02 1.85   +00                                 1001200600258 
 1.203  +01 3.     -02 1.89   +00                                 1001200600259 
 1.206  +01 3.     -02 1.84   +00                                 1001200600260 
 1.208  +01 3.     -02 1.78   +00                                 1001200600261 
 1.211  +01 3.     -02 1.77   +00                                 1001200600262 
 1.214  +01 3.     -02 1.79   +00                                 1001200600263 
 1.217  +01 3.     -02 1.78   +00                                 1001200600264 
 1.220  +01 3.     -02 1.78   +00                                 1001200600265 
 1.223  +01 3.     -02 1.79   +00                                 1001200600266 
 1.225  +01 3.     -02 1.80   +00                                 1001200600267 
 1.228  +01 3.     -02 1.81   +00                                 1001200600268 
 1.231  +01 3.     -02 1.86   +00                                 1001200600269 
 1.234  +01 3.     -02 1.90   +00                                 1001200600270 
 1.237  +01 3.     -02 1.91   +00                                 1001200600271 
 1.240  +01 3.     -02 1.83   +00                                 1001200600272 
 1.243  +01 3.     -02 1.77   +00                                 1001200600273 
 1.246  +01 3.     -02 1.73   +00                                 1001200600274 
 1.249  +01 3.     -02 1.69   +00                                 1001200600275 
 1.252  +01 3.     -02 1.75   +00                                 1001200600276 
 1.255  +01 3.     -02 1.73   +00                                 1001200600277 
 1.258  +01 3.     -02 1.78   +00                                 1001200600278 
 1.261  +01 3.     -02 1.83   +00                                 1001200600279 
 1.263  +01 3.     -02 1.87   +00                                 1001200600280 
 1.266  +01 3.     -02 1.90   +00                                 1001200600281 
 1.269  +01 3.     -02 1.87   +00                                 1001200600282 
 1.272  +01 3.     -02 1.88   +00                                 1001200600283 
 1.275  +01 3.     -02 1.91   +00                                 1001200600284 
 1.278  +01 3.     -02 1.87   +00                                 1001200600285 
 1.281  +01 3.     -02 1.87   +00                                 1001200600286 
 1.284  +01 3.     -02 1.81   +00                                 1001200600287 
 1.287  +01 3.     -02 1.84   +00                                 1001200600288 
 1.289  +01 3.     -02 1.85   +00                                 1001200600289 
 1.292  +01 3.     -02 1.88   +00                                 1001200600290 
 1.295  +01 3.     -02 1.91   +00                                 1001200600291 
 1.298  +01 3.     -02 1.89   +00                                 1001200600292 
 1.300  +01 3.     -02 1.82   +00                                 1001200600293 
 1.303  +01 3.     -02 1.77   +00                                 1001200600294 
 1.306  +01 3.     -02 1.76   +00                                 1001200600295 
 1.309  +01 3.     -02 1.75   +00                                 1001200600296 
 1.312  +01 3.     -02 1.83   +00                                 1001200600297 
 1.315  +01 3.     -02 1.79   +00                                 1001200600298 
 1.317  +01 3.     -02 1.83   +00                                 1001200600299 
 1.320  +01 3.     -02 1.83   +00                                 1001200600300 
 1.323  +01 3.     -02 1.85   +00                                 1001200600301 
 1.326  +01 3.     -02 1.83   +00                                 1001200600302 
 1.329  +01 3.     -02 1.85   +00                                 1001200600303 
 1.332  +01 3.     -02 1.87   +00                                 1001200600304 
 1.335  +01 3.     -02 1.82   +00                                 1001200600305 
 1.338  +01 3.     -02 1.82   +00                                 1001200600306 
 1.341  +01 3.     -02 1.84   +00                                 1001200600307 
 1.344  +01 3.     -02 1.83   +00                                 1001200600308 
 1.347  +01 3.     -02 1.78   +00                                 1001200600309 
 1.350  +01 3.     -02 1.82   +00                                 1001200600310 
 1.353  +01 3.     -02 1.83   +00                                 1001200600311 
 1.356  +01 3.     -02 1.86   +00                                 1001200600312 
 1.359  +01 3.     -02 1.89   +00                                 1001200600313 
 1.362  +01 3.     -02 1.86   +00                                 1001200600314 
 1.365  +01 3.     -02 1.87   +00                                 1001200600315 
 1.368  +01 3.     -02 1.85   +00                                 1001200600316 
 1.371  +01 3.     -02 1.82   +00                                 1001200600317 
 1.374  +01 3.     -02 1.77   +00                                 1001200600318 
 1.377  +01 3.     -02 1.81   +00                                 1001200600319 
 1.380  +01 3.     -02 1.86   +00                                 1001200600320 
 1.382  +01 3.     -02 1.89   +00                                 1001200600321 
 1.385  +01 3.     -02 1.92   +00                                 1001200600322 
 1.388  +01 3.     -02 1.88   +00                                 1001200600323 
 1.391  +01 3.     -02 1.88   +00                                 1001200600324 
 1.394  +01 3.     -02 1.89   +00                                 1001200600325 
 1.396  +01 3.     -02 1.84   +00                                 1001200600326 
 1.399  +01 3.     -02 1.83   +00                                 1001200600327 
 1.402  +01 3.     -02 1.83   +00                                 1001200600328 
ENDDATA            313          0                                 1001200600329 
ENDSUBENT          328          0                                 1001200699999 
SUBENT        10012007   19990617                             00001001200700001 
BIB                  3          3                                 1001200700002 
REACTION   (14-SI-28(N,A)12-MG-25,PAR,SIG)                        1001200700003 
DETECTOR   (SOLST) Si surface barrier detector.                   1001200700004 
ERR-ANALYS Absolute data error given.                             1001200700005 
ENDBIB               3          0                                 1001200700006 
COMMON               2          3                                 1001200700007 
E-LVL      DATA-ERR                                               1001200700008 
MEV        PER-CENT                                               1001200700009 
 0.         20.                                                   1001200700010 
ENDCOMMON            3          0                                 1001200700011 
DATA                 2        233                                 1001200700012 
EN         DATA                                                   1001200700013 
MEV        B                                                      1001200700014 
 6.64   +00 4.67   -02                                            1001200700015 
 6.67   +00 4.17   -02                                            1001200700016 
 6.70   +00 3.60   -02                                            1001200700017 
 6.73   +00 3.80   -02                                            1001200700018 
 6.76   +00 4.87   -02                                            1001200700019 
 6.79   +00 4.41   -02                                            1001200700020 
 6.82   +00 4.35   -02                                            1001200700021 
 6.85   +00 5.12   -02                                            1001200700022 
 6.88   +00 4.52   -02                                            1001200700023 
 6.91   +00 4.11   -02                                            1001200700024 
 6.94   +00 4.16   -02                                            1001200700025 
 6.97   +00 5.74   -02                                            1001200700026 
 7.00   +00 7.00   -02                                            1001200700027 
 7.03   +00 5.19   -02                                            1001200700028 
 7.05   +00 4.50   -02                                            1001200700029 
 7.08   +00 5.58   -02                                            1001200700030 
 7.11   +00 6.36   -02                                            1001200700031 
 7.14   +00 4.68   -02                                            1001200700032 
 7.17   +00 4.65   -02                                            1001200700033 
 7.20   +00 5.13   -02                                            1001200700034 
 7.23   +00 5.66   -02                                            1001200700035 
 7.26   +00 4.37   -02                                            1001200700036 
 7.29   +00 5.47   -02                                            1001200700037 
 7.32   +00 8.88   -02                                            1001200700038 
 7.35   +00 9.81   -02                                            1001200700039 
 7.38   +00 6.04   -02                                            1001200700040 
 7.41   +00 7.20   -02                                            1001200700041 
 7.44   +00 9.07   -02                                            1001200700042 
 7.47   +00 9.44   -02                                            1001200700043 
 7.50   +00 9.54   -02                                            1001200700044 
 7.53   +00 1.144  -01                                            1001200700045 
 7.56   +00 1.041  -01                                            1001200700046 
 7.59   +00 1.196  -01                                            1001200700047 
 7.62   +00 1.505  -01                                            1001200700048 
 7.65   +00 1.648  -01                                            1001200700049 
 7.68   +00 1.568  -01                                            1001200700050 
 7.71   +00 1.184  -01                                            1001200700051 
 7.74   +00 9.48   -02                                            1001200700052 
 7.77   +00 9.26   -02                                            1001200700053 
 7.80   +00 9.76   -02                                            1001200700054 
 7.83   +00 1.012  -01                                            1001200700055 
 7.86   +00 1.174  -01                                            1001200700056 
 7.89   +00 1.362  -01                                            1001200700057 
 7.92   +00 1.492  -01                                            1001200700058 
 7.95   +00 1.372  -01                                            1001200700059 
 7.98   +00 1.342  -01                                            1001200700060 
 8.01   +00 1.117  -01                                            1001200700061 
 8.04   +00 1.224  -01                                            1001200700062 
 8.06   +00 1.216  -01                                            1001200700063 
 8.09   +00 1.118  -01                                            1001200700064 
 8.12   +00 8.80   -02                                            1001200700065 
 8.15   +00 8.40   -02                                            1001200700066 
 8.18   +00 1.030  -01                                            1001200700067 
 8.21   +00 9.54   -02                                            1001200700068 
 8.24   +00 9.78   -02                                            1001200700069 
 8.27   +00 9.89   -02                                            1001200700070 
 8.30   +00 8.98   -02                                            1001200700071 
 8.33   +00 8.60   -02                                            1001200700072 
 8.36   +00 9.34   -02                                            1001200700073 
 8.39   +00 9.71   -02                                            1001200700074 
 8.42   +00 1.229  -01                                            1001200700075 
 8.45   +00 1.073  -01                                            1001200700076 
 8.48   +00 8.36   -02                                            1001200700077 
 8.51   +00 1.126  -01                                            1001200700078 
 8.54   +00 1.228  -01                                            1001200700079 
 8.57   +00 1.227  -01                                            1001200700080 
 8.60   +00 1.120  -01                                            1001200700081 
 8.63   +00 1.095  -01                                            1001200700082 
 8.66   +00 8.53   -02                                            1001200700083 
 8.69   +00 8.65   -02                                            1001200700084 
 8.72   +00 9.40   -02                                            1001200700085 
 8.75   +00 9.38   -02                                            1001200700086 
 8.78   +00 8.36   -02                                            1001200700087 
 8.81   +00 9.42   -02                                            1001200700088 
 8.84   +00 8.73   -02                                            1001200700089 
 8.87   +00 7.83   -02                                            1001200700090 
 8.90   +00 9.29   -02                                            1001200700091 
 8.93   +00 9.38   -02                                            1001200700092 
 8.96   +00 1.041  -01                                            1001200700093 
 8.99   +00 1.135  -01                                            1001200700094 
 9.02   +00 1.151  -01                                            1001200700095 
 9.04   +00 1.113  -01                                            1001200700096 
 9.07   +00 1.014  -01                                            1001200700097 
 9.10   +00 1.111  -01                                            1001200700098 
 9.13   +00 8.54   -02                                            1001200700099 
 9.16   +00 6.98   -02                                            1001200700100 
 9.19   +00 5.88   -02                                            1001200700101 
 9.22   +00 5.40   -02                                            1001200700102 
 9.25   +00 4.83   -02                                            1001200700103 
 9.28   +00 4.11   -02                                            1001200700104 
 9.31   +00 5.07   -02                                            1001200700105 
 9.34   +00 5.33   -02                                            1001200700106 
 9.37   +00 5.93   -02                                            1001200700107 
 9.40   +00 9.55   -02                                            1001200700108 
 9.43   +00 8.90   -02                                            1001200700109 
 9.46   +00 1.205  -01                                            1001200700110 
 9.49   +00 1.124  -01                                            1001200700111 
 9.52   +00 1.169  -01                                            1001200700112 
 9.55   +00 1.088  -01                                            1001200700113 
 9.58   +00 1.207  -01                                            1001200700114 
 9.61   +00 7.36   -02                                            1001200700115 
 9.64   +00 8.36   -02                                            1001200700116 
 9.67   +00 8.33   -02                                            1001200700117 
 9.70   +00 4.99   -02                                            1001200700118 
 9.73   +00 6.65   -02                                            1001200700119 
 9.76   +00 7.34   -02                                            1001200700120 
 9.78   +00 7.61   -02                                            1001200700121 
 9.81   +00 7.26   -02                                            1001200700122 
 9.84   +00 9.99   -02                                            1001200700123 
 9.87   +00 8.83   -02                                            1001200700124 
 9.90   +00 8.43   -02                                            1001200700125 
 9.93   +00 7.90   -02                                            1001200700126 
 9.96   +00 7.85   -02                                            1001200700127 
 9.99   +00 8.66   -02                                            1001200700128 
 1.002  +01 1.051  -01                                            1001200700129 
 1.005  +01 1.195  -01                                            1001200700130 
 1.009  +01 8.31   -02                                            1001200700131 
 1.010  +01 8.88   -02                                            1001200700132 
 1.013  +01 1.208  -01                                            1001200700133 
 1.016  +01 1.144  -01                                            1001200700134 
 1.019  +01 1.393  -01                                            1001200700135 
 1.022  +01 1.240  -01                                            1001200700136 
 1.025  +01 1.232  -01                                            1001200700137 
 1.028  +01 8.44   -02                                            1001200700138 
 1.030  +01 8.85   -02                                            1001200700139 
 1.033  +01 1.114  -01                                            1001200700140 
 1.036  +01 9.38   -02                                            1001200700141 
 1.039  +01 6.68   -02                                            1001200700142 
 1.042  +01 7.67   -02                                            1001200700143 
 1.045  +01 6.68   -02                                            1001200700144 
 1.048  +01 8.43   -02                                            1001200700145 
 1.051  +01 5.23   -02                                            1001200700146 
 1.054  +01 4.87   -02                                            1001200700147 
 1.057  +01 6.76   -02                                            1001200700148 
 1.060  +01 6.50   -02                                            1001200700149 
 1.063  +01 4.78   -02                                            1001200700150 
 1.066  +01 4.96   -02                                            1001200700151 
 1.069  +01 5.50   -02                                            1001200700152 
 1.072  +01 6.46   -02                                            1001200700153 
 1.075  +01 4.50   -02                                            1001200700154 
 1.078  +01 3.72   -02                                            1001200700155 
 1.080  +01 4.25   -02                                            1001200700156 
 1.083  +01 5.34   -02                                            1001200700157 
 1.086  +01 4.50   -02                                            1001200700158 
 1.089  +01 4.91   -02                                            1001200700159 
 1.092  +01 5.32   -02                                            1001200700160 
 1.095  +01 5.03   -02                                            1001200700161 
 1.098  +01 4.47   -02                                            1001200700162 
 1.101  +01 4.83   -02                                            1001200700163 
 1.104  +01 4.64   -02                                            1001200700164 
 1.106  +01 4.19   -02                                            1001200700165 
 1.109  +01 4.45   -02                                            1001200700166 
 1.112  +01 3.88   -02                                            1001200700167 
 1.115  +01 3.08   -02                                            1001200700168 
 1.118  +01 3.98   -02                                            1001200700169 
 1.121  +01 4.15   -02                                            1001200700170 
 1.124  +01 4.69   -02                                            1001200700171 
 1.127  +01 4.19   -02                                            1001200700172 
 1.130  +01 4.42   -02                                            1001200700173 
 1.133  +01 4.13   -02                                            1001200700174 
 1.136  +01 3.54   -02                                            1001200700175 
 1.139  +01 3.15   -02                                            1001200700176 
 1.142  +01 3.35   -02                                            1001200700177 
 1.145  +01 3.63   -02                                            1001200700178 
 1.148  +01 4.13   -02                                            1001200700179 
 1.151  +01 4.15   -02                                            1001200700180 
 1.154  +01 5.07   -02                                            1001200700181 
 1.157  +01 4.59   -02                                            1001200700182 
 1.160  +01 4.51   -02                                            1001200700183 
 1.163  +01 4.74   -02                                            1001200700184 
 1.166  +01 4.34   -02                                            1001200700185 
 1.169  +01 4.62   -02                                            1001200700186 
 1.172  +01 5.32   -02                                            1001200700187 
 1.174  +01 4.66   -02                                            1001200700188 
 1.177  +01 4.39   -02                                            1001200700189 
 1.180  +01 3.93   -02                                            1001200700190 
 1.183  +01 4.00   -02                                            1001200700191 
 1.186  +01 4.92   -02                                            1001200700192 
 1.189  +01 5.48   -02                                            1001200700193 
 1.191  +01 5.52   -02                                            1001200700194 
 1.194  +01 5.09   -02                                            1001200700195 
 1.197  +01 5.16   -02                                            1001200700196 
 1.200  +01 5.21   -02                                            1001200700197 
 1.203  +01 4.84   -02                                            1001200700198 
 1.206  +01 4.57   -02                                            1001200700199 
 1.209  +01 4.40   -02                                            1001200700200 
 1.211  +01 4.34   -02                                            1001200700201 
 1.214  +01 4.46   -02                                            1001200700202 
 1.217  +01 4.41   -02                                            1001200700203 
 1.220  +01 4.10   -02                                            1001200700204 
 1.223  +01 3.70   -02                                            1001200700205 
 1.226  +01 4.14   -02                                            1001200700206 
 1.229  +01 4.59   -02                                            1001200700207 
 1.231  +01 4.28   -02                                            1001200700208 
 1.234  +01 3.80   -02                                            1001200700209 
 1.237  +01 3.52   -02                                            1001200700210 
 1.240  +01 4.01   -02                                            1001200700211 
 1.243  +01 3.74   -02                                            1001200700212 
 1.246  +01 3.58   -02                                            1001200700213 
 1.249  +01 3.32   -02                                            1001200700214 
 1.252  +01 2.95   -02                                            1001200700215 
 1.255  +01 2.57   -02                                            1001200700216 
 1.258  +01 2.59   -02                                            1001200700217 
 1.261  +01 3.04   -02                                            1001200700218 
 1.264  +01 3.24   -02                                            1001200700219 
 1.267  +01 3.55   -02                                            1001200700220 
 1.270  +01 3.63   -02                                            1001200700221 
 1.272  +01 3.54   -02                                            1001200700222 
 1.275  +01 3.35   -02                                            1001200700223 
 1.278  +01 3.25   -02                                            1001200700224 
 1.281  +01 2.90   -02                                            1001200700225 
 1.284  +01 2.63   -02                                            1001200700226 
 1.287  +01 2.72   -02                                            1001200700227 
 1.289  +01 2.70   -02                                            1001200700228 
 1.292  +01 2.48   -02                                            1001200700229 
 1.295  +01 2.02   -02                                            1001200700230 
 1.298  +01 1.85   -02                                            1001200700231 
 1.301  +01 1.97   -02                                            1001200700232 
 1.304  +01 2.14   -02                                            1001200700233 
 1.307  +01 2.47   -02                                            1001200700234 
 1.310  +01 2.71   -02                                            1001200700235 
 1.313  +01 2.47   -02                                            1001200700236 
 1.315  +01 2.21   -02                                            1001200700237 
 1.318  +01 1.96   -02                                            1001200700238 
 1.321  +01 2.18   -02                                            1001200700239 
 1.324  +01 2.46   -02                                            1001200700240 
 1.327  +01 2.29   -02                                            1001200700241 
 1.330  +01 2.24   -02                                            1001200700242 
 1.332  +01 2.12   -02                                            1001200700243 
 1.335  +01 1.97   -02                                            1001200700244 
 1.338  +01 2.09   -02                                            1001200700245 
 1.341  +01 1.95   -02                                            1001200700246 
 1.344  +01 1.59   -02                                            1001200700247 
ENDDATA            235          0                                 1001200700248 
ENDSUBENT          247          0                                 1001200799999 
SUBENT        10012008   19990617                             00001001200800001 
BIB                  3          3                                 1001200800002 
REACTION   (14-SI-28(N,A)12-MG-25,PAR,SIG)                        1001200800003 
DETECTOR   (SOLST) Si surface barrier detector.                   1001200800004 
ERR-ANALYS Absolute data error given.                             1001200800005 
ENDBIB               3          0                                 1001200800006 
COMMON               2          3                                 1001200800007 
E-LVL      DATA-ERR                                               1001200800008 
MEV        PER-CENT                                               1001200800009 
 0.58       20.                                                   1001200800010 
ENDCOMMON            3          0                                 1001200800011 
DATA                 2        233                                 1001200800012 
EN         DATA                                                   1001200800013 
MEV        B                                                      1001200800014 
 6.64   +00 5.2    -03                                            1001200800015 
 6.67   +00 6.1    -03                                            1001200800016 
 6.70   +00 5.2    -03                                            1001200800017 
 6.73   +00 3.7    -03                                            1001200800018 
 6.76   +00 3.9    -03                                            1001200800019 
 6.79   +00 6.8    -03                                            1001200800020 
 6.82   +00 1.84   -02                                            1001200800021 
 6.85   +00 1.63   -02                                            1001200800022 
 6.88   +00 1.19   -02                                            1001200800023 
 6.91   +00 1.94   -02                                            1001200800024 
 6.94   +00 2.61   -02                                            1001200800025 
 6.97   +00 2.07   -02                                            1001200800026 
 7.00   +00 2.08   -02                                            1001200800027 
 7.03   +00 3.08   -02                                            1001200800028 
 7.05   +00 2.08   -02                                            1001200800029 
 7.08   +00 2.01   -02                                            1001200800030 
 7.11   +00 1.70   -02                                            1001200800031 
 7.14   +00 1.44   -02                                            1001200800032 
 7.17   +00 1.34   -02                                            1001200800033 
 7.20   +00 1.56   -02                                            1001200800034 
 7.23   +00 1.74   -02                                            1001200800035 
 7.26   +00 1.83   -02                                            1001200800036 
 7.29   +00 1.96   -02                                            1001200800037 
 7.32   +00 2.15   -02                                            1001200800038 
 7.35   +00 2.96   -02                                            1001200800039 
 7.38   +00 1.38   -02                                            1001200800040 
 7.41   +00 2.40   -02                                            1001200800041 
 7.44   +00 2.48   -02                                            1001200800042 
 7.47   +00 2.85   -02                                            1001200800043 
 7.50   +00 3.54   -02                                            1001200800044 
 7.53   +00 3.81   -02                                            1001200800045 
 7.56   +00 2.67   -02                                            1001200800046 
 7.59   +00 2.62   -02                                            1001200800047 
 7.62   +00 3.10   -02                                            1001200800048 
 7.65   +00 2.58   -02                                            1001200800049 
 7.68   +00 2.98   -02                                            1001200800050 
 7.71   +00 3.44   -02                                            1001200800051 
 7.74   +00 3.06   -02                                            1001200800052 
 7.77   +00 3.24   -02                                            1001200800053 
 7.80   +00 2.70   -02                                            1001200800054 
 7.83   +00 3.14   -02                                            1001200800055 
 7.86   +00 3.86   -02                                            1001200800056 
 7.89   +00 3.68   -02                                            1001200800057 
 7.92   +00 3.14   -02                                            1001200800058 
 7.95   +00 2.50   -02                                            1001200800059 
 7.98   +00 2.84   -02                                            1001200800060 
 8.01   +00 3.52   -02                                            1001200800061 
 8.04   +00 3.88   -02                                            1001200800062 
 8.06   +00 3.74   -02                                            1001200800063 
 8.09   +00 3.42   -02                                            1001200800064 
 8.12   +00 4.12   -02                                            1001200800065 
 8.15   +00 4.58   -02                                            1001200800066 
 8.18   +00 4.04   -02                                            1001200800067 
 8.21   +00 2.58   -02                                            1001200800068 
 8.24   +00 3.65   -02                                            1001200800069 
 8.27   +00 3.08   -02                                            1001200800070 
 8.30   +00 3.12   -02                                            1001200800071 
 8.33   +00 2.30   -02                                            1001200800072 
 8.36   +00 2.99   -02                                            1001200800073 
 8.39   +00 2.43   -02                                            1001200800074 
 8.42   +00 2.37   -02                                            1001200800075 
 8.45   +00 1.54   -02                                            1001200800076 
 8.48   +00 2.25   -02                                            1001200800077 
 8.51   +00 2.91   -02                                            1001200800078 
 8.54   +00 2.10   -02                                            1001200800079 
 8.57   +00 1.74   -02                                            1001200800080 
 8.60   +00 3.17   -02                                            1001200800081 
 8.63   +00 3.80   -02                                            1001200800082 
 8.66   +00 3.58   -02                                            1001200800083 
 8.69   +00 4.53   -02                                            1001200800084 
 8.72   +00 3.71   -02                                            1001200800085 
 8.75   +00 3.92   -02                                            1001200800086 
 8.78   +00 3.34   -02                                            1001200800087 
 8.81   +00 4.63   -02                                            1001200800088 
 8.84   +00 3.23   -02                                            1001200800089 
 8.87   +00 2.28   -02                                            1001200800090 
 8.90   +00 2.46   -02                                            1001200800091 
 8.93   +00 2.22   -02                                            1001200800092 
 8.96   +00 1.99   -02                                            1001200800093 
 8.99   +00 2.02   -02                                            1001200800094 
 9.02   +00 2.44   -02                                            1001200800095 
 9.04   +00 2.86   -02                                            1001200800096 
 9.07   +00 2.27   -02                                            1001200800097 
 9.10   +00 2.61   -02                                            1001200800098 
 9.13   +00 3.44   -02                                            1001200800099 
 9.16   +00 4.06   -02                                            1001200800100 
 9.19   +00 4.42   -02                                            1001200800101 
 9.22   +00 4.19   -02                                            1001200800102 
 9.25   +00 3.78   -02                                            1001200800103 
 9.28   +00 2.93   -02                                            1001200800104 
 9.31   +00 4.54   -02                                            1001200800105 
 9.34   +00 4.29   -02                                            1001200800106 
 9.37   +00 4.47   -02                                            1001200800107 
 9.40   +00 4.05   -02                                            1001200800108 
 9.43   +00 3.25   -02                                            1001200800109 
 9.46   +00 2.32   -02                                            1001200800110 
 9.49   +00 2.87   -02                                            1001200800111 
 9.52   +00 3.16   -02                                            1001200800112 
 9.55   +00 3.02   -02                                            1001200800113 
 9.58   +00 2.25   -02                                            1001200800114 
 9.61   +00 2.66   -02                                            1001200800115 
 9.64   +00 2.16   -02                                            1001200800116 
 9.67   +00 2.28   -02                                            1001200800117 
 9.70   +00 1.79   -02                                            1001200800118 
 9.73   +00 1.42   -02                                            1001200800119 
 9.76   +00 2.21   -02                                            1001200800120 
 9.78   +00 2.01   -02                                            1001200800121 
 9.81   +00 2.78   -02                                            1001200800122 
 9.84   +00 4.40   -02                                            1001200800123 
 9.87   +00 6.30   -02                                            1001200800124 
 9.90   +00 5.57   -02                                            1001200800125 
 9.93   +00 5.65   -02                                            1001200800126 
 9.96   +00 4.47   -02                                            1001200800127 
 9.99   +00 2.47   -02                                            1001200800128 
 1.002  +01 2.75   -02                                            1001200800129 
 1.005  +01 2.75   -02                                            1001200800130 
 1.007  +01 2.46   -02                                            1001200800131 
 1.010  +01 2.70   -02                                            1001200800132 
 1.013  +01 2.59   -02                                            1001200800133 
 1.016  +01 3.37   -02                                            1001200800134 
 1.019  +01 3.06   -02                                            1001200800135 
 1.022  +01 2.77   -02                                            1001200800136 
 1.025  +01 2.50   -02                                            1001200800137 
 1.028  +01 2.63   -02                                            1001200800138 
 1.030  +01 3.73   -02                                            1001200800139 
 1.033  +01 4.77   -02                                            1001200800140 
 1.036  +01 3.24   -02                                            1001200800141 
 1.039  +01 4.63   -02                                            1001200800142 
 1.042  +01 2.79   -02                                            1001200800143 
 1.045  +01 2.63   -02                                            1001200800144 
 1.048  +01 2.80   -02                                            1001200800145 
 1.051  +01 1.91   -02                                            1001200800146 
 1.054  +01 2.67   -02                                            1001200800147 
 1.057  +01 3.77   -02                                            1001200800148 
 1.060  +01 3.98   -02                                            1001200800149 
 1.063  +01 4.23   -02                                            1001200800150 
 1.066  +01 3.11   -02                                            1001200800151 
 1.069  +01 1.64   -02                                            1001200800152 
 1.072  +01 2.00   -02                                            1001200800153 
 1.075  +01 3.47   -02                                            1001200800154 
 1.078  +01 2.96   -02                                            1001200800155 
 1.080  +01 3.06   -02                                            1001200800156 
 1.083  +01 3.21   -02                                            1001200800157 
 1.086  +01 2.21   -02                                            1001200800158 
 1.089  +01 2.09   -02                                            1001200800159 
 1.092  +01 2.39   -02                                            1001200800160 
 1.095  +01 2.20   -02                                            1001200800161 
 1.098  +01 2.22   -02                                            1001200800162 
 1.101  +01 1.98   -02                                            1001200800163 
 1.104  +01 1.77   -02                                            1001200800164 
 1.106  +01 1.65   -02                                            1001200800165 
 1.109  +01 1.32   -02                                            1001200800166 
 1.112  +01 1.55   -02                                            1001200800167 
 1.115  +01 1.18   -02                                            1001200800168 
 1.118  +01 9.7    -03                                            1001200800169 
 1.121  +01 7.9    -03                                            1001200800170 
 1.124  +01 1.00   -02                                            1001200800171 
 1.127  +01 1.48   -02                                            1001200800172 
 1.130  +01 1.87   -02                                            1001200800173 
 1.133  +01 3.12   -02                                            1001200800174 
 1.136  +01 2.30   -02                                            1001200800175 
 1.139  +01 3.61   -02                                            1001200800176 
 1.142  +01 4.25   -02                                            1001200800177 
 1.145  +01 4.57   -02                                            1001200800178 
 1.148  +01 3.33   -02                                            1001200800179 
 1.151  +01 2.53   -02                                            1001200800180 
 1.154  +01 1.34   -02                                            1001200800181 
 1.157  +01 1.26   -02                                            1001200800182 
 1.160  +01 5.3    -03                                            1001200800183 
 1.163  +01 7.8    -03                                            1001200800184 
 1.166  +01 7.0    -03                                            1001200800185 
 1.169  +01 7.2    -03                                            1001200800186 
 1.172  +01 3.7    -03                                            1001200800187 
 1.174  +01 4.3    -03                                            1001200800188 
 1.177  +01 4.8    -03                                            1001200800189 
 1.180  +01 7.7    -03                                            1001200800190 
 1.183  +01 9.1    -03                                            1001200800191 
 1.186  +01 6.4    -03                                            1001200800192 
 1.189  +01 1.01   -02                                            1001200800193 
 1.191  +01 8.5    -03                                            1001200800194 
 1.194  +01 1.17   -02                                            1001200800195 
 1.197  +01 1.25   -02                                            1001200800196 
 1.200  +01 9.4    -03                                            1001200800197 
 1.203  +01 9.2    -03                                            1001200800198 
 1.206  +01 7.5    -03                                            1001200800199 
 1.209  +01 1.51   -02                                            1001200800200 
 1.211  +01 1.75   -02                                            1001200800201 
 1.214  +01 1.55   -02                                            1001200800202 
 1.217  +01 1.59   -02                                            1001200800203 
 1.220  +01 1.44   -02                                            1001200800204 
 1.223  +01 1.34   -02                                            1001200800205 
 1.226  +01 1.12   -02                                            1001200800206 
 1.229  +01 1.26   -02                                            1001200800207 
 1.231  +01 8.6    -03                                            1001200800208 
 1.234  +01 1.02   -02                                            1001200800209 
 1.237  +01 6.1    -03                                            1001200800210 
 1.240  +01 6.2    -03                                            1001200800211 
 1.243  +01 7.9    -03                                            1001200800212 
 1.246  +01 5.7    -03                                            1001200800213 
 1.249  +01 4.2    -03                                            1001200800214 
 1.252  +01 5.9    -03                                            1001200800215 
 1.255  +01 5.4    -03                                            1001200800216 
 1.258  +01 3.9    -03                                            1001200800217 
 1.261  +01 5.5    -03                                            1001200800218 
 1.264  +01 5.2    -03                                            1001200800219 
 1.267  +01 6.0    -03                                            1001200800220 
 1.270  +01 8.4    -03                                            1001200800221 
 1.272  +01 8.5    -03                                            1001200800222 
 1.275  +01 1.00   -02                                            1001200800223 
 1.278  +01 1.01   -02                                            1001200800224 
 1.281  +01 6.4    -03                                            1001200800225 
 1.284  +01 5.9    -03                                            1001200800226 
 1.287  +01 7.3    -03                                            1001200800227 
 1.289  +01 4.7    -03                                            1001200800228 
 1.292  +01 5.3    -03                                            1001200800229 
 1.295  +01 5.6    -03                                            1001200800230 
 1.298  +01 5.9    -03                                            1001200800231 
 1.301  +01 5.0    -03                                            1001200800232 
 1.304  +01 6.3    -03                                            1001200800233 
 1.307  +01 3.7    -03                                            1001200800234 
 1.310  +01 5.2    -03                                            1001200800235 
 1.313  +01 3.7    -03                                            1001200800236 
 1.315  +01 4.9    -03                                            1001200800237 
 1.318  +01 3.9    -03                                            1001200800238 
 1.321  +01 5.9    -03                                            1001200800239 
 1.324  +01 4.7    -03                                            1001200800240 
 1.327  +01 3.0    -03                                            1001200800241 
 1.330  +01 3.0    -03                                            1001200800242 
 1.332  +01 4.1    -03                                            1001200800243 
 1.335  +01 3.5    -03                                            1001200800244 
 1.338  +01 6.0    -03                                            1001200800245 
 1.341  +01 7.0    -03                                            1001200800246 
 1.344  +01 5.1    -03                                            1001200800247 
ENDDATA            235          0                                 1001200800248 
ENDSUBENT          247          0                                 1001200899999 
SUBENT        10012009   19990617                             00001001200900001 
BIB                  3          3                                 1001200900002 
REACTION   (14-SI-28(N,A)12-MG-25,PAR,SIG)                        1001200900003 
DETECTOR   (SOLST) Si surface barrier detector.                   1001200900004 
ERR-ANALYS Absolute data error given.                             1001200900005 
ENDBIB               3          0                                 1001200900006 
COMMON               2          3                                 1001200900007 
E-LVL      DATA-ERR                                               1001200900008 
MEV        PER-CENT                                               1001200900009 
 0.96       20.                                                   1001200900010 
ENDCOMMON            3          0                                 1001200900011 
DATA                 2        233                                 1001200900012 
EN         DATA                                                   1001200900013 
MEV        B                                                      1001200900014 
 6.64   +00 5.1    -03                                            1001200900015 
 6.67   +00 3.9    -03                                            1001200900016 
 6.70   +00 4.3    -03                                            1001200900017 
 6.73   +00 3.6    -03                                            1001200900018 
 6.76   +00 4.4    -03                                            1001200900019 
 6.79   +00 6.7    -03                                            1001200900020 
 6.82   +00 1.32   -02                                            1001200900021 
 6.85   +00 2.00   -02                                            1001200900022 
 6.88   +00 1.15   -02                                            1001200900023 
 6.91   +00 9.2    -03                                            1001200900024 
 6.94   +00 5.8    -03                                            1001200900025 
 6.97   +00 6.9    -03                                            1001200900026 
 7.00   +00 8.8    -03                                            1001200900027 
 7.03   +00 1.22   -02                                            1001200900028 
 7.05   +00 9.6    -03                                            1001200900029 
 7.08   +00 7.3    -03                                            1001200900030 
 7.11   +00 8.1    -03                                            1001200900031 
 7.14   +00 1.16   -02                                            1001200900032 
 7.17   +00 6.6    -03                                            1001200900033 
 7.20   +00 5.5    -03                                            1001200900034 
 7.23   +00 1.73   -02                                            1001200900035 
 7.26   +00 1.02   -02                                            1001200900036 
 7.29   +00 1.79   -02                                            1001200900037 
 7.32   +00 1.83   -02                                            1001200900038 
 7.35   +00 2.66   -02                                            1001200900039 
 7.38   +00 2.45   -02                                            1001200900040 
 7.41   +00 2.16   -02                                            1001200900041 
 7.44   +00 1.36   -02                                            1001200900042 
 7.47   +00 1.89   -02                                            1001200900043 
 7.50   +00 1.66   -02                                            1001200900044 
 7.53   +00 1.43   -02                                            1001200900045 
 7.56   +00 1.25   -02                                            1001200900046 
 7.59   +00 2.09   -02                                            1001200900047 
 7.62   +00 1.75   -02                                            1001200900048 
 7.65   +00 1.25   -02                                            1001200900049 
 7.68   +00 1.47   -02                                            1001200900050 
 7.71   +00 1.50   -02                                            1001200900051 
 7.74   +00 3.01   -02                                            1001200900052 
 7.77   +00 2.76   -02                                            1001200900053 
 7.80   +00 3.85   -02                                            1001200900054 
 7.83   +00 3.02   -02                                            1001200900055 
 7.86   +00 3.71   -02                                            1001200900056 
 7.89   +00 3.66   -02                                            1001200900057 
 7.92   +00 2.39   -02                                            1001200900058 
 7.95   +00 2.42   -02                                            1001200900059 
 7.98   +00 1.62   -02                                            1001200900060 
 8.01   +00 2.96   -02                                            1001200900061 
 8.04   +00 2.77   -02                                            1001200900062 
 8.06   +00 1.97   -02                                            1001200900063 
 8.09   +00 1.05   -02                                            1001200900064 
 8.12   +00 1.32   -02                                            1001200900065 
 8.15   +00 1.82   -02                                            1001200900066 
 8.18   +00 1.24   -02                                            1001200900067 
 8.21   +00 1.46   -02                                            1001200900068 
 8.24   +00 3.12   -02                                            1001200900069 
 8.27   +00 3.73   -02                                            1001200900070 
 8.30   +00 3.12   -02                                            1001200900071 
 8.33   +00 3.06   -02                                            1001200900072 
 8.36   +00 3.38   -02                                            1001200900073 
 8.39   +00 5.01   -02                                            1001200900074 
 8.42   +00 4.90   -02                                            1001200900075 
 8.45   +00 5.00   -02                                            1001200900076 
 8.48   +00 4.38   -02                                            1001200900077 
 8.51   +00 4.05   -02                                            1001200900078 
 8.54   +00 3.98   -02                                            1001200900079 
 8.57   +00 3.21   -02                                            1001200900080 
 8.60   +00 2.92   -02                                            1001200900081 
 8.63   +00 3.60   -02                                            1001200900082 
 8.66   +00 4.15   -02                                            1001200900083 
 8.69   +00 3.58   -02                                            1001200900084 
 8.72   +00 4.68   -02                                            1001200900085 
 8.75   +00 4.37   -02                                            1001200900086 
 8.78   +00 3.37   -02                                            1001200900087 
 8.81   +00 2.85   -02                                            1001200900088 
 8.84   +00 2.49   -02                                            1001200900089 
 8.87   +00 2.25   -02                                            1001200900090 
 8.90   +00 2.31   -02                                            1001200900091 
 8.93   +00 3.00   -02                                            1001200900092 
 8.96   +00 3.77   -02                                            1001200900093 
 8.99   +00 4.01   -02                                            1001200900094 
 9.02   +00 3.92   -02                                            1001200900095 
 9.04   +00 3.97   -02                                            1001200900096 
 9.07   +00 3.59   -02                                            1001200900097 
 9.10   +00 3.39   -02                                            1001200900098 
 9.13   +00 2.62   -02                                            1001200900099 
 9.16   +00 2.77   -02                                            1001200900100 
 9.19   +00 2.91   -02                                            1001200900101 
 9.22   +00 2.62   -02                                            1001200900102 
 9.25   +00 2.82   -02                                            1001200900103 
 9.28   +00 3.27   -02                                            1001200900104 
 9.31   +00 3.38   -02                                            1001200900105 
 9.34   +00 4.26   -02                                            1001200900106 
 9.37   +00 3.64   -02                                            1001200900107 
 9.40   +00 4.34   -02                                            1001200900108 
 9.43   +00 5.78   -02                                            1001200900109 
 9.46   +00 5.78   -02                                            1001200900110 
 9.49   +00 4.23   -02                                            1001200900111 
 9.52   +00 3.51   -02                                            1001200900112 
 9.55   +00 3.24   -02                                            1001200900113 
 9.58   +00 2.77   -02                                            1001200900114 
 9.61   +00 3.53   -02                                            1001200900115 
 9.64   +00 4.20   -02                                            1001200900116 
 9.67   +00 3.35   -02                                            1001200900117 
 9.70   +00 4.66   -02                                            1001200900118 
 9.73   +00 5.54   -02                                            1001200900119 
 9.76   +00 5.69   -02                                            1001200900120 
 9.78   +00 4.54   -02                                            1001200900121 
 9.81   +00 3.77   -02                                            1001200900122 
 9.84   +00 3.51   -02                                            1001200900123 
 9.87   +00 3.10   -02                                            1001200900124 
 9.90   +00 2.82   -02                                            1001200900125 
 9.93   +00 2.69   -02                                            1001200900126 
 9.96   +00 3.12   -02                                            1001200900127 
 9.99   +00 4.84   -02                                            1001200900128 
 1.002  +01 4.76   -02                                            1001200900129 
 1.005  +01 2.91   -02                                            1001200900130 
 1.007  +01 3.02   -02                                            1001200900131 
 1.010  +01 2.45   -02                                            1001200900132 
 1.013  +01 2.69   -02                                            1001200900133 
 1.016  +01 2.78   -02                                            1001200900134 
 1.019  +01 2.87   -02                                            1001200900135 
 1.022  +01 2.77   -02                                            1001200900136 
 1.025  +01 3.29   -02                                            1001200900137 
 1.028  +01 3.56   -02                                            1001200900138 
 1.030  +01 3.20   -02                                            1001200900139 
 1.033  +01 4.19   -02                                            1001200900140 
 1.036  +01 4.29   -02                                            1001200900141 
 1.039  +01 3.76   -02                                            1001200900142 
 1.042  +01 3.78   -02                                            1001200900143 
 1.045  +01 3.14   -02                                            1001200900144 
 1.048  +01 3.08   -02                                            1001200900145 
 1.051  +01 3.18   -02                                            1001200900146 
 1.054  +01 2.79   -02                                            1001200900147 
 1.057  +01 2.70   -02                                            1001200900148 
 1.060  +01 2.22   -02                                            1001200900149 
 1.063  +01 2.42   -02                                            1001200900150 
 1.066  +01 2.95   -02                                            1001200900151 
 1.069  +01 3.15   -02                                            1001200900152 
 1.072  +01 2.50   -02                                            1001200900153 
 1.075  +01 3.53   -02                                            1001200900154 
 1.078  +01 3.61   -02                                            1001200900155 
 1.080  +01 3.25   -02                                            1001200900156 
 1.083  +01 3.66   -02                                            1001200900157 
 1.086  +01 3.63   -02                                            1001200900158 
 1.089  +01 3.15   -02                                            1001200900159 
 1.092  +01 3.04   -02                                            1001200900160 
 1.095  +01 2.75   -02                                            1001200900161 
 1.098  +01 2.67   -02                                            1001200900162 
 1.101  +01 2.55   -02                                            1001200900163 
 1.104  +01 2.55   -02                                            1001200900164 
 1.106  +01 2.09   -02                                            1001200900165 
 1.109  +01 2.51   -02                                            1001200900166 
 1.112  +01 2.34   -02                                            1001200900167 
 1.115  +01 1.88   -02                                            1001200900168 
 1.118  +01 1.77   -02                                            1001200900169 
 1.121  +01 1.86   -02                                            1001200900170 
 1.124  +01 2.13   -02                                            1001200900171 
 1.127  +01 1.83   -02                                            1001200900172 
 1.130  +01 1.89   -02                                            1001200900173 
 1.133  +01 1.32   -02                                            1001200900174 
 1.136  +01 1.93   -02                                            1001200900175 
 1.139  +01 2.39   -02                                            1001200900176 
 1.142  +01 3.07   -02                                            1001200900177 
 1.145  +01 3.30   -02                                            1001200900178 
 1.148  +01 2.25   -02                                            1001200900179 
 1.151  +01 1.64   -02                                            1001200900180 
 1.154  +01 1.31   -02                                            1001200900181 
 1.157  +01 1.23   -02                                            1001200900182 
 1.160  +01 1.21   -02                                            1001200900183 
 1.163  +01 1.34   -02                                            1001200900184 
 1.166  +01 1.52   -02                                            1001200900185 
 1.169  +01 2.04   -02                                            1001200900186 
 1.172  +01 2.21   -02                                            1001200900187 
 1.174  +01 1.78   -02                                            1001200900188 
 1.177  +01 1.60   -02                                            1001200900189 
 1.180  +01 2.16   -02                                            1001200900190 
 1.183  +01 2.33   -02                                            1001200900191 
 1.186  +01 2.21   -02                                            1001200900192 
 1.189  +01 1.87   -02                                            1001200900193 
 1.191  +01 1.58   -02                                            1001200900194 
 1.194  +01 1.13   -02                                            1001200900195 
 1.197  +01 1.23   -02                                            1001200900196 
 1.200  +01 1.10   -02                                            1001200900197 
 1.203  +01 1.42   -02                                            1001200900198 
 1.206  +01 1.53   -02                                            1001200900199 
 1.209  +01 1.32   -02                                            1001200900200 
 1.211  +01 1.60   -02                                            1001200900201 
 1.214  +01 2.13   -02                                            1001200900202 
 1.217  +01 2.34   -02                                            1001200900203 
 1.220  +01 2.08   -02                                            1001200900204 
 1.223  +01 1.81   -02                                            1001200900205 
 1.226  +01 1.72   -02                                            1001200900206 
 1.229  +01 1.68   -02                                            1001200900207 
 1.231  +01 1.48   -02                                            1001200900208 
 1.234  +01 1.21   -02                                            1001200900209 
 1.237  +01 1.35   -02                                            1001200900210 
 1.240  +01 1.02   -02                                            1001200900211 
 1.243  +01 8.9    -03                                            1001200900212 
 1.246  +01 8.9    -03                                            1001200900213 
 1.249  +01 9.5    -03                                            1001200900214 
 1.252  +01 1.09   -02                                            1001200900215 
 1.255  +01 1.18   -02                                            1001200900216 
 1.258  +01 1.20   -02                                            1001200900217 
 1.261  +01 9.4    -03                                            1001200900218 
 1.264  +01 1.04   -02                                            1001200900219 
 1.267  +01 1.11   -02                                            1001200900220 
 1.270  +01 1.03   -02                                            1001200900221 
 1.272  +01 1.06   -02                                            1001200900222 
 1.275  +01 8.3    -03                                            1001200900223 
 1.278  +01 7.8    -03                                            1001200900224 
 1.281  +01 9.3    -03                                            1001200900225 
 1.284  +01 1.16   -02                                            1001200900226 
 1.287  +01 1.40   -02                                            1001200900227 
 1.289  +01 1.24   -02                                            1001200900228 
 1.292  +01 1.21   -02                                            1001200900229 
 1.295  +01 1.13   -02                                            1001200900230 
 1.298  +01 7.8    -03                                            1001200900231 
 1.301  +01 9.8    -03                                            1001200900232 
 1.304  +01 7.3    -03                                            1001200900233 
 1.307  +01 7.9    -03                                            1001200900234 
 1.310  +01 8.4    -03                                            1001200900235 
 1.313  +01 8.8    -03                                            1001200900236 
 1.315  +01 8.0    -03                                            1001200900237 
 1.318  +01 1.11   -02                                            1001200900238 
 1.321  +01 1.01   -02                                            1001200900239 
 1.324  +01 1.17   -02                                            1001200900240 
 1.327  +01 8.1    -03                                            1001200900241 
 1.330  +01 8.5    -03                                            1001200900242 
 1.332  +01 9.0    -03                                            1001200900243 
 1.335  +01 8.9    -03                                            1001200900244 
 1.338  +01 8.7    -03                                            1001200900245 
 1.341  +01 5.3    -03                                            1001200900246 
 1.344  +01 5.7    -03                                            1001200900247 
ENDDATA            235          0                                 1001200900248 
ENDSUBENT          247          0                                 1001200999999 
SUBENT        10012010   19990617                             00001001201000001 
BIB                  3          3                                 1001201000002 
REACTION   (14-SI-28(N,A)12-MG-25,PAR,SIG)                        1001201000003 
DETECTOR   (SOLST) Si surface barrier detector.                   1001201000004 
ERR-ANALYS Absolute data error given.                             1001201000005 
ENDBIB               3          0                                 1001201000006 
COMMON               2          3                                 1001201000007 
E-LVL      DATA-ERR                                               1001201000008 
MEV        PER-CENT                                               1001201000009 
 1.61       20.                                                   1001201000010 
ENDCOMMON            3          0                                 1001201000011 
DATA                 2        213                                 1001201000012 
EN         DATA                                                   1001201000013 
MEV        B                                                      1001201000014 
 7.17   +00 1.1    -03                                            1001201000015 
 7.26   +00 1.3    -03                                            1001201000016 
 7.29   +00 2.1    -03                                            1001201000017 
 7.32   +00 4.2    -03                                            1001201000018 
 7.35   +00 3.1    -03                                            1001201000019 
 7.38   +00 1.14   -02                                            1001201000020 
 7.41   +00 8.7    -03                                            1001201000021 
 7.44   +00 1.22   -02                                            1001201000022 
 7.47   +00 6.3    -03                                            1001201000023 
 7.50   +00 5.3    -03                                            1001201000024 
 7.53   +00 5.2    -03                                            1001201000025 
 7.56   +00 3.7    -03                                            1001201000026 
 7.59   +00 1.18   -02                                            1001201000027 
 7.62   +00 1.24   -02                                            1001201000028 
 7.65   +00 1.79   -02                                            1001201000029 
 7.68   +00 8.0    -03                                            1001201000030 
 7.71   +00 1.06   -02                                            1001201000031 
 7.74   +00 8.0    -03                                            1001201000032 
 7.77   +00 1.91   -02                                            1001201000033 
 7.80   +00 7.9    -03                                            1001201000034 
 7.83   +00 1.67   -02                                            1001201000035 
 7.86   +00 1.99   -02                                            1001201000036 
 7.89   +00 2.26   -02                                            1001201000037 
 7.92   +00 1.81   -02                                            1001201000038 
 7.95   +00 3.14   -02                                            1001201000039 
 7.98   +00 1.87   -02                                            1001201000040 
 8.01   +00 1.91   -02                                            1001201000041 
 8.04   +00 2.00   -02                                            1001201000042 
 8.06   +00 2.14   -02                                            1001201000043 
 8.09   +00 1.99   -02                                            1001201000044 
 8.12   +00 2.16   -02                                            1001201000045 
 8.15   +00 1.63   -02                                            1001201000046 
 8.18   +00 1.94   -02                                            1001201000047 
 8.21   +00 2.10   -02                                            1001201000048 
 8.24   +00 1.27   -02                                            1001201000049 
 8.27   +00 1.75   -02                                            1001201000050 
 8.30   +00 1.12   -02                                            1001201000051 
 8.33   +00 1.56   -02                                            1001201000052 
 8.36   +00 1.74   -02                                            1001201000053 
 8.39   +00 2.25   -02                                            1001201000054 
 8.42   +00 1.52   -02                                            1001201000055 
 8.45   +00 1.41   -02                                            1001201000056 
 8.48   +00 1.94   -02                                            1001201000057 
 8.51   +00 1.22   -02                                            1001201000058 
 8.54   +00 1.92   -02                                            1001201000059 
 8.57   +00 2.60   -02                                            1001201000060 
 8.60   +00 2.46   -02                                            1001201000061 
 8.63   +00 2.67   -02                                            1001201000062 
 8.66   +00 2.08   -02                                            1001201000063 
 8.69   +00 2.19   -02                                            1001201000064 
 8.72   +00 2.58   -02                                            1001201000065 
 8.75   +00 2.28   -02                                            1001201000066 
 8.78   +00 1.64   -02                                            1001201000067 
 8.81   +00 1.28   -02                                            1001201000068 
 8.84   +00 2.75   -02                                            1001201000069 
 8.87   +00 2.13   -02                                            1001201000070 
 8.90   +00 2.79   -02                                            1001201000071 
 8.93   +00 2.20   -02                                            1001201000072 
 8.96   +00 2.25   -02                                            1001201000073 
 8.99   +00 1.84   -02                                            1001201000074 
 9.02   +00 2.85   -02                                            1001201000075 
 9.04   +00 3.33   -02                                            1001201000076 
 9.07   +00 3.39   -02                                            1001201000077 
 9.10   +00 2.82   -02                                            1001201000078 
 9.13   +00 2.90   -02                                            1001201000079 
 9.16   +00 2.43   -02                                            1001201000080 
 9.19   +00 1.84   -02                                            1001201000081 
 9.22   +00 3.00   -02                                            1001201000082 
 9.25   +00 3.08   -02                                            1001201000083 
 9.28   +00 2.86   -02                                            1001201000084 
 9.31   +00 3.85   -02                                            1001201000085 
 9.34   +00 3.52   -02                                            1001201000086 
 9.37   +00 3.70   -02                                            1001201000087 
 9.40   +00 3.47   -02                                            1001201000088 
 9.43   +00 4.02   -02                                            1001201000089 
 9.46   +00 5.27   -02                                            1001201000090 
 9.49   +00 4.23   -02                                            1001201000091 
 9.52   +00 6.28   -02                                            1001201000092 
 9.55   +00 4.86   -02                                            1001201000093 
 9.58   +00 5.73   -02                                            1001201000094 
 9.61   +00 4.37   -02                                            1001201000095 
 9.64   +00 4.14   -02                                            1001201000096 
 9.67   +00 3.29   -02                                            1001201000097 
 9.70   +00 5.08   -02                                            1001201000098 
 9.73   +00 4.58   -02                                            1001201000099 
 9.76   +00 4.04   -02                                            1001201000100 
 9.78   +00 3.79   -02                                            1001201000101 
 9.81   +00 2.76   -02                                            1001201000102 
 9.84   +00 4.33   -02                                            1001201000103 
 9.87   +00 5.37   -02                                            1001201000104 
 9.90   +00 4.72   -02                                            1001201000105 
 9.93   +00 2.78   -02                                            1001201000106 
 9.96   +00 3.92   -02                                            1001201000107 
 9.99   +00 3.97   -02                                            1001201000108 
 1.002  +01 4.44   -02                                            1001201000109 
 1.005  +01 4.28   -02                                            1001201000110 
 1.007  +01 5.29   -02                                            1001201000111 
 1.010  +01 4.93   -02                                            1001201000112 
 1.013  +01 4.42   -02                                            1001201000113 
 1.016  +01 4.26   -02                                            1001201000114 
 1.019  +01 3.19   -02                                            1001201000115 
 1.022  +01 4.39   -02                                            1001201000116 
 1.025  +01 5.09   -02                                            1001201000117 
 1.028  +01 4.66   -02                                            1001201000118 
 1.030  +01 5.83   -02                                            1001201000119 
 1.033  +01 7.26   -02                                            1001201000120 
 1.036  +01 3.52   -02                                            1001201000121 
 1.039  +01 3.28   -02                                            1001201000122 
 1.042  +01 2.75   -02                                            1001201000123 
 1.045  +01 3.38   -02                                            1001201000124 
 1.048  +01 5.05   -02                                            1001201000125 
 1.051  +01 4.63   -02                                            1001201000126 
 1.054  +01 5.29   -02                                            1001201000127 
 1.057  +01 6.62   -02                                            1001201000128 
 1.060  +01 5.37   -02                                            1001201000129 
 1.063  +01 4.83   -02                                            1001201000130 
 1.066  +01 3.28   -02                                            1001201000131 
 1.069  +01 3.65   -02                                            1001201000132 
 1.072  +01 4.18   -02                                            1001201000133 
 1.075  +01 4.21   -02                                            1001201000134 
 1.078  +01 4.51   -02                                            1001201000135 
 1.080  +01 4.66   -02                                            1001201000136 
 1.083  +01 4.22   -02                                            1001201000137 
 1.086  +01 4.71   -02                                            1001201000138 
 1.089  +01 4.35   -02                                            1001201000139 
 1.092  +01 3.96   -02                                            1001201000140 
 1.095  +01 2.95   -02                                            1001201000141 
 1.098  +01 2.48   -02                                            1001201000142 
 1.101  +01 2.18   -02                                            1001201000143 
 1.104  +01 1.68   -02                                            1001201000144 
 1.106  +01 1.94   -02                                            1001201000145 
 1.109  +01 2.58   -02                                            1001201000146 
 1.112  +01 3.36   -02                                            1001201000147 
 1.115  +01 3.14   -02                                            1001201000148 
 1.118  +01 3.72   -02                                            1001201000149 
 1.121  +01 3.56   -02                                            1001201000150 
 1.124  +01 2.86   -02                                            1001201000151 
 1.127  +01 2.14   -02                                            1001201000152 
 1.130  +01 2.71   -02                                            1001201000153 
 1.133  +01 5.16   -02                                            1001201000154 
 1.136  +01 6.00   -02                                            1001201000155 
 1.139  +01 5.49   -02                                            1001201000156 
 1.142  +01 3.03   -02                                            1001201000157 
 1.145  +01 2.82   -02                                            1001201000158 
 1.148  +01 3.77   -02                                            1001201000159 
 1.151  +01 3.65   -02                                            1001201000160 
 1.154  +01 3.14   -02                                            1001201000161 
 1.157  +01 2.88   -02                                            1001201000162 
 1.160  +01 2.43   -02                                            1001201000163 
 1.163  +01 2.82   -02                                            1001201000164 
 1.166  +01 2.47   -02                                            1001201000165 
 1.169  +01 1.79   -02                                            1001201000166 
 1.172  +01 1.90   -02                                            1001201000167 
 1.174  +01 2.74   -02                                            1001201000168 
 1.177  +01 3.32   -02                                            1001201000169 
 1.180  +01 2.43   -02                                            1001201000170 
 1.183  +01 2.02   -02                                            1001201000171 
 1.186  +01 1.89   -02                                            1001201000172 
 1.189  +01 2.22   -02                                            1001201000173 
 1.191  +01 1.84   -02                                            1001201000174 
 1.194  +01 1.48   -02                                            1001201000175 
 1.197  +01 1.52   -02                                            1001201000176 
 1.200  +01 2.50   -02                                            1001201000177 
 1.203  +01 2.92   -02                                            1001201000178 
 1.206  +01 1.46   -02                                            1001201000179 
 1.209  +01 1.36   -02                                            1001201000180 
 1.211  +01 1.82   -02                                            1001201000181 
 1.214  +01 2.41   -02                                            1001201000182 
 1.217  +01 3.20   -02                                            1001201000183 
 1.220  +01 2.78   -02                                            1001201000184 
 1.223  +01 2.20   -02                                            1001201000185 
 1.226  +01 1.87   -02                                            1001201000186 
 1.229  +01 2.12   -02                                            1001201000187 
 1.231  +01 2.13   -02                                            1001201000188 
 1.234  +01 2.87   -02                                            1001201000189 
 1.237  +01 2.45   -02                                            1001201000190 
 1.240  +01 2.08   -02                                            1001201000191 
 1.243  +01 2.58   -02                                            1001201000192 
 1.246  +01 1.38   -02                                            1001201000193 
 1.249  +01 1.25   -02                                            1001201000194 
 1.252  +01 1.39   -02                                            1001201000195 
 1.255  +01 1.62   -02                                            1001201000196 
 1.258  +01 2.04   -02                                            1001201000197 
 1.261  +01 1.85   -02                                            1001201000198 
 1.264  +01 1.48   -02                                            1001201000199 
 1.267  +01 1.59   -02                                            1001201000200 
 1.270  +01 1.21   -02                                            1001201000201 
 1.272  +01 1.56   -02                                            1001201000202 
 1.275  +01 1.40   -02                                            1001201000203 
 1.278  +01 1.78   -02                                            1001201000204 
 1.281  +01 1.45   -02                                            1001201000205 
 1.284  +01 2.28   -02                                            1001201000206 
 1.287  +01 2.28   -02                                            1001201000207 
 1.289  +01 2.55   -02                                            1001201000208 
 1.292  +01 2.33   -02                                            1001201000209 
 1.295  +01 2.46   -02                                            1001201000210 
 1.298  +01 1.68   -02                                            1001201000211 
 1.301  +01 1.72   -02                                            1001201000212 
 1.304  +01 1.64   -02                                            1001201000213 
 1.307  +01 1.23   -02                                            1001201000214 
 1.310  +01 1.35   -02                                            1001201000215 
 1.313  +01 1.24   -02                                            1001201000216 
 1.315  +01 1.02   -02                                            1001201000217 
 1.318  +01 9.7    -03                                            1001201000218 
 1.321  +01 9.4    -03                                            1001201000219 
 1.324  +01 1.45   -02                                            1001201000220 
 1.327  +01 1.27   -02                                            1001201000221 
 1.330  +01 1.55   -02                                            1001201000222 
 1.332  +01 1.52   -02                                            1001201000223 
 1.335  +01 1.29   -02                                            1001201000224 
 1.338  +01 1.16   -02                                            1001201000225 
 1.341  +01 9.3    -03                                            1001201000226 
 1.344  +01 7.8    -03                                            1001201000227 
ENDDATA            215          0                                 1001201000228 
ENDSUBENT          227          0                                 1001201099999 
ENDENTRY            10          0                                 1001299999999 
