ENTRY            10114   20130508                             13911011400000001 
SUBENT        10114001   20130508                             13911011400100001 
BIB                 13         32                                 1011400100002 
TITLE      Total neutron cross section and resonance parameters of1011400100003 
            promethium-147                                        1011400100004 
AUTHOR     (J.W.Codding Jr,R.L.Tromp,F.B.Simpson)                 1011400100005 
REFERENCE  (J,NSE,43,58,197101)                                   1011400100006 
INSTITUTE  (1USAMTR)                                              1011400100007 
FACILITY   (CHOPF,1USAMTR) Fast chopper                           1011400100008 
INC-SOURCE (REAC) Reactor                                         1011400100009 
SAMPLE     (61-PM-147,ENR=0.9907) Oxide powder, promethium        1011400100010 
           content is for the time of separation because of the   1011400100011 
           beta decay to 147Sm. Metal thickness in the sample     1011400100012 
           varied from  1.085x10**19 to 6.045x10**21 atom/cm2.    1011400100013 
DECAY-DATA (61-PM-147,2.61YR)                                     1011400100014 
CORRECTION Corrected for 147Sm contamination. A 147Sm oxide       1011400100015 
           sample (5.339x1021 atom/cm2) was used to obtain the    1011400100016 
           147Sm thermal total cross section for use in           1011400100017 
           decontaminating of 147Pm data.                         1011400100018 
METHOD     (TOF) Data were taken in the thermal energy region an  1011400100019 
           up to about 70 keV using a 20-m flight path with a     1011400100020 
           resolution ranging between 0.08 to 20 microsec/m.      1011400100021 
           Higher energy measurements were taken at 45 m with     1011400100022 
           resolution of about 0.03 microsec/m. Collection of     1011400100023 
           both sets of data was extended over period of 4 to     1011400100024 
           755 days after time zero.                              1011400100025 
ERR-ANALYS (DATA-ERR) No details are given.                       1011400100026 
STATUS     (APRVD) Approved by author.                            1011400100027 
HISTORY    (19710106C)                                            1011400100028 
           (19771115U) Bib corrections.                           1011400100029 
           (19820520A) Converted to reaction formalism. Bib       1011400100030 
           corrections.                                           1011400100031 
           (20000202A) Converted to new date format, lower case.  1011400100032 
           (20130508A) BP: Corrections according last EXFOR rules 1011400100033 
           and Dict. Updated information, digitized Fig.2-5.      1011400100034 
ENDBIB              32          0                                 1011400100035 
NOCOMMON             0          0                                 1011400100036 
ENDSUBENT           35          0                                 1011400199999 
SUBENT        10114002   20000202                             00001011400200001 
BIB                  5          8                                 1011400200002 
REACTION  1(61-PM-147(N,0),,EN)                                   1011400200003 
          2(61-PM-147(N,EL),,WID/RED,,2G)                         1011400200004 
          3(61-PM-147(N,G),,WID)                                  1011400200005 
ANALYSIS   (AREA,SHAPE) Area analysis combined with shape analysis1011400200006 
ASSUMED    (ASSUM,61-PM-147(N,G),,WID)                            1011400200007 
FLAG       (1.) Doublet.                                          1011400200008 
HISTORY    (19820518A) Subentries 2,3 combined. Assumed           1011400200009 
            value added.                                          1011400200010 
ENDBIB               8          0                                 1011400200011 
COMMON               1          3                                 1011400200012 
MOMENTUM L                                                        1011400200013 
NO-DIM                                                            1011400200014 
 0.                                                               1011400200015 
ENDCOMMON            3          0                                 1011400200016 
DATA                 8         37                                 1011400200017 
DATA      1DATA-ERR  1DATA      2DATA-ERR  2DATA      3DATA-ERR  31011400200018 
ASSUM      FLAG                                                   1011400200019 
EV         EV         MILLI-EV   MILLI-EV   MILLI-EV   MILLI-EV   1011400200020 
MILLI-EV   NO-DIM                                                 1011400200021 
-1.80                 2.05                  80.                   1011400200022 
                                                                  1011400200023 
5.35       .02        14.22      .75        74.        10.        1011400200024 
                                                                  1011400200025 
6.56       .03        .609       .050       70.        10.        1011400200026 
                                                                  1011400200027 
6.92       .03        1.63       .10        61.         8.        1011400200028 
                                                                  1011400200029 
15.11      .08        .329       .030       63.         8.        1011400200030 
                                                                  1011400200031 
19.50      .10        1.01       .07        60.         8.        1011400200032 
                                                                  1011400200033 
29.1       .2         .452       .050                             1011400200034 
66.                                                               1011400200035 
35.2       .3         .08        .04                              1011400200036 
66.                                                               1011400200037 
38.0       .3         4.10       .60                              1011400200038 
66.                                                               1011400200039 
39.8       .3         2.85       .80                              1011400200040 
66.                                                               1011400200041 
45.5       .4         .340       .50                              1011400200042 
66.                                                               1011400200043 
48.0       .5         2.65       .40                              1011400200044 
66.                                                               1011400200045 
52.1       .5         .32        .06                              1011400200046 
66.                                                               1011400200047 
55.7       .6         .17        .05                              1011400200048 
66.                                                               1011400200049 
64.9       .7         2.00       .50                              1011400200050 
66.                                                               1011400200051 
65.3       .7         1.83       .45                              1011400200052 
66.                                                               1011400200053 
65.5                  9.0        3.0                              1011400200054 
           1.                                                     1011400200055 
82.6                  3.5        1.0                              1011400200056 
                                                                  1011400200057 
85.5                  4.0        1.1                              1011400200058 
                                                                  1011400200059 
89.8                  .12        .04                              1011400200060 
                                                                  1011400200061 
91.5                  .10        .03                              1011400200062 
                                                                  1011400200063 
95.4                  2.7        .8                               1011400200064 
                                                                  1011400200065 
99.8                  3.0        1.8                              1011400200066 
                                                                  1011400200067 
115.5      5.0        1.6                                         1011400200068 
                                                                  1011400200069 
117.7                 .24        .08                              1011400200070 
                                                                  1011400200071 
131.5                 15.        5.                               1011400200072 
                                                                  1011400200073 
140.1                 .27        .20                              1011400200074 
                                                                  1011400200075 
148.5                 8.0        3.0                              1011400200076 
                                                                  1011400200077 
154.3                 4.0        1.5                              1011400200078 
                                                                  1011400200079 
174.0                 20.        8.                               1011400200080 
                                                                  1011400200081 
179.1                 .9         .4                               1011400200082 
                                                                  1011400200083 
190.3                 8.0        3.3                              1011400200084 
                                                                  1011400200085 
193.1                 9.0        3.8                              1011400200086 
                                                                  1011400200087 
211.1                 4.0        1.8                              1011400200088 
                                                                  1011400200089 
222.1                 3.0        2.8                              1011400200090 
                                                                  1011400200091 
231.7                 2.5        1.2                              1011400200092 
                                                                  1011400200093 
241.2                 12.        6.                               1011400200094 
                                                                  1011400200095 
ENDDATA             78          0                                 1011400200096 
ENDSUBENT           95          0                                 1011400299999 
NOSUBENT      10114003   19820520                             00001011400300001 
SUBENT        10114004   20000202                             00001011400400001 
BIB                  4          7                                 1011400400002 
REACTION  1(62-SM-147(N,0),,EN)                                   1011400400003 
          2(62-SM-147(N,EL),,WID/RED,,2G)                         1011400400004 
          3(62-SM-147(N,G),,WID)                                  1011400400005 
ANALYSIS   (AREA) Area analysis.                                  1011400400006 
ASSUMED    (ASSUM,62-SM-147(N,G),,WID)                            1011400400007 
HISTORY    (19820518A) Area analysis data from san,4,5 grouped.   1011400400008 
            Assumed values added.                                 1011400400009 
ENDBIB               7          0                                 1011400400010 
COMMON               1          3                                 1011400400011 
MOMENTUM L                                                        1011400400012 
NO-DIM                                                            1011400400013 
 0.                                                               1011400400014 
ENDCOMMON            3          0                                 1011400400015 
DATA                 5         25                                 1011400400016 
DATA      1DATA      2DATA-ERR  2DATA      3ASSUM                 1011400400017 
EV         MILLI-EV   MILLI-EV   MILLI-EV   MILLI-EV              1011400400018 
-.60       .140                  63.                              1011400400019 
18.3       17.1                  73.                              1011400400020 
27.3       1.06                             65.                   1011400400021 
29.9       1.89                             65.                   1011400400022 
32.2       7.16                             65.                   1011400400023 
39.8       16.7                             65.                   1011400400024 
49.5       2.24                             65.                   1011400400025 
58.3       5.45                             65.                   1011400400026 
76.4       2.                                                     1011400400027 
80.1       .3                                                     1011400400028 
83.9       6.                                                     1011400400029 
99.8       24.                                                    1011400400030 
103.1      10.                                                    1011400400031 
107.4      4.                                                     1011400400032 
124.6      15.                                                    1011400400033 
140.1      64.                                                    1011400400034 
145.1      3.0        1.1                                         1011400400035 
152.2      8.                                                     1011400400036 
161.4      4.5                                                    1011400400037 
164.5      7.                                                     1011400400038 
185.3      15.                                                    1011400400039 
208.9      20.                                                    1011400400040 
222.1      4.5                                                    1011400400041 
224.0      7.                                                     1011400400042 
249.0      10.                                                    1011400400043 
ENDDATA             27          0                                 1011400400044 
ENDSUBENT           43          0                                 1011400499999 
SUBENT        10114005   20000202                             00001011400500001 
BIB                  4          7                                 1011400500002 
REACTION  1(62-SM-147(N,0),,EN)                                   1011400500003 
          2(62-SM-147(N,EL),,WID/RED,,2G)                         1011400500004 
          3(62-SM-147(N,G),,WID)                                  1011400500005 
ANALYSIS   (SHAPE)                                                1011400500006 
ASSUMED    (ASSUM,62-SM-147(N,G),,WID)                            1011400500007 
HISTORY    (19820518A) Shape analysis data from san 4,5 grouped.  1011400500008 
            Assumed values added.                                 1011400500009 
ENDBIB               7          0                                 1011400500010 
NOCOMMON             0          0                                 1011400500011 
DATA                 4          7                                 1011400500012 
DATA      1DATA      2DATA      3ASSUM                            1011400500013 
EV         MILLI-EV   MILLI-EV   MILLI-EV                         1011400500014 
3.39        0.851     69.                                         1011400500015 
18.30      17.9       83.                                         1011400500016 
27.3        1.60                 65.                              1011400500017 
29.9        2.39                 65.                              1011400500018 
32.2        7.91      67.                                         1011400500019 
49.5        2.25                 65.                              1011400500020 
58.3        6.35                 65.                              1011400500021 
ENDDATA              9          0                                 1011400500022 
ENDSUBENT           21          0                                 1011400599999 
SUBENT        10114006   20000202                             00001011400600001 
BIB                  2          2                                 1011400600002 
REACTION   (61-PM-147(N,EL),,STF)                                 1011400600003 
HISTORY    (19730509A) Data corrected.                            1011400600004 
ENDBIB               2          0                                 1011400600005 
NOCOMMON             0          0                                 1011400600006 
DATA                 4          1                                 1011400600007 
EN-MIN     EN-MAX     DATA       MOMENTUM L                       1011400600008 
EV         EV         NO-DIM     NO-DIM                           1011400600009 
0.         200.       2.37    -04 0.                              1011400600010 
ENDDATA              3          0                                 1011400600011 
ENDSUBENT           10          0                                 1011400699999 
SUBENT        10114007   20000202                             00001011400700001 
BIB                  2          2                                 1011400700002 
REACTION   (61-PM-147(N,0),,D)                                    1011400700003 
ANALYSIS   Corrected for 3 missed resonances.                     1011400700004 
ENDBIB               2          0                                 1011400700005 
NOCOMMON             0          0                                 1011400700006 
DATA                 4          1                                 1011400700007 
EN-MIN     EN-MAX     DATA       MOMENTUM L                       1011400700008 
EV         EV         EV         NO-DIM                           1011400700009 
0.         100.       4.17        0.                              1011400700010 
ENDDATA              3          0                                 1011400700011 
ENDSUBENT           10          0                                 1011400799999 
SUBENT        10114008   20000202                             00001011400800001 
BIB                  2          2                                 1011400800002 
REACTION   (61-PM-147(N,EL),,WID/RED,,2G/AV)                      1011400800003 
ANALYSIS   Corrected for 3 missed resonances.                     1011400800004 
ENDBIB               2          0                                 1011400800005 
NOCOMMON             0          0                                 1011400800006 
DATA                 4          1                                 1011400800007 
EN-MIN     EN-MAX     DATA       MOMENTUM L                       1011400800008 
EV         EV         MILLI-EV   NO-DIM                           1011400800009 
0.0        100.       2.0         0.                              1011400800010 
ENDDATA              3          0                                 1011400800011 
ENDSUBENT           10          0                                 1011400899999 
SUBENT        10114009   20000202                             00001011400900001 
BIB                  1          1                                 1011400900002 
REACTION   (61-PM-147(N,EL)61-PM-147,POT,SIG)                     1011400900003 
ENDBIB               1          0                                 1011400900004 
NOCOMMON             0          0                                 1011400900005 
DATA                 3          1                                 1011400900006 
EN-MIN     EN-MAX     DATA                                        1011400900007 
EV         EV         B                                           1011400900008 
2.0        13.0       13.                                         1011400900009 
ENDDATA              3          0                                 1011400900010 
ENDSUBENT            9          0                                 1011400999999 
SUBENT        10114010   20000202                             00001011401000001 
BIB                  1          1                                 1011401000002 
REACTION   (61-PM-147(N,TOT),,SIG)                                1011401000003 
ENDBIB               1          0                                 1011401000004 
NOCOMMON             0          0                                 1011401000005 
DATA                 4          1                                 1011401000006 
EN         DATA       +DATA-ERR  -DATA-ERR                        1011401000007 
EV         B          B          B                                1011401000008 
0.0253     200.       7.         5.                               1011401000009 
ENDDATA              3          0                                 1011401000010 
ENDSUBENT            9          0                                 1011401099999 
SUBENT        10114011   20130508                             13911011401100001 
BIB                  3          4                                 1011401100002 
REACTION   (61-PM-147(N,TOT),,SIG)                                1011401100003 
STATUS     (CURVE) Fig.2-5, pages 59,61,62.                       1011401100004 
HISTORY    (19771115C)                                            1011401100005 
           (20130508A) Digitized Fig.2-5.                         1011401100006 
ENDBIB               4          0                                 1011401100007 
NOCOMMON             0          0                                 1011401100008 
DATA                 2        575                                 1011401100009 
EN         DATA                                                   1011401100010 
EV         B                                                      1011401100011 
  1.031E-02  3.194E+02                                            1011401100012 
  1.262E-02  2.841E+02                                            1011401100013 
  1.558E-02  2.528E+02                                            1011401100014 
  2.090E-02  2.232E+02                                            1011401100015 
  2.602E-02  1.986E+02                                            1011401100016 
  3.105E-02  1.796E+02                                            1011401100017 
  3.582E-02  1.666E+02                                            1011401100018 
  4.167E-02  1.559E+02                                            1011401100019 
  5.144E-02  1.375E+02                                            1011401100020 
  6.189E-02  1.266E+02                                            1011401100021 
  7.321E-02  1.185E+02                                            1011401100022 
  8.239E-02  1.089E+02                                            1011401100023 
  9.747E-02  1.011E+02                                            1011401100024 
  1.153E-01  9.142E+01                                            1011401100025 
  1.354E-01  8.339E+01                                            1011401100026 
  1.548E-01  8.072E+01                                            1011401100027 
  1.801E-01  7.362E+01                                            1011401100028 
  2.096E-01  6.831E+01                                            1011401100029 
  2.398E-01  6.336E+01                                            1011401100030 
  2.675E-01  6.028E+01                                            1011401100031 
  3.086E-01  5.688E+01                                            1011401100032 
  3.590E-01  5.277E+01                                            1011401100033 
  4.142E-01  4.979E+01                                            1011401100034 
  4.658E-01  4.819E+01                                            1011401100035 
  5.328E-01  4.547E+01                                            1011401100036 
  6.252E-01  4.183E+01                                            1011401100037 
  7.152E-01  3.947E+01                                            1011401100038 
  7.978E-01  3.755E+01                                            1011401100039 
  9.125E-01  3.603E+01                                            1011401100040 
  1.027E+00  3.370E+01                                            1011401100041 
  1.214E+00  3.208E+01                                            1011401100042 
  1.366E+00  3.027E+01                                            1011401100043 
  1.523E+00  2.954E+01                                            1011401100044 
  2.047E+00  3.638E+01                                            1011401100045 
  2.071E+00  3.272E+01                                            1011401100046 
  2.133E+00  3.341E+01                                            1011401100047 
  2.141E+00  4.129E+01                                            1011401100048 
  2.188E+00  4.217E+01                                            1011401100049 
  2.203E+00  3.636E+01                                            1011401100050 
  2.227E+00  4.128E+01                                            1011401100051 
  2.273E+00  3.558E+01                                            1011401100052 
  2.351E+00  3.557E+01                                            1011401100053 
  2.351E+00  4.304E+01                                            1011401100054 
  2.398E+00  4.303E+01                                            1011401100055 
  2.406E+00  3.482E+01                                            1011401100056 
  2.437E+00  4.585E+01                                            1011401100057 
  2.445E+00  3.789E+01                                            1011401100058 
  2.476E+00  4.584E+01                                            1011401100059 
  2.499E+00  3.408E+01                                            1011401100060 
  2.554E+00  3.708E+01                                            1011401100061 
  2.655E+00  4.581E+01                                            1011401100062 
  2.678E+00  3.867E+01                                            1011401100063 
  2.725E+00  4.778E+01                                            1011401100064 
  2.733E+00  3.949E+01                                            1011401100065 
  2.788E+00  4.119E+01                                            1011401100066 
  2.803E+00  4.879E+01                                            1011401100067 
  2.834E+00  4.118E+01                                            1011401100068 
  2.905E+00  4.981E+01                                            1011401100069 
  2.936E+00  4.386E+01                                            1011401100070 
  2.967E+00  4.294E+01                                            1011401100071 
  2.998E+00  5.654E+01                                            1011401100072 
  3.014E+00  4.479E+01                                            1011401100073 
  3.084E+00  4.573E+01                                            1011401100074 
  3.092E+00  5.652E+01                                            1011401100075 
  3.130E+00  4.872E+01                                            1011401100076 
  3.138E+00  5.895E+01                                            1011401100077 
  3.169E+00  4.872E+01                                            1011401100078 
  3.193E+00  6.149E+01                                            1011401100079 
  3.216E+00  5.082E+01                                            1011401100080 
  3.310E+00  5.299E+01                                            1011401100081 
  3.349E+00  6.831E+01                                            1011401100082 
  3.356E+00  5.299E+01                                            1011401100083 
  3.380E+00  7.126E+01                                            1011401100084 
  3.411E+00  6.144E+01                                            1011401100085 
  3.434E+00  5.526E+01                                            1011401100086 
  3.504E+00  6.142E+01                                            1011401100087 
  3.551E+00  6.406E+01                                            1011401100088 
  3.606E+00  6.971E+01                                            1011401100089 
  3.653E+00  7.585E+01                                            1011401100090 
  3.715E+00  8.081E+01                                            1011401100091 
  3.754E+00  8.794E+01                                            1011401100092 
  3.793E+00  9.570E+01                                            1011401100093 
  3.840E+00  9.568E+01                                            1011401100094 
  3.918E+00  1.019E+02                                            1011401100095 
  3.988E+00  1.109E+02                                            1011401100096 
  4.066E+00  1.207E+02                                            1011401100097 
  4.120E+00  1.313E+02                                            1011401100098 
  4.159E+00  1.370E+02                                            1011401100099 
  4.214E+00  1.459E+02                                            1011401100100 
  4.253E+00  1.657E+02                                            1011401100101 
  4.300E+00  1.765E+02                                            1011401100102 
  4.339E+00  1.921E+02                                            1011401100103 
  4.378E+00  2.135E+02                                            1011401100104 
  4.424E+00  2.274E+02                                            1011401100105 
  4.463E+00  2.475E+02                                            1011401100106 
  4.502E+00  2.637E+02                                            1011401100107 
  4.534E+00  2.809E+02                                            1011401100108 
  4.580E+00  3.123E+02                                            1011401100109 
  4.619E+00  3.621E+02                                            1011401100110 
  4.666E+00  4.025E+02                                            1011401100111 
  4.705E+00  4.667E+02                                            1011401100112 
  4.760E+00  5.187E+02                                            1011401100113 
  4.799E+00  6.143E+02                                            1011401100114 
  4.830E+00  6.829E+02                                            1011401100115 
  4.861E+00  7.753E+02                                            1011401100116 
  4.908E+00  8.990E+02                                            1011401100117 
  4.932E+00  1.021E+03                                            1011401100118 
  4.978E+00  1.159E+03                                            1011401100119 
  5.002E+00  1.462E+03                                            1011401100120 
  5.033E+00  1.732E+03                                            1011401100121 
  5.080E+00  2.095E+03                                            1011401100122 
  5.104E+00  2.940E+03                                            1011401100123 
  5.150E+00  3.482E+03                                            1011401100124 
  5.166E+00  5.097E+03                                            1011401100125 
  5.205E+00  7.461E+03                                            1011401100126 
  5.237E+00  1.139E+04                                            1011401100127 
  5.276E+00  1.703E+04                                            1011401100128 
  5.307E+00  2.601E+04                                            1011401100129 
  5.331E+00  3.649E+04                                            1011401100130 
  5.378E+00  4.509E+04                                            1011401100131 
  5.463E+00  3.079E+04                                            1011401100132 
  5.486E+00  2.194E+04                                            1011401100133 
  5.525E+00  1.406E+04                                            1011401100134 
  5.556E+00  9.015E+03                                            1011401100135 
  5.579E+00  6.289E+03                                            1011401100136 
  5.626E+00  4.117E+03                                            1011401100137 
  5.664E+00  2.934E+03                                            1011401100138 
  5.688E+00  2.374E+03                                            1011401100139 
  5.727E+00  1.765E+03                                            1011401100140 
  5.773E+00  1.458E+03                                            1011401100141 
  5.812E+00  1.107E+03                                            1011401100142 
  5.843E+00  9.749E+02                                            1011401100143 
  5.890E+00  8.768E+02                                            1011401100144 
  5.929E+00  7.401E+02                                            1011401100145 
  5.960E+00  6.247E+02                                            1011401100146 
  6.006E+00  5.501E+02                                            1011401100147 
  6.045E+00  5.161E+02                                            1011401100148 
  6.092E+00  4.642E+02                                            1011401100149 
  6.139E+00  4.264E+02                                            1011401100150 
  6.178E+00  3.835E+02                                            1011401100151 
  6.232E+00  3.676E+02                                            1011401100152 
  6.279E+00  3.598E+02                                            1011401100153 
  6.326E+00  3.833E+02                                            1011401100154 
  6.365E+00  4.352E+02                                            1011401100155 
  6.396E+00  4.941E+02                                            1011401100156 
  6.419E+00  5.852E+02                                            1011401100157 
  6.435E+00  7.080E+02                                            1011401100158 
  6.474E+00  9.933E+02                                            1011401100159 
  6.521E+00  1.651E+03                                            1011401100160 
  6.568E+00  2.128E+03                                            1011401100161 
  6.615E+00  2.468E+03                                            1011401100162 
  6.661E+00  1.548E+03                                            1011401100163 
  6.677E+00  1.201E+03                                            1011401100164 
  6.708E+00  1.035E+03                                            1011401100165 
  6.762E+00  1.057E+03                                            1011401100166 
  6.794E+00  1.795E+03                                            1011401100167 
  6.841E+00  3.247E+03                                            1011401100168 
  6.888E+00  5.283E+03                                            1011401100169 
  7.004E+00  3.607E+03                                            1011401100170 
  7.051E+00  2.080E+03                                            1011401100171 
  7.152E+00  7.685E+02                                            1011401100172 
  7.206E+00  3.510E+02                                            1011401100173 
  7.307E+00  2.297E+02                                            1011401100174 
  7.361E+00  1.820E+02                                            1011401100175 
  7.424E+00  1.602E+02                                            1011401100176 
  7.470E+00  1.441E+02                                            1011401100177 
  7.533E+00  1.296E+02                                            1011401100178 
  7.579E+00  1.141E+02                                            1011401100179 
  7.634E+00  1.117E+02                                            1011401100180 
  7.696E+00  1.070E+02                                            1011401100181 
  7.828E+00  9.422E+01                                            1011401100182 
  7.906E+00  9.222E+01                                            1011401100183 
  7.953E+00  8.838E+01                                            1011401100184 
  8.015E+00  8.118E+01                                            1011401100185 
  8.070E+00  8.117E+01                                            1011401100186 
  8.132E+00  7.456E+01                                            1011401100187 
  8.218E+00  6.848E+01                                            1011401100188 
  8.264E+00  6.993E+01                                            1011401100189 
  8.327E+00  6.702E+01                                            1011401100190 
  8.420E+00  6.287E+01                                            1011401100191 
  8.475E+00  5.654E+01                                            1011401100192 
  8.537E+00  5.419E+01                                            1011401100193 
  8.623E+00  5.303E+01                                            1011401100194 
  8.685E+00  5.191E+01                                            1011401100195 
  8.747E+00  5.190E+01                                            1011401100196 
  8.833E+00  4.869E+01                                            1011401100197 
  8.895E+00  5.078E+01                                            1011401100198 
  8.973E+00  4.764E+01                                            1011401100199 
  9.051E+00  4.763E+01                                            1011401100200 
  9.121E+00  4.662E+01                                            1011401100201 
  9.199E+00  4.563E+01                                            1011401100202 
  9.285E+00  4.191E+01                                            1011401100203 
  9.355E+00  4.190E+01                                            1011401100204 
  9.425E+00  3.931E+01                                            1011401100205 
  9.511E+00  4.013E+01                                            1011401100206 
  9.596E+00  3.928E+01                                            1011401100207 
  9.682E+00  3.764E+01                                            1011401100208 
  9.760E+00  3.684E+01                                            1011401100209 
  9.853E+00  3.456E+01                                            1011401100210 
  9.931E+00  3.529E+01                                            1011401100211 
  1.002E+01  3.382E+01                                            1011401100212 
  1.019E+01  3.601E+01                                            1011401100213 
  1.027E+01  3.238E+01                                            1011401100214 
  1.038E+01  3.377E+01                                            1011401100215 
  1.047E+01  3.236E+01                                            1011401100216 
  1.055E+01  3.036E+01                                            1011401100217 
  1.066E+01  2.971E+01                                            1011401100218 
  1.076E+01  2.907E+01                                            1011401100219 
  1.085E+01  3.163E+01                                            1011401100220 
  1.095E+01  2.785E+01                                            1011401100221 
  1.106E+01  2.784E+01                                            1011401100222 
  1.117E+01  2.724E+01                                            1011401100223 
  1.126E+01  2.902E+01                                            1011401100224 
  1.136E+01  2.840E+01                                            1011401100225 
  1.147E+01  2.961E+01                                            1011401100226 
  1.157E+01  2.663E+01                                            1011401100227 
  1.169E+01  2.606E+01                                            1011401100228 
  1.181E+01  2.605E+01                                            1011401100229 
  1.192E+01  2.659E+01                                            1011401100230 
  1.203E+01  2.391E+01                                            1011401100231 
  1.216E+01  2.547E+01                                            1011401100232 
  1.227E+01  2.339E+01                                            1011401100233 
  1.239E+01  2.338E+01                                            1011401100234 
  1.251E+01  2.288E+01                                            1011401100235 
  1.262E+01  2.239E+01                                            1011401100236 
  1.275E+01  2.286E+01                                            1011401100237 
  1.288E+01  2.383E+01                                            1011401100238 
  1.304E+01  2.089E+01                                            1011401100239 
  1.321E+01  2.314E+01                                            1011401100240 
  1.328E+01  1.785E+01                                            1011401100241 
  1.331E+01  2.157E+01                                            1011401100242 
  1.338E+01  1.911E+01                                            1011401100243 
  1.350E+01  1.813E+01                                            1011401100244 
  1.358E+01  1.551E+01                                            1011401100245 
  1.363E+01  1.780E+01                                            1011401100246 
  1.378E+01  1.905E+01                                            1011401100247 
  1.385E+01  1.495E+01                                            1011401100248 
  1.390E+01  2.185E+01                                            1011401100249 
  1.395E+01  1.870E+01                                            1011401100250 
  1.402E+01  1.935E+01                                            1011401100251 
  1.409E+01  1.743E+01                                            1011401100252 
  1.417E+01  1.544E+01                                            1011401100253 
  1.424E+01  1.965E+01                                            1011401100254 
  1.437E+01  2.032E+01                                            1011401100255 
  1.441E+01  1.800E+01                                            1011401100256 
  1.449E+01  2.541E+01                                            1011401100257 
  1.467E+01  2.719E+01                                            1011401100258 
  1.470E+01  3.710E+01                                            1011401100259 
  1.482E+01  4.802E+01                                            1011401100260 
  1.489E+01  1.158E+02                                            1011401100261 
  1.494E+01  1.692E+02                                            1011401100262 
  1.503E+01  3.679E+02                                            1011401100263 
  1.511E+01  5.470E+02                                            1011401100264 
  1.520E+01  4.367E+02                                            1011401100265 
  1.527E+01  2.786E+02                                            1011401100266 
  1.535E+01  1.005E+02                                            1011401100267 
  1.544E+01  5.210E+01                                            1011401100268 
  1.553E+01  3.561E+01                                            1011401100269 
  1.560E+01  2.272E+01                                            1011401100270 
  1.567E+01  1.977E+01                                            1011401100271 
  1.582E+01  2.229E+01                                            1011401100272 
  1.584E+01  1.875E+01                                            1011401100273 
  1.597E+01  1.973E+01                                            1011401100274 
  1.604E+01  1.747E+01                                            1011401100275 
  1.612E+01  2.467E+01                                            1011401100276 
  1.618E+01  1.214E+01                                            1011401100277 
  1.628E+01  1.418E+01                                            1011401100278 
  1.641E+01  1.466E+01                                            1011401100279 
  1.651E+01  2.179E+01                                            1011401100280 
  1.663E+01  2.067E+01                                            1011401100281 
  1.668E+01  1.514E+01                                            1011401100282 
  1.677E+01  1.230E+01                                            1011401100283 
  1.690E+01  1.486E+01                                            1011401100284 
  1.698E+01  2.134E+01                                            1011401100285 
  1.707E+01  1.590E+01                                            1011401100286 
  1.712E+01  1.483E+01                                            1011401100287 
  1.724E+01  1.561E+01                                            1011401100288 
  1.734E+01  1.587E+01                                            1011401100289 
  1.742E+01  1.759E+01                                            1011401100290 
  1.754E+01  1.669E+01                                            1011401100291 
  1.767E+01  2.396E+01                                            1011401100292 
  1.781E+01  1.912E+01                                            1011401100293 
  1.788E+01  1.608E+01                                            1011401100294 
  1.797E+01  2.432E+01                                            1011401100295 
  1.811E+01  1.907E+01                                            1011401100296 
  1.821E+01  2.739E+01                                            1011401100297 
  1.833E+01  1.575E+01                                            1011401100298 
  1.841E+01  2.185E+01                                            1011401100299 
  1.850E+01  1.628E+01                                            1011401100300 
  1.863E+01  1.900E+01                                            1011401100301 
  1.875E+01  1.771E+01                                            1011401100302 
  1.887E+01  2.140E+01                                            1011401100303 
  1.898E+01  3.020E+01                                            1011401100304 
  1.908E+01  4.263E+01                                            1011401100305 
  1.923E+01  1.610E+02                                            1011401100306 
  1.934E+01  3.948E+02                                            1011401100307 
  1.940E+01  9.855E+02                                            1011401100308 
  1.957E+01  1.001E+03                                            1011401100309 
  1.969E+01  5.959E+02                                            1011401100310 
  1.982E+01  1.904E+02                                            1011401100311 
  1.992E+01  6.193E+01                                            1011401100312 
  2.006E+01  3.499E+01                                            1011401100313 
  2.019E+01  3.152E+01                                            1011401100314 
  2.030E+01  2.516E+01                                            1011401100315 
  2.043E+01  2.305E+01                                            1011401100316 
  2.055E+01  2.187E+01                                            1011401100317 
  2.069E+01  1.419E+01                                            1011401100318 
  2.079E+01  1.968E+01                                            1011401100319 
  2.096E+01  1.299E+01                                            1011401100320 
  2.106E+01  1.490E+01                                            1011401100321 
  2.123E+01  1.413E+01                                            1011401100322 
  2.136E+01  1.736E+01                                            1011401100323 
  2.150E+01  1.207E+01                                            1011401100324 
  2.162E+01  1.314E+01                                            1011401100325 
  2.177E+01  1.456E+01                                            1011401100326 
  2.190E+01  1.729E+01                                            1011401100327 
  2.205E+01  1.530E+01                                            1011401100328 
  2.221E+01  1.120E+01                                            1011401100329 
  2.233E+01  9.580E+00                                            1011401100330 
  2.251E+01  9.404E+00                                            1011401100331 
  2.264E+01  1.422E+01                                            1011401100332 
  2.278E+01  1.237E+01                                            1011401100333 
  2.293E+01  1.301E+01                                            1011401100334 
  2.308E+01  1.743E+01                                            1011401100335 
  2.326E+01  1.931E+01                                            1011401100336 
  2.340E+01  1.515E+01                                            1011401100337 
  2.357E+01  1.230E+01                                            1011401100338 
  2.372E+01  1.647E+01                                            1011401100339 
  2.391E+01  1.226E+01                                            1011401100340 
  2.404E+01  1.246E+01                                            1011401100341 
  2.424E+01  1.405E+01                                            1011401100342 
  2.436E+01  1.287E+01                                            1011401100343 
  2.455E+01  9.099E+00                                            1011401100344 
  2.470E+01  1.198E+01                                            1011401100345 
  2.487E+01  7.905E+00                                            1011401100346 
  2.502E+01  1.195E+01                                            1011401100347 
  2.519E+01  1.301E+01                                            1011401100348 
  2.542E+01  1.345E+01                                            1011401100349 
  2.559E+01  1.036E+01                                            1011401100350 
  2.575E+01  7.989E+00                                            1011401100351 
  2.595E+01  6.051E+00                                            1011401100352 
  2.612E+01  8.684E+00                                            1011401100353 
  2.630E+01  1.290E+01                                            1011401100354 
  2.649E+01  8.222E+00                                            1011401100355 
  2.669E+01  1.028E+01                                            1011401100356 
  2.689E+01  1.353E+01                                            1011401100357 
  2.706E+01  1.117E+01                                            1011401100358 
  2.726E+01  1.259E+01                                            1011401100359 
  2.746E+01  1.076E+01                                            1011401100360 
  2.768E+01  1.416E+01                                            1011401100361 
  2.785E+01  1.275E+01                                            1011401100362 
  2.805E+01  1.388E+01                                            1011401100363 
  2.825E+01  1.339E+01                                            1011401100364 
  2.847E+01  1.823E+01                                            1011401100365 
  2.869E+01  5.691E+01                                            1011401100366 
  2.893E+01  1.903E+02                                            1011401100367 
  2.914E+01  3.189E+02                                            1011401100368 
  2.935E+01  1.801E+02                                            1011401100369 
  2.957E+01  5.009E+01                                            1011401100370 
  2.981E+01  2.259E+01                                            1011401100371 
  3.000E+01  1.866E+01                                            1011401100372 
  3.022E+01  1.514E+01                                            1011401100373 
  3.046E+01  1.016E+01                                            1011401100374 
  3.046E+01  1.016E+01                                            1011401100375 
  3.071E+01  1.068E+01                                            1011401100376 
  3.093E+01  1.267E+01                                            1011401100377 
  3.118E+01  1.427E+01                                            1011401100378 
  3.140E+01  1.119E+01                                            1011401100379 
  3.167E+01  1.350E+01                                            1011401100380 
  3.190E+01  2.185E+01                                            1011401100381 
  3.213E+01  1.160E+01                                            1011401100382 
  3.236E+01  1.814E+01                                            1011401100383 
  3.262E+01  8.768E+00                                            1011401100384 
  3.289E+01  8.167E+00                                            1011401100385 
  3.316E+01  7.476E+00                                            1011401100386 
  3.343E+01  6.844E+00                                            1011401100387 
  3.370E+01  6.950E+00                                            1011401100388 
  3.398E+01  7.180E+00                                            1011401100389 
  3.398E+01  7.180E+00                                            1011401100390 
  3.425E+01  1.103E+01                                            1011401100391 
  3.452E+01  1.046E+01                                            1011401100392 
  3.480E+01  1.552E+01                                            1011401100393 
  3.509E+01  4.146E+01                                            1011401100394 
  3.535E+01  3.032E+01                                            1011401100395 
  3.548E+01  3.030E+01                                            1011401100396 
  3.566E+01  1.570E+01                                            1011401100397 
  3.598E+01  1.053E+01                                            1011401100398 
  3.628E+01  1.458E+01                                            1011401100399 
  3.660E+01  1.559E+01                                            1011401100400 
  3.688E+01  2.799E+01                                            1011401100401 
  3.719E+01  8.730E+01                                            1011401100402 
  3.753E+01  3.349E+02                                            1011401100403 
  3.782E+01  1.354E+03                                            1011401100404 
  3.814E+01  1.260E+03                                            1011401100405 
  3.849E+01  2.897E+02                                            1011401100406 
  3.884E+01  8.626E+01                                            1011401100407 
  3.915E+01  1.659E+02                                            1011401100408 
  3.949E+01  6.475E+02                                            1011401100409 
  3.986E+01  8.812E+02                                            1011401100410 
  4.019E+01  2.812E+02                                            1011401100411 
  4.054E+01  7.293E+01                                            1011401100412 
  4.090E+01  4.044E+01                                            1011401100413 
  4.129E+01  1.986E+01                                            1011401100414 
  4.167E+01  1.046E+01                                            1011401100415 
  4.204E+01  1.261E+01                                            1011401100416 
  4.241E+01  1.279E+01                                            1011401100417 
  4.278E+01  1.367E+01                                            1011401100418 
  4.320E+01  1.089E+01                                            1011401100419 
  4.359E+01  1.105E+01                                            1011401100420 
  4.399E+01  1.427E+01                                            1011401100421 
  4.441E+01  5.287E+01                                            1011401100422 
  4.479E+01  1.925E+02                                            1011401100423 
  4.521E+01  8.774E+02                                            1011401100424 
  4.566E+01  1.004E+03                                            1011401100425 
  4.608E+01  2.079E+02                                            1011401100426 
  4.653E+01  7.354E+01                                            1011401100427 
  4.695E+01  7.589E+01                                            1011401100428 
  4.741E+01  1.955E+02                                            1011401100429 
  4.784E+01  6.759E+02                                            1011401100430 
  4.833E+01  5.968E+02                                            1011401100431 
  4.880E+01  1.076E+02                                            1011401100432 
  4.926E+01  5.962E+01                                            1011401100433 
  4.957E+01  3.953E+00                                            1011401100434 
  4.969E+01  2.996E+00                                            1011401100435 
  4.974E+01  2.684E+01                                            1011401100436 
  5.026E+01  2.137E+01                                            1011401100437 
  5.070E+01  2.243E+01                                            1011401100438 
  5.183E+01  1.923E+01                                            1011401100439 
  5.252E+01  4.964E+01                                            1011401100440 
  5.351E+01  1.066E+02                                            1011401100441 
  5.504E+01  3.934E+01                                            1011401100442 
  5.525E+01  1.383E+01                                            1011401100443 
  5.668E+01  1.985E+01                                            1011401100444 
  5.724E+01  6.273E+01                                            1011401100445 
  5.761E+01  1.747E+01                                            1011401100446 
  5.810E+01  1.561E+01                                            1011401100447 
  5.989E+01  1.470E+01                                            1011401100448 
  5.995E+01  1.323E+01                                            1011401100449 
  6.235E+01  1.081E+01                                            1011401100450 
  6.378E+01  4.091E+01                                            1011401100451 
  6.467E+01  8.812E+01                                            1011401100452 
  6.567E+01  6.614E+02                                            1011401100453 
  6.785E+01  2.508E+02                                            1011401100454 
  6.856E+01  4.759E+01                                            1011401100455 
  6.915E+01  2.145E+01                                            1011401100456 
  6.979E+01  1.804E+01                                            1011401100457 
  7.022E+01  1.019E+01                                            1011401100458 
  7.183E+01  9.741E+00                                            1011401100459 
  7.263E+01  1.367E+01                                            1011401100460 
  7.461E+01  8.771E+00                                            1011401100461 
  7.537E+01  1.367E+01                                            1011401100462 
  7.620E+01  9.747E+00                                            1011401100463 
  7.733E+01  9.749E+00                                            1011401100464 
  7.849E+01  9.750E+00                                            1011401100465 
  7.985E+01  7.782E+00                                            1011401100466 
  8.115E+01  6.850E+00                                            1011401100467 
  8.326E+01  3.922E+01                                            1011401100468 
  8.338E+01  5.372E+02                                            1011401100469 
  8.414E+01  5.844E+01                                            1011401100470 
  8.636E+01  3.223E+02                                            1011401100471 
  8.682E+01  2.462E+01                                            1011401100472 
  8.706E+01  5.972E+02                                            1011401100473 
  8.845E+01  8.722E+00                                            1011401100474 
  8.851E+01  2.553E+02                                            1011401100475 
  9.006E+01  1.271E+01                                            1011401100476 
  9.140E+01  2.557E+01                                            1011401100477 
  9.314E+01  1.743E+01                                            1011401100478 
  9.423E+01  2.338E+01                                            1011401100479 
  9.464E+01  7.797E+00                                            1011401100480 
  9.487E+01  1.949E+02                                            1011401100481 
  9.503E+01  4.203E+01                                            1011401100482 
  9.565E+01  3.612E+02                                            1011401100483 
  9.808E+01  1.380E+02                                            1011401100484 
  9.834E+01  1.371E+01                                            1011401100485 
  1.003E+02  2.695E+02                                            1011401100486 
  1.004E+02  1.558E+01                                            1011401100487 
  1.011E+02  5.031E+02                                            1011401100488 
  1.033E+02  1.668E+01                                            1011401100489 
  1.039E+02  7.913E+01                                            1011401100490 
  1.058E+02  1.457E+01                                            1011401100491 
  1.076E+02  1.264E+01                                            1011401100492 
  1.083E+02  1.342E+01                                            1011401100493 
  1.083E+02  1.342E+01                                            1011401100494 
  1.123E+02  1.363E+01                                            1011401100495 
  1.137E+02  1.773E+01                                            1011401100496 
  1.153E+02  1.468E+02                                            1011401100497 
  1.162E+02  5.599E+02                                            1011401100498 
  1.189E+02  1.372E+02                                            1011401100499 
  1.191E+02  5.911E+01                                            1011401100500 
  1.205E+02  3.793E+01                                            1011401100501 
  1.212E+02  2.174E+01                                            1011401100502 
  1.216E+02  1.659E+01                                            1011401100503 
  1.240E+02  1.073E+01                                            1011401100504 
  1.294E+02  1.276E+01                                            1011401100505 
  1.313E+02  2.031E+02                                            1011401100506 
  1.351E+02  8.675E+02                                            1011401100507 
  1.372E+02  5.368E+01                                            1011401100508 
  1.387E+02  1.945E+01                                            1011401100509 
  1.419E+02  3.446E+01                                            1011401100510 
  1.430E+02  1.765E+01                                            1011401100511 
  1.457E+02  1.185E+01                                            1011401100512 
  1.485E+02  4.977E+02                                            1011401100513 
  1.487E+02  2.900E+01                                            1011401100514 
  1.523E+02  2.459E+01                                            1011401100515 
  1.561E+02  2.942E+02                                            1011401100516 
  1.571E+02  2.053E+01                                            1011401100517 
  1.607E+02  3.892E+01                                            1011401100518 
  1.673E+02  2.926E+01                                            1011401100519 
  1.725E+02  1.067E+02                                            1011401100520 
  1.741E+02  7.047E+02                                            1011401100521 
  1.796E+02  7.842E+01                                            1011401100522 
  1.801E+02  1.186E+02                                            1011401100523 
  1.873E+02  2.427E+01                                            1011401100524 
  1.930E+02  3.613E+02                                            1011401100525 
  1.951E+02  1.359E+02                                            1011401100526 
  1.972E+02  3.955E+02                                            1011401100527 
  2.034E+02  1.087E+01                                            1011401100528 
  2.113E+02  7.857E+01                                            1011401100529 
  2.131E+02  2.843E+02                                            1011401100530 
  2.176E+02  3.905E+01                                            1011401100531 
  2.275E+02  1.547E+02                                            1011401100532 
  2.316E+02  2.936E+01                                            1011401100533 
  2.364E+02  1.372E+02                                            1011401100534 
  2.393E+02  4.409E+01                                            1011401100535 
  2.437E+02  2.544E+02                                            1011401100536 
  2.621E+02  8.761E+00                                            1011401100537 
  2.729E+02  2.048E+02                                            1011401100538 
  2.844E+02  6.833E+01                                            1011401100539 
  2.915E+02  2.128E+02                                            1011401100540 
  2.969E+02  1.947E+01                                            1011401100541 
  3.016E+02  1.386E+02                                            1011401100542 
  3.107E+02  1.767E+01                                            1011401100543 
  3.165E+02  2.479E+01                                            1011401100544 
  3.209E+02  1.066E+02                                            1011401100545 
  3.260E+02  4.842E+01                                            1011401100546 
  3.333E+02  3.889E+02                                            1011401100547 
  3.446E+02  6.899E+01                                            1011401100548 
  3.482E+02  4.101E+02                                            1011401100549 
  3.545E+02  7.784E+01                                            1011401100550 
  3.545E+02  7.784E+01                                            1011401100551 
  3.628E+02  2.838E+02                                            1011401100552 
  3.697E+02  2.446E+01                                            1011401100553 
  3.855E+02  2.444E+02                                            1011401100554 
  3.939E+02  6.457E+01                                            1011401100555 
  4.130E+02  4.928E+01                                            1011401100556 
  4.207E+02  6.967E+01                                            1011401100557 
  4.347E+02  1.023E+02                                            1011401100558 
  4.538E+02  1.172E+02                                            1011401100559 
  4.597E+02  6.921E+01                                            1011401100560 
  4.752E+02  4.973E+01                                            1011401100561 
  4.905E+02  8.111E+01                                            1011401100562 
  4.934E+02  4.650E+01                                            1011401100563 
  5.004E+02  4.976E+01                                            1011401100564 
  5.184E+02  5.830E+01                                            1011401100565 
  5.267E+02  5.209E+01                                            1011401100566 
  5.416E+02  6.102E+01                                            1011401100567 
  5.755E+02  5.293E+01                                            1011401100568 
  5.877E+02  5.882E+01                                            1011401100569 
  6.189E+02  5.885E+01                                            1011401100570 
  6.337E+02  5.141E+01                                            1011401100571 
  6.561E+02  6.349E+01                                            1011401100572 
  6.806E+02  6.546E+01                                            1011401100573 
  6.916E+02  5.761E+01                                            1011401100574 
  7.070E+02  5.850E+01                                            1011401100575 
  7.389E+02  6.031E+01                                            1011401100576 
  7.506E+02  5.512E+01                                            1011401100577 
  7.555E+02  5.943E+01                                            1011401100578 
  7.865E+02  4.434E+01                                            1011401100579 
  8.222E+02  4.403E+01                                            1011401100580 
  8.574E+02  5.479E+01                                            1011401100581 
  8.895E+02  5.606E+01                                            1011401100582 
  9.237E+02  5.202E+01                                            1011401100583 
  9.787E+02  5.871E+01                                            1011401100584 
  9.787E+02  5.871E+01                                            1011401100585 
  1.016E+03  5.572E+01                                            1011401100586 
ENDDATA            577          0                                 1011401100587 
ENDSUBENT          586          0                                 1011401199999 
ENDENTRY            11          0                                 1011499999999 
