ENTRY            10138   20110914                             13771013800000001 
SUBENT        10138001   20110914                             13771013800100001 
BIB                 10         19                                 1013800100002 
INSTITUTE  (1USABNL)                                              1013800100003 
REFERENCE  (J,PR/C,3,2054,1971)                                   1013800100004 
AUTHOR     (R.E.Chrien,K.Rimawi,J.B.Garg)                         1013800100005 
TITLE       Resonance Neutron Capture in 93Nb                     1013800100006 
FACILITY   (CHOPF,1USABNL) Fast chopper at the                    1013800100007 
                                       High Flux Beam Reactor     1013800100008 
SAMPLE      Natural sample of monoisotopic niobium weighing 978.0 1013800100009 
            grams                                                 1013800100010 
METHOD     (TOF) Time-of-flight. Capture gammas measurements.     1013800100011 
DETECTOR   (GELI) Germanium-lithium detector                      1013800100012 
STATUS     (APRVD) Approved by author                             1013800100013 
HISTORY    (19720523C)                                            1013800100014 
           (19790714A) BIB corrections. Converted to REACTION     1013800100015 
            formalism.                                            1013800100016 
           (20000321A) Converted to new date format, lower case.  1013800100017 
           (20101108A) BIB updates.                               1013800100018 
           (20101111A)S.H. Added subs. 3,4                        1013800100019 
           (20110914A) SD: Data in Subents 003 divided on 10      1013800100020 
                     according to the Tbl. II of PR/C,3,2054,1971 1013800100021 
ENDBIB              19          0                                 1013800100022 
NOCOMMON             0          0                                 1013800100023 
ENDSUBENT           22          0                                 1013800199999 
SUBENT        10138002   20101108                             13701013800200001 
BIB                  6          8                                 1013800200002 
REACTION   (41-NB-93(N,0),,J)                                     1013800200003 
ANALYSIS    Spin assignments based on the spins and parities of   1013800200004 
            low-lying levels in 94Nb and the observed primary     1013800200005 
            gamma transitions to these levels                     1013800200006 
ERR-ANALYS No information.                                        1013800200007 
FLAG       (1.) Indicates doubtful spin assignment                1013800200008 
STATUS     (TABLE) Data taken from Table V in reference.          1013800200009 
HISTORY    (19790714A) Data corrected                             1013800200010 
ENDBIB               8          0                                 1013800200011 
NOCOMMON             0          0                                 1013800200012 
DATA                 4          9                                 1013800200013 
EN-RES     DATA       MOMENTUM L FLAG                             1013800200014 
EV         NO-DIM     NO-DIM     NO-DIM                           1013800200015 
35.8       5.         1.                                          1013800200016 
42.3       4.         1.                                          1013800200017 
94.3       4.         1.                                          1013800200018 
105.8      4.         0.                                          1013800200019 
119.2      4.         0.         1.                               1013800200020 
193.8      4.         0.         1.                               1013800200021 
243.7      5.         1.         1.                               1013800200022 
319.0      5.         1.                                          1013800200023 
335.5      4.         0.                                          1013800200024 
ENDDATA             11          0                                 1013800200025 
ENDSUBENT           24          0                                 1013800299999 
SUBENT        10138003   20110914                             13771013800300001 
BIB                  4          6                                 1013800300002 
REACTION   (41-NB-93(N,G)41-NB-94,,SPC,,MXW)                      1013800300003 
ERR-ANALYS (DATA-ERR) No information given                        1013800300004 
STATUS     (TABLE) Data taken from Table II of PR/C,3,2054,1971   1013800300005 
HISTORY    (20101111C) Compiled by S.H.                           1013800300006 
           (20110914A) SD: Data in Subents 003,004 divided by 10  1013800300007 
                     according to the Tbl. II of PR/C,3,2054,1971 1013800300008 
ENDBIB               6          0                                 1013800300009 
COMMON               1          3                                 1013800300010 
EN-DUMMY                                                          1013800300011 
EV                                                                1013800300012 
 0.0253                                                           1013800300013 
ENDCOMMON            3          0                                 1013800300014 
DATA                 4         70                                 1013800300015 
E          E-ERR      DATA       DATA-ERR                         1013800300016 
KEV        KEV        PC/INC     PC/INC                           1013800300017 
    7229.34       0.37      0.078      0.046                      1013800300018 
    7189.00       1.00      0.532      0.064                      1013800300019 
    6918.52       1.03      0.267      0.064                      1013800300020 
    6832.71       0.22      1.212      0.071                      1013800300021 
    6596.09       1.50      0.149      0.047                      1013800300022 
    6435.03       0.53      0.198      0.057                      1013800300023 
    6408.09       0.45      0.123      0.057                      1013800300024 
    6332.54       0.50      0.168      0.057                      1013800300025 
    6291.51       0.60      0.228      0.065                      1013800300026 
    6070.16       1.00      0.215      0.060                      1013800300027 
    6059.20       0.77      0.215      0.059                      1013800300028 
    5998.09       2.08      0.146      0.057                      1013800300029 
    5964.76       0.70      0.220      0.064                      1013800300030 
    5955.93       0.92      0.135      0.064                      1013800300031 
    5948.13       0.97      0.112      0.060                      1013800300032 
    5907.42       1.83      0.061      0.071                      1013800300033 
    5895.99       0.32      0.939      0.084                      1013800300034 
    5881.46       0.85      0.268      0.076                      1013800300035 
    5770.86       0.60      0.267      0.081                      1013800300036 
    5760.91       0.73      0.156      0.080                      1013800300037 
    5648.89       1.50      0.141      0.060                      1013800300038 
    5607.73       0.96      0.232      0.070                      1013800300039 
    5591.29       0.22      0.517      0.073                      1013800300040 
    5574.28       0.39      0.248      0.069                      1013800300041 
    5533.27       1.16      0.193      0.071                      1013800300042 
    5509.18       1.50      0.229      0.084                      1013800300043 
    5497.08       0.50      0.922      0.101                      1013800300044 
    5460.51       1.29      0.107      0.085                      1013800300045 
    5449.28       0.44      0.163      0.088                      1013800300046 
    5402.26       1.00      0.243      0.078                      1013800300047 
    5368.20       0.65      0.342      0.076                      1013800300048 
    5362.96       0.82      0.263      0.076                      1013800300049 
    5349.95       0.33      0.443      0.089                      1013800300050 
    5308.89       1.00      0.115      0.088                      1013800300051 
    5300.38       0.60      0.128      0.084                      1013800300052 
    5283.28       1.00      0.160      0.084                      1013800300053 
    5253.87       0.33      0.480      0.095                      1013800300054 
    5247.36       0.77      0.165      0.095                      1013800300055 
    5210.68       1.00      0.215      0.079                      1013800300056 
    5194.43       0.28      0.642      0.064                      1013800300057 
    5180.84       1.00      0.354      0.087                      1013800300058 
    5132.64       2.00      0.087      0.097                      1013800300059 
    5104.32       0.20      1.163      0.101                      1013800300060 
    5096.68       0.63      0.340      0.090                      1013800300061 
    5086.56       1.11      0.132      0.094                      1013800300062 
    5070.19       0.54      0.519      0.101                      1013800300063 
    5052.15       1.24      0.136      0.089                      1013800300064 
    5030.88       0.25      0.258      0.084                      1013800300065 
    4983.41       0.98      0.295      0.107                      1013800300066 
    4949.53       1.00      0.195      0.093                      1013800300067 
    4913.30       0.37      0.443      0.103                      1013800300068 
    4903.91       0.53      0.286      0.101                      1013800300069 
    4829.06       0.56      0.391      0.089                      1013800300070 
    4813.17       0.52      0.109      0.104                      1013800300071 
    4792.42       0.86      0.237      0.107                      1013800300072 
    4784.70       0.98      0.210      0.107                      1013800300073 
    4771.91       0.55      0.097      0.107                      1013800300074 
    4739.17       0.33      0.863      0.134                      1013800300075 
    4711.60       0.75      0.205      0.127                      1013800300076 
    4681.49       0.39      0.365      0.098                      1013800300077 
    4673.28       0.75      0.235      0.116                      1013800300078 
    4648.05       2.00      0.087      0.099                      1013800300079 
    4632.10       0.38      0.361      0.116                      1013800300080 
    4620.42       1.00      0.209      0.115                      1013800300081 
    4607.31       0.54      0.211      0.111                      1013800300082 
    4558.31       0.61      0.291      0.125                      1013800300083 
    4540.61       0.37      0.374      0.125                      1013800300084 
    4524.71       0.44      0.246      0.108                      1013800300085 
    4504.85       0.66      0.225      0.120                      1013800300086 
    4485.93       1.00      0.178      0.136                      1013800300087 
ENDDATA             72          0                                 1013800300088 
ENDSUBENT           87          0                                 1013800399999 
SUBENT        10138004   20101108                             13701013800400001 
BIB                  4          5                                 1013800400002 
REACTION   (41-NB-93(N,G),PAR,WID)                                1013800400003 
ERR-ANALYS (DATA-ERR) No information given                        1013800400004 
STATUS     (TABLE) Data taken from Table IV in reference.         1013800400005 
HISTORY    (19790714A) Data corrected                             1013800400006 
           (20101111C) Compiled by S.H.                           1013800400007 
ENDBIB               5          0                                 1013800400008 
NOCOMMON             0          0                                 1013800400009 
DATA                 5        358                                 1013800400010 
EN-RES     E          E-ERR      DATA       DATA-ERR              1013800400011 
EV         KEV        KEV        MILLI-EV   MILLI-EV              1013800400012 
    35.80    7229.34    0.37       16.29      0.96                1013800400013 
    35.80    7170.98    0.60        2.13      0.28                1013800400014 
    35.80    6917.31    0.52       11.98      0.45                1013800400015 
    35.80    6832.76    1.00        0.23      0.31                1013800400016 
    35.80    6587.74    0.25        0.43      0.22                1013800400017 
    35.80    6271.50    0.64        6.07      0.54                1013800400018 
    35.80    6170.34    0.50        0.52      0.25                1013800400019 
    35.80    6059.20    0.77        1.41      0.28                1013800400020 
    35.80    5972.40    2.00        1.01      0.28                1013800400021 
    35.80    5966.06    0.50        1.29      0.25                1013800400022 
    35.80    5955.93    0.92        0.55      0.26                1013800400023 
    35.80    5948.13    0.97        0.97      0.24                1013800400024 
    35.80    5735.10    0.53        6.95      0.39                1013800400025 
    35.80    5728.33    1.38        0.81      0.30                1013800400026 
    35.80    5660.26    1.00        1.06      0.34                1013800400027 
    35.80    5570.29    0.50        0.30      0.30                1013800400028 
    35.80    5511.27    0.87        0.06      0.27                1013800400029 
    35.80    5496.40    0.50        0.21      0.33                1013800400030 
    35.80    5453.61    1.17        0.70      0.32                1013800400031 
    35.80    5446.83    0.69        0.93      0.33                1013800400032 
    35.80    5423.54    0.44        0.96      0.35                1013800400033 
    35.80    5412.81    0.49        0.12      0.34                1013800400034 
    35.80    5406.03    0.40        0.38      0.29                1013800400035 
    35.80    5398.68    1.07        0.81      0.25                1013800400036 
    35.80    5369.03    0.75        0.62      0.28                1013800400037 
    35.80    5363.74    1.20        0.60      0.29                1013800400038 
    35.80    5306.25    1.00        1.26      0.39                1013800400039 
    35.80    5192.14    1.40        0.59      0.36                1013800400040 
    35.80    5180.20    1.75        0.96      0.37                1013800400041 
    35.80    5169.14    0.63        1.00      0.35                1013800400042 
    35.80    5162.24    1.80        0.83      0.35                1013800400043 
    35.80    5089.37    1.00        0.81      0.40                1013800400044 
    35.80    5078.35    1.38        0.99      0.40                1013800400045 
    35.80    5052.91    0.40        0.56      0.40                1013800400046 
    35.80    4991.34    1.27        0.90      0.37                1013800400047 
    35.80    4808.69    0.30        0.38      0.47                1013800400048 
    35.80    4779.28    1.40        1.65      0.52                1013800400049 
    35.80    4574.17    1.18        0.96      0.44                1013800400050 
    35.80    4567.10    1.21        0.56      0.44                1013800400051 
    35.80    4486.27    0.63        1.47      0.53                1013800400052 
    42.20    7188.49    0.40        0.56      0.13                1013800400053 
    42.20    7170.98    0.60        1.31      0.28                1013800400054 
    42.20    7116.33    0.49       12.51      0.68                1013800400055 
    42.20    6917.31    0.52        0.13      0.22                1013800400056 
    42.20    6832.76    1.00        0.56      0.19                1013800400057 
    42.20    6597.09    0.50        0.41      0.24                1013800400058 
    42.20    6434.83    1.17        0.92      0.23                1013800400059 
    42.20    6412.77    0.80        0.01      0.30                1013800400060 
    42.20    6332.54    0.50        0.56      0.21                1013800400061 
    42.20    6271.50    0.64        3.18      0.27                1013800400062 
    42.20    6258.61    1.07        2.83      0.26                1013800400063 
    42.20    6218.08    0.70        0.84      0.36                1013800400064 
    42.20    6170.34    0.50        0.38      0.32                1013800400065 
    42.20    6059.20    0.77        1.29      0.51                1013800400066 
    42.20    6049.79    0.70        2.28      0.51                1013800400067 
    42.20    5981.00    1.50        2.20      0.43                1013800400068 
    42.20    5948.13    0.97        5.40      0.46                1013800400069 
    42.20    5907.42    1.83        2.94      0.26                1013800400070 
    42.20    5742.61    1.55        1.18      0.35                1013800400071 
    42.20    5735.10    0.53        0.39      0.36                1013800400072 
    42.20    5669.57    1.50        0.41      0.31                1013800400073 
    42.20    5611.48    0.30        1.17      0.33                1013800400074 
    42.20    5605.79    1.73        0.77      0.33                1013800400075 
    42.20    5570.29    0.50        0.43      0.29                1013800400076 
    42.20    5511.27    0.87        0.74      0.33                1013800400077 
    42.20    5496.40    0.50        0.54      0.32                1013800400078 
    42.20    5463.95    1.00        0.37      0.36                1013800400079 
    42.20    5412.81    0.49        0.95      0.38                1013800400080 
    42.20    5406.03    0.40        2.81      0.39                1013800400081 
    42.20    5281.10    1.30        1.45      0.40                1013800400082 
    42.20    5192.14    1.40        0.04      0.37                1013800400083 
    42.20    5180.20    1.75        0.62      0.37                1013800400084 
    42.20    5089.37    1.00        1.19      0.38                1013800400085 
    42.20    4991.34    1.27        0.46      0.35                1013800400086 
    42.20    4986.85    0.75        0.54      0.35                1013800400087 
    42.20    4912.34    1.43        2.66      0.43                1013800400088 
    42.20    4906.53    0.95        1.09      0.45                1013800400089 
    42.20    4757.58    1.85        1.17      0.42                1013800400090 
    42.20    4690.47    0.75        2.37      0.47                1013800400091 
    42.20    4663.81    0.82        0.90      0.50                1013800400092 
    42.20    4606.91    1.00        1.66      0.54                1013800400093 
    42.20    4574.17    1.18        1.89      0.51                1013800400094 
    42.20    4567.10    1.21        0.36      0.50                1013800400095 
    42.20    4448.39    0.62        0.95      0.57                1013800400096 
    42.20    4388.88    1.42        1.34      0.58                1013800400097 
    94.30    7188.49    0.40       17.76      0.86                1013800400098 
    94.30    7170.98    0.60        0.75      0.42                1013800400099 
    94.30    6917.31    0.52        0.70      0.46                1013800400100 
    94.30    6832.76    1.00        1.19      0.48                1013800400101 
    94.30    6434.83    1.17        0.79      0.42                1013800400102 
    94.30    6412.77    0.80        2.65      0.53                1013800400103 
    94.30    6258.61    1.07        3.04      0.55                1013800400104 
    94.30    6252.48    0.80        2.45      0.54                1013800400105 
    94.30    6218.08    0.70        0.93      0.44                1013800400106 
    94.30    6170.34    0.50        0.79      0.43                1013800400107 
    94.30    6059.20    0.77        1.71      0.76                1013800400108 
    94.30    6049.79    0.70        0.95      0.44                1013800400109 
    94.30    5955.93    0.92        0.37      0.52                1013800400110 
    94.30    5907.42    1.83        3.38      0.49                1013800400111 
    94.30    5781.16    1.20        0.94      0.54                1013800400112 
    94.30    5770.79    1.16        1.37      0.57                1013800400113 
    94.30    5765.14    1.03        1.29      0.58                1013800400114 
    94.30    5742.61    1.55        2.00      0.55                1013800400115 
    94.30    5728.33    1.38        1.36      0.55                1013800400116 
    94.30    5611.48    0.30        1.40      0.58                1013800400117 
    94.30    5533.27    1.16        1.67      0.57                1013800400118 
    94.30    5511.27    0.87        1.53      0.75                1013800400119 
    94.30    5406.03    0.40        1.61      0.60                1013800400120 
    94.30    5363.74    1.20        1.03      0.57                1013800400121 
    94.30    5347.52    0.74        0.38      0.58                1013800400122 
    94.30    5162.24    1.80        0.77      0.56                1013800400123 
    94.30    5095.89    1.73        1.02      0.79                1013800400124 
    94.30    5078.35    1.38        1.50      0.70                1013800400125 
    94.30    4986.85    0.75        1.03      0.57                1013800400126 
    94.30    4927.78    1.07        1.89      0.70                1013800400127 
    94.30    4757.58    1.85        2.12      0.65                1013800400128 
    94.30    4458.50    0.51        0.79      0.81                1013800400129 
    94.30    4438.75    0.52        1.81      0.84                1013800400130 
    94.30    4388.88    1.42        1.24      0.78                1013800400131 
    94.30    4379.79    1.53        1.73      0.78                1013800400132 
    94.30    4299.36    0.83        1.39      0.83                1013800400133 
   105.80    7229.34    0.37        0.26      0.12                1013800400134 
   105.80    7188.49    0.40        1.43      0.17                1013800400135 
   105.80    6832.76    1.00        1.65      0.20                1013800400136 
   105.80    6597.09    0.50        0.38      0.15                1013800400137 
   105.80    6434.83    1.17        0.53      0.25                1013800400138 
   105.80    6412.77    0.80        0.06      0.17                1013800400139 
   105.80    6296.99    0.50        0.50      0.19                1013800400140 
   105.80    6258.61    1.07        0.20      0.71                1013800400141 
   105.80    6059.20    0.77        0.29      0.17                1013800400142 
   105.80    6049.79    0.70        0.33      0.17                1013800400143 
   105.80    5995.49    1.66        0.59      0.70                1013800400144 
   105.80    5966.06    0.50        0.31      0.20                1013800400145 
   105.80    5955.93    0.92        0.66      0.22                1013800400146 
   105.80    5948.13    0.97        0.33      0.26                1013800400147 
   105.80    5907.42    1.83        0.02      0.19                1013800400148 
   105.80    5895.99    0.40        1.24      0.19                1013800400149 
   105.80    5742.61    1.55        1.55      0.21                1013800400150 
   105.80    5735.10    0.53        1.80      0.25                1013800400151 
   105.80    5728.33    1.38        1.87      0.21                1013800400152 
   105.80    5708.97    0.44        0.79      0.24                1013800400153 
   105.80    5669.57    1.50        0.61      0.21                1013800400154 
   105.80    5648.83    2.05        2.15      0.31                1013800400155 
   105.80    5511.27    0.87        1.10      0.22                1013800400156 
   105.80    5496.40    0.50        0.75      0.28                1013800400157 
   105.80    5453.61    1.17        0.25      0.25                1013800400158 
   105.80    5446.83    0.69        0.23      0.24                1013800400159 
   105.80    5412.81    0.49        0.26      0.28                1013800400160 
   105.80    5398.68    1.07        0.88      0.26                1013800400161 
   105.80    5369.03    0.75        0.66      0.19                1013800400162 
   105.80    5306.25    1.00        0.60      0.25                1013800400163 
   105.80    5288.11    1.60        0.77      0.25                1013800400164 
   105.80    5281.10    1.30        0.75      0.25                1013800400165 
   105.80    5207.63    0.65        0.06      0.28                1013800400166 
   105.80    5180.20    1.75        0.22      0.26                1013800400167 
   105.80    5162.24    1.80        0.99      0.27                1013800400168 
   105.80    5078.35    1.38        0.20      0.26                1013800400169 
   105.80    5009.03    1.70        0.56      0.24                1013800400170 
   105.80    4999.28    1.00        0.05      0.23                1013800400171 
   105.80    4986.85    0.75        0.34      0.28                1013800400172 
   105.80    4912.34    1.43        0.32      0.27                1013800400173 
   105.80    4906.53    0.95        0.58      0.26                1013800400174 
   105.80    4892.50    0.92        0.44      0.30                1013800400175 
   105.80    4828.11    0.65        1.86      0.43                1013800400176 
   105.80    4787.31    2.09        1.63      0.42                1013800400177 
   105.80    4779.28    1.40        2.23      0.42                1013800400178 
   105.80    4712.30    0.42        0.48      0.30                1013800400179 
   105.80    4684.40    0.54        0.53      0.36                1013800400180 
   105.80    4567.10    1.21        0.60      0.31                1013800400181 
   105.80    4543.59    0.40        0.86      0.36                1013800400182 
   105.80    4505.01    0.95        0.42      0.31                1013800400183 
   105.80    4458.50    0.51        0.45      0.30                1013800400184 
   105.80    4388.88    1.42        0.45      0.33                1013800400185 
   105.80    4379.79    1.53        0.57      0.33                1013800400186 
   105.80    4225.66    0.70        0.41      0.33                1013800400187 
   105.80    3981.14    0.50        0.68      0.47                1013800400188 
   119.20    7229.34    0.37        0.46      0.09                1013800400189 
   119.20    6917.31    0.52        0.55      0.05                1013800400190 
   119.20    6332.54    0.50        1.09      0.11                1013800400191 
   119.20    6296.99    0.50        0.20      0.11                1013800400192 
   119.20    6218.08    0.70        0.43      0.11                1013800400193 
   119.20    6059.20    0.77        0.43      0.10                1013800400194 
   119.20    5995.49    1.66        1.12      0.07                1013800400195 
   119.20    5981.00    1.50        0.05      0.09                1013800400196 
   119.20    5972.40    2.00        0.28      0.09                1013800400197 
   119.20    5955.93    0.92        0.41      0.16                1013800400198 
   119.20    5948.13    0.97        0.42      0.16                1013800400199 
   119.20    5907.42    1.83        0.42      0.20                1013800400200 
   119.20    5781.16    1.20        0.08      0.13                1013800400201 
   119.20    5770.79    1.16        0.30      0.13                1013800400202 
   119.20    5742.61    1.55        0.18      0.10                1013800400203 
   119.20    5728.33    1.38        0.65      0.27                1013800400204 
   119.20    5708.97    0.44        0.24      0.08                1013800400205 
   119.20    5660.26    1.00        0.37      0.15                1013800400206 
   119.20    5648.83    2.05        0.17      0.11                1013800400207 
   119.20    5611.48    0.30        2.26      0.13                1013800400208 
   119.20    5605.79    1.73        0.26      0.13                1013800400209 
   119.20    5549.61    1.17        0.07      0.10                1013800400210 
   119.20    5511.27    0.87        0.27      0.14                1013800400211 
   119.20    5496.40    0.50        0.68      0.14                1013800400212 
   119.20    5453.61    1.17        0.45      0.11                1013800400213 
   119.20    5412.81    0.49        0.04      0.16                1013800400214 
   119.20    5406.03    0.40        1.05      0.26                1013800400215 
   119.20    5398.68    1.07        1.54      0.27                1013800400216 
   119.20    5347.52    0.74        0.60      0.35                1013800400217 
   119.20    5306.25    1.00        0.18      0.10                1013800400218 
   119.20    5300.38    0.60        0.51      0.10                1013800400219 
   119.20    5219.50    0.83        0.67      0.17                1013800400220 
   119.20    5213.92    0.91        0.56      0.16                1013800400221 
   119.20    5207.63    0.65        0.09      0.13                1013800400222 
   119.20    5192.14    1.40        0.88      0.19                1013800400223 
   119.20    5162.24    1.80        0.10      0.11                1013800400224 
   119.20    5095.89    1.73        0.79      0.12                1013800400225 
   119.20    5089.37    1.00        0.75      0.11                1013800400226 
   119.20    5078.35    1.38        0.51      0.11                1013800400227 
   119.20    5038.70    0.40        0.59      0.18                1013800400228 
   119.20    4991.34    1.27        0.25      0.11                1013800400229 
   119.20    4949.00    0.30        1.83      0.26                1013800400230 
   119.20    4927.78    1.07        0.48      0.11                1013800400231 
   119.20    4906.53    0.95        0.29      0.11                1013800400232 
   119.20    4873.93    0.50        1.77      0.18                1013800400233 
   119.20    4815.81    0.56        1.14      0.19                1013800400234 
   119.20    4808.69    0.30        0.46      0.18                1013800400235 
   119.20    4793.52    0.50        0.44      0.20                1013800400236 
   119.20    4757.58    1.85        0.92      0.14                1013800400237 
   119.20    4712.30    0.42        1.08      0.13                1013800400238 
   119.20    4650.62    0.77        0.55      0.23                1013800400239 
   119.20    4606.91    1.00        0.34      0.17                1013800400240 
   119.20    4535.22    1.45        0.97      0.14                1013800400241 
   119.20    4520.28    0.78        0.58      0.14                1013800400242 
   119.20    4419.41    2.00        0.58      0.15                1013800400243 
   119.20    4396.77    0.86        0.56      0.18                1013800400244 
   119.20    4388.88    1.42        0.89      0.22                1013800400245 
   119.20    4363.70    0.40        0.57      0.18                1013800400246 
   119.20    4193.70    0.68        0.60      0.15                1013800400247 
   119.20    4169.86    1.03        0.63      0.24                1013800400248 
   119.20    4090.51    0.66        0.72      0.20                1013800400249 
   119.20    4051.68    0.40        0.86      0.23                1013800400250 
   119.20    4035.55    0.90        0.56      0.23                1013800400251 
   119.20    3967.33    0.73        0.54      0.23                1013800400252 
   193.80    7229.34    0.37        0.63      0.07                1013800400253 
   193.80    7170.98    0.60        1.06      0.09                1013800400254 
   193.80    7116.33    0.49        0.74      0.08                1013800400255 
   193.80    6597.09    0.50        1.02      0.07                1013800400256 
   193.80    6587.74    0.25        0.43      0.06                1013800400257 
   193.80    6332.54    0.50        1.50      0.13                1013800400258 
   193.80    6271.50    0.64        0.61      0.11                1013800400259 
   193.80    6059.20    0.77        0.29      0.10                1013800400260 
   193.80    5995.49    1.66        1.85      0.17                1013800400261 
   193.80    5972.40    2.00        0.35      0.11                1013800400262 
   193.80    5955.93    0.92        0.62      0.11                1013800400263 
   193.80    5948.13    0.97        0.42      0.14                1013800400264 
   193.80    5907.42    1.83        0.89      0.17                1013800400265 
   193.80    5770.79    1.16        3.47      0.16                1013800400266 
   193.80    5611.48    0.30        1.29      0.15                1013800400267 
   193.80    5605.79    1.73        1.17      0.14                1013800400268 
   193.80    5570.29    0.50        0.33      0.12                1013800400269 
   193.80    5549.61    1.17        0.49      0.16                1013800400270 
   193.80    5511.27    0.87        0.41      0.14                1013800400271 
   193.80    5463.95    1.00        0.42      0.14                1013800400272 
   193.80    5453.61    1.17        0.79      0.15                1013800400273 
   193.80    5446.83    0.69        0.28      0.15                1013800400274 
   193.80    5398.68    1.07        1.92      0.20                1013800400275 
   193.80    5363.74    1.20        0.50      0.14                1013800400276 
   193.80    5347.52    0.74        1.57      0.15                1013800400277 
   193.80    5300.38    0.60        0.38      0.14                1013800400278 
   193.80    5288.11    1.60        0.96      0.16                1013800400279 
   193.80    5251.76    0.52        1.18      0.13                1013800400280 
   193.80    5246.21    0.75        0.25      0.11                1013800400281 
   193.80    5104.23    0.63        0.60      0.15                1013800400282 
   193.80    5095.89    1.73        0.27      0.15                1013800400283 
   193.80    5089.37    1.00        0.29      0.15                1013800400284 
   193.80    5052.91    0.40        0.60      0.16                1013800400285 
   193.80    5038.70    0.40        0.96      0.16                1013800400286 
   193.80    4999.28    1.00        0.54      0.13                1013800400287 
   193.80    4991.34    1.27        0.31      0.14                1013800400288 
   193.80    4949.00    0.30        0.52      0.17                1013800400289 
   193.80    4927.78    1.07        0.52      0.18                1013800400290 
   193.80    4873.93    0.50        0.56      0.18                1013800400291 
   193.80    4793.52    0.50        0.36      0.14                1013800400292 
   193.80    4787.31    2.09        0.33      0.14                1013800400293 
   193.80    4779.28    1.40        0.40      0.17                1013800400294 
   193.80    4771.49    0.59        0.32      0.18                1013800400295 
   193.80    4747.37    1.82        0.51      0.21                1013800400296 
   193.80    4684.40    0.54        0.73      0.18                1013800400297 
   193.80    4663.81    0.82        0.21      0.21                1013800400298 
   193.80    4574.17    1.18        0.99      0.18                1013800400299 
   193.80    4567.10    1.21        0.58      0.18                1013800400300 
   193.80    4553.31    0.46        0.70      0.18                1013800400301 
   193.80    4543.59    0.40        0.36      0.18                1013800400302 
   193.80    4535.22    1.45        0.32      0.19                1013800400303 
   193.80    4458.50    0.51        0.41      0.17                1013800400304 
   193.80    4452.73    0.78        0.54      0.17                1013800400305 
   193.80    4419.41    2.00        0.61      0.20                1013800400306 
   193.80    4363.70    0.40        0.50      0.22                1013800400307 
   193.80    4259.28    0.73        0.77      0.19                1013800400308 
   193.80    4225.66    0.70        0.87      0.20                1013800400309 
   193.80    4220.53    1.76        0.41      0.21                1013800400310 
   193.80    4090.51    0.66        1.04      0.25                1013800400311 
   243.70    7229.34    0.37        0.46      0.22                1013800400312 
   243.70    7170.98    0.60        0.45      0.22                1013800400313 
   243.70    7116.33    0.49        1.11      0.31                1013800400314 
   243.70    6917.31    0.52        1.99      0.30                1013800400315 
   243.70    6597.09    0.50        4.53      0.30                1013800400316 
   243.70    6587.74    0.25        0.65      0.26                1013800400317 
   243.70    6434.83    1.17        0.60      0.26                1013800400318 
   243.70    6332.54    0.50        0.59      0.37                1013800400319 
   243.70    6296.99    0.50        0.12      0.22                1013800400320 
   243.70    6271.50    0.64        0.51      0.29                1013800400321 
   243.70    6258.61    1.07        0.53      0.29                1013800400322 
   243.70    6059.20    0.77        1.47      0.24                1013800400323 
   243.70    6049.79    0.70        1.10      0.17                1013800400324 
   243.70    5955.93    0.92        0.56      0.25                1013800400325 
   243.70    5948.13    0.97        1.11      0.25                1013800400326 
   243.70    5907.42    1.83        0.81      0.17                1013800400327 
   243.70    5895.99    0.40        0.07      0.12                1013800400328 
   243.70    5781.16    1.20        0.06      0.26                1013800400329 
   243.70    5770.79    1.16        0.22      0.26                1013800400330 
   243.70    5765.14    1.03        0.05      0.27                1013800400331 
   243.70    5708.97    0.44        1.84      0.27                1013800400332 
   243.70    5648.83    2.05        0.72      0.28                1013800400333 
   243.70    5611.48    0.30        0.84      0.35                1013800400334 
   243.70    5453.61    1.17        0.29      0.16                1013800400335 
   243.70    5446.83    0.69        0.43      0.15                1013800400336 
   243.70    5412.81    0.49        0.93      0.22                1013800400337 
   243.70    5406.03    0.40        0.67      0.16                1013800400338 
   243.70    5369.03    0.75        1.07      0.15                1013800400339 
   243.70    5317.16    1.42        0.78      0.33                1013800400340 
   243.70    5306.25    1.00        0.52      0.20                1013800400341 
   243.70    5300.38    0.60        0.11      0.17                1013800400342 
   243.70    5288.11    1.60        0.81      0.26                1013800400343 
   243.70    5281.10    1.30        0.04      0.31                1013800400344 
   243.70    5246.21    0.75        0.70      0.17                1013800400345 
   243.70    5229.15    0.97        1.00      0.27                1013800400346 
   243.70    5180.20    1.75        1.37      0.16                1013800400347 
   243.70    5162.24    1.80        0.81      0.17                1013800400348 
   243.70    5047.63    0.50        1.00      0.27                1013800400349 
   243.70    5009.03    1.70        0.45      0.25                1013800400350 
   243.70    4999.28    1.00        0.37      0.25                1013800400351 
   243.70    4991.34    1.27        0.71      0.28                1013800400352 
   243.70    4787.31    2.09        0.85      0.24                1013800400353 
   243.70    4747.37    1.82        0.76      0.33                1013800400354 
   243.70    4690.47    0.75        0.86      0.16                1013800400355 
   243.70    4663.81    0.82        0.42      0.24                1013800400356 
   243.70    4606.91    1.00        0.74      0.31                1013800400357 
   243.70    4574.17    1.18        0.21      0.50                1013800400358 
   243.70    4567.10    1.21        0.60      0.57                1013800400359 
   243.70    4553.31    0.46        0.99      0.36                1013800400360 
   243.70    4543.59    0.40        0.33      0.38                1013800400361 
   243.70    4458.50    0.51        1.05      0.28                1013800400362 
   243.70    4452.73    0.78        0.80      0.27                1013800400363 
   243.70    4403.13    0.57        1.01      0.36                1013800400364 
   243.70    4396.77    0.86        0.93      0.37                1013800400365 
   243.70    4388.88    1.42        1.52      0.25                1013800400366 
   243.70    4379.79    1.53        1.21      0.25                1013800400367 
   243.70    4275.72    0.57        1.65      0.51                1013800400368 
   243.70    4259.28    0.73        1.04      0.52                1013800400369 
   243.70    4009.15    0.50        0.88      0.54                1013800400370 
ENDDATA            360          0                                 1013800400371 
ENDSUBENT          370          0                                 1013800499999 
ENDENTRY             4          0                                 1013899999999 
