ENTRY            10195   20140606                             14021019500000001 
SUBENT        10195001   20140606                             14021019500100001 
BIB                 11         44                                 1019500100002 
TITLE      Use of 50 psec Linac Beam for High Resolution Neutron  1019500100003 
           Time-of-Flight Measurement                             1019500100004 
AUTHOR     (R.B.Knowlen,A.A.O'Dell)                               1019500100005 
REFERENCE  (J,NIM,78,300,197002)                                  1019500100006 
           #doi:10.1016/0029-554X(70)90067-4                      1019500100007 
           (J,ANS,12,924,196912)                                  1019500100008 
INSTITUTE  (1USAEGG)                                              1019500100009 
FACILITY   (LINAC,1USAEGG) EG&G/AEC linac.                        1019500100010 
SAMPLE     The transmission target was fabricated from reactor    1019500100011 
           grade carbon to the dimension of 8- square by 2-in.    1019500100012 
           thick. This thickness was selected to give             1019500100013 
           approximately 40% transmission in the 2-3 MeV region.  1019500100014 
           The surface density was measured to be 8.978 g/cm2.    1019500100015 
PART-DET   (N)                                                    1019500100016 
DETECTOR   (SCIN) The neutron detector consisted basically of a   1019500100017 
           machined, polished NE-102 scintillator 11 cm in dia.   1019500100018 
           by 2 cm thick.                                         1019500100019 
METHOD     (TOF,TRN) Primary timing was performed between the     1019500100020 
           start signal from a non-intercepting beam monitor and  1019500100021 
           the neutron detector anode stop signal, which          1019500100022 
           registered the transversal of a particular neutron     1019500100023 
           over the fixed 23.35-m flight path. The carbon total   1019500100024 
           neutron cross section in the 2.05 to 3.4 MeV region    1019500100025 
           was measured with a linac peak electron current of 14  1019500100026 
           A, a repetition rate of 400 pps and a pulse width of   1019500100027 
           50 psec.                                               1019500100028 
ANALYSIS   The total carbon cross section in barns for a given    1019500100029 
           neutron energy (i.e., channel) was calculated from     1019500100030 
           the measured transmission data by the expression       1019500100031 
           sigma(total) = (A/(rhoX N)) ln[CO/CI] x 1024, where    1019500100032 
           A=atomic weight of carbon, rhoX=surface density of     1019500100033 
           carbon target, N=Avogadro's number, net count per      1019500100034 
           channel with carbon target out, net count per channel  1019500100035 
           with carbon target in. Neutron energy (E) in MeV is    1019500100036 
           related to the neutron TOF (T) in nanoseconds by the   1019500100037 
           relativistic expression E= Mn c2 (1/sqrt[1-(L/cT)2] -  1019500100038 
           1), where Mn c2 = neutron rest mass energy (MeV); L =  1019500100039 
           TOF path length (m); c = velocity of light (0.3        1019500100040 
           m/nsec).                                               1019500100041 
HISTORY    (19740925C)                                            1019500100042 
           (19760514U) BIB corrections                            1019500100043 
           (19820921A) converted to reaction formalism            1019500100044 
           (20010214A) converted to new date formats, lower case. 1019500100045 
           (20140606A) BP: Digitized Fig. 3, updated the entry.   1019500100046 
ENDBIB              44          0                                 1019500100047 
NOCOMMON             0          0                                 1019500100048 
ENDSUBENT           47          0                                 1019500199999 
SUBENT        10195002   20140606                             14021019500200001 
BIB                  3          5                                 1019500200002 
REACTION   (6-C-0(N,TOT),,SIG)                                    1019500200003 
ERR-ANALYS (DATA-ERR,3.,5.) The overall rms error on the cross-   1019500200004 
           section scale, it is estimated to be 5% at             1019500200005 
           resonances and 3% off resonances.                      1019500200006 
STATUS     (CURVE) Fig. 3, page 303.                              1019500200007 
ENDBIB               5          0                                 1019500200008 
COMMON               1          3                                 1019500200009 
EN-ERR                                                            1019500200010 
PER-CENT                                                          1019500200011 
        0.6                                                       1019500200012 
ENDCOMMON            3          0                                 1019500200013 
DATA                 2        240                                 1019500200014 
EN         DATA                                                   1019500200015 
MEV        B                                                      1019500200016 
      2.059      1.644                                            1019500200017 
      2.068      1.651                                            1019500200018 
      2.081      1.936                                            1019500200019 
      2.085      3.242                                            1019500200020 
      2.085      3.915                                            1019500200021 
      2.086      2.786                                            1019500200022 
      2.088      4.079                                            1019500200023 
      2.089      3.698                                            1019500200024 
      2.095      4.385                                            1019500200025 
      2.098      3.521                                            1019500200026 
      2.101      2.881                                            1019500200027 
      2.105      2.004                                            1019500200028 
      2.115      1.874                                            1019500200029 
      2.121      1.881                                            1019500200030 
      2.123      1.820                                            1019500200031 
      2.127      1.750                                            1019500200032 
      2.128      1.904                                            1019500200033 
      2.136      1.820                                            1019500200034 
      2.139      1.724                                            1019500200035 
      2.141      1.695                                            1019500200036 
      2.153      1.697                                            1019500200037 
      2.154      1.765                                            1019500200038 
      2.158      1.663                                            1019500200039 
      2.164      1.636                                            1019500200040 
      2.167      1.663                                            1019500200041 
      2.172      1.531                                            1019500200042 
      2.172      1.656                                            1019500200043 
      2.177      1.635                                            1019500200044 
      2.178      1.546                                            1019500200045 
      2.185      1.590                                            1019500200046 
      2.189      1.734                                            1019500200047 
      2.193      1.575                                            1019500200048 
      2.199      1.567                                            1019500200049 
      2.206      1.560                                            1019500200050 
      2.210      1.662                                            1019500200051 
      2.221      1.565                                            1019500200052 
      2.227      1.628                                            1019500200053 
      2.227      1.540                                            1019500200054 
      2.231      1.573                                            1019500200055 
      2.240      1.675                                            1019500200056 
      2.241      1.546                                            1019500200057 
      2.244      1.628                                            1019500200058 
      2.248      1.554                                            1019500200059 
      2.252      1.530                                            1019500200060 
      2.255      1.641                                            1019500200061 
      2.261      1.702                                            1019500200062 
      2.265      1.688                                            1019500200063 
      2.270      1.579                                            1019500200064 
      2.275      1.613                                            1019500200065 
      2.276      1.647                                            1019500200066 
      2.283      1.654                                            1019500200067 
      2.286      1.559                                            1019500200068 
      2.290      1.695                                            1019500200069 
      2.293      1.640                                            1019500200070 
      2.295      1.698                                            1019500200071 
      2.301      1.565                                            1019500200072 
      2.304      1.674                                            1019500200073 
      2.309      1.613                                            1019500200074 
      2.311      1.810                                            1019500200075 
      2.316      1.586                                            1019500200076 
      2.321      1.667                                            1019500200077 
      2.324      1.504                                            1019500200078 
      2.328      1.681                                            1019500200079 
      2.332      1.653                                            1019500200080 
      2.335      1.592                                            1019500200081 
      2.338      1.503                                            1019500200082 
      2.343      1.573                                            1019500200083 
      2.348      1.660                                            1019500200084 
      2.352      1.714                                            1019500200085 
      2.353      1.572                                            1019500200086 
      2.359      1.653                                            1019500200087 
      2.365      1.646                                            1019500200088 
      2.367      1.571                                            1019500200089 
      2.372      1.707                                            1019500200090 
      2.378      1.647                                            1019500200091 
      2.382      1.697                                            1019500200092 
      2.388      1.637                                            1019500200093 
      2.393      1.557                                            1019500200094 
      2.396      1.571                                            1019500200095 
      2.398      1.701                                            1019500200096 
      2.404      1.550                                            1019500200097 
      2.410      1.489                                            1019500200098 
      2.415      1.571                                            1019500200099 
      2.419      1.530                                            1019500200100 
      2.425      1.713                                            1019500200101 
      2.429      1.700                                            1019500200102 
      2.431      1.591                                            1019500200103 
      2.435      1.638                                            1019500200104 
      2.439      1.570                                            1019500200105 
      2.445      1.740                                            1019500200106 
      2.448      1.686                                            1019500200107 
      2.453      1.711                                            1019500200108 
      2.457      1.577                                            1019500200109 
      2.460      1.699                                            1019500200110 
      2.463      1.645                                            1019500200111 
      2.470      1.570                                            1019500200112 
      2.476      1.624                                            1019500200113 
      2.484      1.536                                            1019500200114 
      2.487      1.563                                            1019500200115 
      2.490      1.515                                            1019500200116 
      2.495      1.508                                            1019500200117 
      2.500      1.466                                            1019500200118 
      2.505      1.603                                            1019500200119 
      2.508      1.494                                            1019500200120 
      2.512      1.494                                            1019500200121 
      2.518      1.583                                            1019500200122 
      2.521      1.705                                            1019500200123 
      2.530      1.596                                            1019500200124 
      2.536      1.520                                            1019500200125 
      2.540      1.610                                            1019500200126 
      2.544      1.650                                            1019500200127 
      2.549      1.600                                            1019500200128 
      2.551      1.620                                            1019500200129 
      2.557      1.600                                            1019500200130 
      2.561      1.623                                            1019500200131 
      2.567      1.605                                            1019500200132 
      2.570      1.562                                            1019500200133 
      2.575      1.585                                            1019500200134 
      2.578      1.783                                            1019500200135 
      2.585      1.664                                            1019500200136 
      2.589      1.803                                            1019500200137 
      2.598      1.689                                            1019500200138 
      2.607      1.604                                            1019500200139 
      2.617      1.688                                            1019500200140 
      2.621      1.733                                            1019500200141 
      2.627      1.748                                            1019500200142 
      2.630      1.653                                            1019500200143 
      2.634      1.688                                            1019500200144 
      2.639      1.569                                            1019500200145 
      2.645      1.608                                            1019500200146 
      2.654      1.718                                            1019500200147 
      2.659      1.713                                            1019500200148 
      2.664      1.553                                            1019500200149 
      2.668      1.593                                            1019500200150 
      2.673      1.633                                            1019500200151 
      2.677      1.707                                            1019500200152 
      2.682      1.598                                            1019500200153 
      2.690      1.608                                            1019500200154 
      2.696      1.613                                            1019500200155 
      2.700      1.652                                            1019500200156 
      2.708      1.717                                            1019500200157 
      2.712      1.712                                            1019500200158 
      2.716      1.752                                            1019500200159 
      2.721      1.697                                            1019500200160 
      2.727      1.717                                            1019500200161 
      2.736      1.682                                            1019500200162 
      2.740      1.751                                            1019500200163 
      2.744      1.816                                            1019500200164 
      2.748      1.771                                            1019500200165 
      2.756      1.741                                            1019500200166 
      2.759      1.910                                            1019500200167 
      2.765      1.935                                            1019500200168 
      2.771      1.945                                            1019500200169 
      2.781      1.785                                            1019500200170 
      2.785      1.949                                            1019500200171 
      2.791      1.949                                            1019500200172 
      2.797      1.895                                            1019500200173 
      2.803      1.780                                            1019500200174 
      2.807      1.974                                            1019500200175 
      2.819      2.048                                            1019500200176 
      2.826      2.073                                            1019500200177 
      2.827      2.188                                            1019500200178 
      2.828      2.272                                            1019500200179 
      2.831      2.406                                            1019500200180 
      2.835      2.451                                            1019500200181 
      2.839      2.376                                            1019500200182 
      2.842      2.252                                            1019500200183 
      2.845      2.138                                            1019500200184 
      2.850      2.053                                            1019500200185 
      2.856      2.103                                            1019500200186 
      2.869      2.102                                            1019500200187 
      2.875      2.197                                            1019500200188 
      2.884      2.192                                            1019500200189 
      2.890      2.266                                            1019500200190 
      2.900      2.241                                            1019500200191 
      2.905      2.365                                            1019500200192 
      2.912      2.480                                            1019500200193 
      2.924      2.524                                            1019500200194 
      2.929      2.698                                            1019500200195 
      2.939      2.827                                            1019500200196 
      2.949      2.887                                            1019500200197 
      2.967      3.041                                            1019500200198 
      2.972      2.842                                            1019500200199 
      2.977      2.911                                            1019500200200 
      2.986      2.255                                            1019500200201 
      2.994      1.917                                            1019500200202 
      3.013      1.280                                            1019500200203 
      3.018      1.160                                            1019500200204 
      3.024      1.215                                            1019500200205 
      3.034      1.120                                            1019500200206 
      3.041      1.125                                            1019500200207 
      3.045      1.180                                            1019500200208 
      3.053      1.165                                            1019500200209 
      3.058      1.249                                            1019500200210 
      3.065      1.185                                            1019500200211 
      3.070      1.244                                            1019500200212 
      3.077      1.254                                            1019500200213 
      3.084      1.373                                            1019500200214 
      3.087      1.313                                            1019500200215 
      3.094      1.348                                            1019500200216 
      3.100      1.428                                            1019500200217 
      3.107      1.293                                            1019500200218 
      3.113      1.452                                            1019500200219 
      3.118      1.557                                            1019500200220 
      3.134      1.547                                            1019500200221 
      3.143      1.666                                            1019500200222 
      3.149      1.472                                            1019500200223 
      3.153      1.651                                            1019500200224 
      3.161      1.675                                            1019500200225 
      3.166      1.839                                            1019500200226 
      3.172      1.715                                            1019500200227 
      3.181      1.785                                            1019500200228 
      3.185      1.859                                            1019500200229 
      3.199      1.764                                            1019500200230 
      3.210      1.819                                            1019500200231 
      3.217      1.908                                            1019500200232 
      3.224      1.849                                            1019500200233 
      3.229      1.963                                            1019500200234 
      3.236      1.938                                            1019500200235 
      3.241      2.052                                            1019500200236 
      3.256      1.972                                            1019500200237 
      3.262      1.863                                            1019500200238 
      3.268      1.908                                            1019500200239 
      3.284      1.843                                            1019500200240 
      3.291      2.022                                            1019500200241 
      3.299      2.002                                            1019500200242 
      3.307      2.096                                            1019500200243 
      3.312      2.066                                            1019500200244 
      3.319      2.146                                            1019500200245 
      3.334      2.195                                            1019500200246 
      3.339      2.101                                            1019500200247 
      3.345      2.394                                            1019500200248 
      3.353      2.140                                            1019500200249 
      3.360      2.026                                            1019500200250 
      3.366      2.249                                            1019500200251 
      3.371      1.996                                            1019500200252 
      3.373      2.378                                            1019500200253 
      3.379      2.279                                            1019500200254 
      3.388      2.189                                            1019500200255 
      3.393      2.338                                            1019500200256 
ENDDATA            242          0                                 1019500200257 
ENDSUBENT          256          0                                 1019500299999 
ENDENTRY             2          0                                 1019599999999 
