ENTRY            10212   20010305                             00001021200000001 
SUBENT        10212001   20010305                             00001021200100001 
BIB                  8         14                                 1021200100002 
INSTITUTE  (1USAANL)                                              1021200100003 
REFERENCE  (J,JNE,27,317,197305)                                  1021200100004 
AUTHOR     (A.B.SMITH,P.GUENTHER,J.WHALEN)                        1021200100005 
TITLE      TOTAL AND ELASTIC SCATTERING NEUTRON CROSS SECTIONS    1021200100006 
            OF PU-239.                                            1021200100007 
FACILITY   (VDG) Van-de-Graaff.                                   1021200100008 
INC-SOURCE (P-LI7)                                                1021200100009 
STATUS     (APRVD) Approved by author                             1021200100010 
           Data received on punched cards from A.B. Smith,        1021200100011 
            February 1972.                                        1021200100012 
HISTORY    (19711209C)                                            1021200100013 
           (19750702A) BIB changes                                1021200100014 
           (19821013A) Converted to REACTION formalism            1021200100015 
           (20010305A) Updated to new date formats, lower case.   1021200100016 
ENDBIB              14          0                                 1021200100017 
NOCOMMON             0          0                                 1021200100018 
ENDSUBENT           17          0                                 1021200199999 
SUBENT        10212002   20010305                             00001021200200001 
BIB                  2          3                                 1021200200002 
REACTION   (94-PU-239(N,TOT),,SIG)                                1021200200003 
ERR-ANALYS (DATA-ERR) Estimated absolute uncertainty.             1021200200004 
           Statistical uncertainty about 1%.                      1021200200005 
ENDBIB               3          0                                 1021200200006 
NOCOMMON             0          0                                 1021200200007 
DATA                 4        393                                 1021200200008 
EN         EN-RSL     DATA       DATA-ERR                         1021200200009 
MEV        MEV        B          B                                1021200200010 
 6.5055E-01 1.4540E-03 7.8455E+00 8.3278E-02                      1021200200011 
 6.5255E-01 1.4520E-03 7.6455E+00 8.3085E-02                      1021200200012 
 6.5455E-01 1.4510E-03 7.7554E+00 8.3425E-02                      1021200200013 
 6.5655E-01 1.4490E-03 7.7950E+00 8.2886E-02                      1021200200014 
 6.5855E-01 1.4480E-03 7.8622E+00 8.3413E-02                      1021200200015 
 6.6055E-01 1.4470E-03 7.4140E+00 8.3601E-02                      1021200200016 
 6.6255E-01 1.4450E-03 7.8184E+00 8.3611E-02                      1021200200017 
 6.6455E-01 1.4440E-03 7.8089E+00 8.3583E-02                      1021200200018 
 6.6656E-01 1.4420E-03 8.0106E+00 8.3162E-02                      1021200200019 
 6.6856E-01 1.4410E-03 7.6363E+00 8.3576E-02                      1021200200020 
 6.7056E-01 1.4400E-03 7.7262E+00 8.3633E-02                      1021200200021 
 6.7256E-01 1.4380E-03 7.8212E+00 8.3594E-02                      1021200200022 
 6.7456E-01 1.4370E-03 7.6990E+00 8.3628E-02                      1021200200023 
 6.7656E-01 1.4350E-03 7.7957E+00 8.3502E-02                      1021200200024 
 6.7857E-01 1.4340E-03 7.9338E+00 8.3509E-02                      1021200200025 
 6.8057E-01 1.4330E-03 7.8629E+00 8.3158E-02                      1021200200026 
 6.8257E-01 1.4310E-03 7.6502E+00 8.3769E-02                      1021200200027 
 6.8457E-01 1.4300E-03 7.7299E+00 8.3714E-02                      1021200200028 
 6.8657E-01 1.4280E-03 7.6775E+00 8.3690E-02                      1021200200029 
 6.8857E-01 1.4270E-03 7.9553E+00 8.3726E-02                      1021200200030 
 6.9057E-01 1.4260E-03 7.8425E+00 8.3575E-02                      1021200200031 
 6.9258E-01 1.4240E-03 7.8185E+00 8.3496E-02                      1021200200032 
 6.9858E-01 1.4200E-03 7.5820E+00 8.3485E-02                      1021200200033 
 7.0058E-01 1.4190E-03 7.6032E+00 8.3825E-02                      1021200200034 
 7.0258E-01 1.4180E-03 7.7128E+00 8.3544E-02                      1021200200035 
 7.0458E-01 1.4160E-03 7.6835E+00 8.3594E-02                      1021200200036 
 7.0658E-01 1.4150E-03 7.7066E+00 8.3781E-02                      1021200200037 
 7.1059E-01 1.4120E-03 7.5898E+00 5.9180E-02                      1021200200038 
 7.1259E-01 1.4110E-03 7.5618E+00 8.3902E-02                      1021200200039 
 7.1459E-01 1.4100E-03 7.6503E+00 8.3742E-02                      1021200200040 
 7.1659E-01 1.4080E-03 7.5821E+00 8.3735E-02                      1021200200041 
 7.1859E-01 1.4070E-03 7.5919E+00 8.3955E-02                      1021200200042 
 7.2059E-01 1.4060E-03 7.8462E+00 8.3804E-02                      1021200200043 
 7.2260E-01 1.4040E-03 7.5224E+00 8.3829E-02                      1021200200044 
 7.2460E-01 1.4030E-03 7.3536E+00 8.4034E-02                      1021200200045 
 7.2660E-01 1.4020E-03 7.5434E+00 5.9212E-02                      1021200200046 
 7.2860E-01 1.4000E-03 7.5740E+00 8.3553E-02                      1021200200047 
 7.3060E-01 1.3990E-03 7.5218E+00 8.3578E-02                      1021200200048 
 7.3260E-01 1.3980E-03 7.6411E+00 8.3845E-02                      1021200200049 
 7.3660E-01 1.3950E-03 7.4165E+00 8.3581E-02                      1021200200050 
 7.4061E-01 1.3930E-03 7.6249E+00 8.3877E-02                      1021200200051 
 7.4261E-01 1.3910E-03 7.3129E+00 8.3606E-02                      1021200200052 
 7.4461E-01 1.3900E-03 7.6178E+00 8.3990E-02                      1021200200053 
 7.4661E-01 1.3890E-03 7.6899E+00 8.3758E-02                      1021200200054 
 7.4861E-01 1.3880E-03 7.4530E+00 8.4088E-02                      1021200200055 
 7.5061E-01 1.3860E-03 7.4719E+00 8.3564E-02                      1021200200056 
 7.5261E-01 1.3850E-03 7.4304E+00 8.3846E-02                      1021200200057 
 7.5462E-01 1.3840E-03 7.4529E+00 8.3550E-02                      1021200200058 
 7.5662E-01 1.3820E-03 7.3843E+00 8.3998E-02                      1021200200059 
 7.5862E-01 1.3810E-03 7.4690E+00 8.3901E-02                      1021200200060 
 7.6062E-01 1.3800E-03 7.5566E+00 8.3948E-02                      1021200200061 
 7.6262E-01 1.3790E-03 7.4633E+00 8.3983E-02                      1021200200062 
 7.6462E-01 1.3770E-03 7.9196E+00 8.3785E-02                      1021200200063 
 7.6662E-01 1.3760E-03 7.8344E+00 8.3423E-02                      1021200200064 
 7.6862E-01 1.3750E-03 7.4152E+00 8.3768E-02                      1021200200065 
 7.7063E-01 1.3740E-03 7.4014E+00 8.3475E-02                      1021200200066 
 7.7263E-01 1.3720E-03 7.4881E+00 8.3294E-02                      1021200200067 
 7.7463E-01 1.3710E-03 7.3478E+00 8.3443E-02                      1021200200068 
 7.7663E-01 1.3700E-03 7.4171E+00 8.3592E-02                      1021200200069 
 7.8463E-01 1.3650E-03 7.4364E+00 8.3868E-02                      1021200200070 
 7.8664E-01 1.3640E-03 7.6111E+00 8.3685E-02                      1021200200071 
 7.8864E-01 1.3630E-03 7.3601E+00 8.3282E-02                      1021200200072 
 7.9064E-01 1.3610E-03 7.5841E+00 8.3814E-02                      1021200200073 
 7.9864E-01 1.3570E-03 7.3580E+00 8.3696E-02                      1021200200074 
 8.0064E-01 1.3550E-03 7.1474E+00 8.3347E-02                      1021200200075 
 8.0265E-01 1.3540E-03 7.3034E+00 8.3400E-02                      1021200200076 
 8.0465E-01 1.3530E-03 7.3268E+00 8.3481E-02                      1021200200077 
 8.0465E-01 1.3530E-03 7.4064E+00 4.1908E-02                      1021200200078 
 8.0665E-01 1.3520E-03 7.4051E+00 8.3746E-02                      1021200200079 
 8.0665E-01 1.3520E-03 7.4515E+00 8.4044E-02                      1021200200080 
 8.0865E-01 1.3510E-03 7.5206E+00 8.4107E-02                      1021200200081 
 8.1065E-01 1.3490E-03 7.2980E+00 8.3867E-02                      1021200200082 
 8.1265E-01 1.3480E-03 7.3417E+00 8.3879E-02                      1021200200083 
 8.1465E-01 1.3470E-03 7.2850E+00 8.3761E-02                      1021200200084 
 8.1665E-01 1.3460E-03 7.2682E+00 8.3974E-02                      1021200200085 
 8.1865E-01 1.3450E-03 7.4195E+00 8.3822E-02                      1021200200086 
 8.2066E-01 1.3440E-03 7.3956E+00 8.3914E-02                      1021200200087 
 8.2266E-01 1.3420E-03 7.2204E+00 8.4260E-02                      1021200200088 
 8.2466E-01 1.3410E-03 7.3290E+00 8.4024E-02                      1021200200089 
 8.2666E-01 1.3400E-03 7.5407E+00 8.3924E-02                      1021200200090 
 8.2866E-01 1.3390E-03 7.5402E+00 8.3632E-02                      1021200200091 
 8.3066E-01 1.3380E-03 7.3699E+00 8.3863E-02                      1021200200092 
 8.3266E-01 1.3370E-03 7.3246E+00 8.3693E-02                      1021200200093 
 8.3466E-01 1.3350E-03 7.4817E+00 8.3601E-02                      1021200200094 
 8.3667E-01 1.3340E-03 7.2828E+00 8.4106E-02                      1021200200095 
 8.3867E-01 1.3330E-03 7.4073E+00 8.4222E-02                      1021200200096 
 8.4067E-01 1.3320E-03 7.3732E+00 8.3993E-02                      1021200200097 
 8.4267E-01 1.3310E-03 7.1932E+00 8.3954E-02                      1021200200098 
 8.4467E-01 1.3300E-03 7.4441E+00 8.3944E-02                      1021200200099 
 8.4667E-01 1.3290E-03 7.4017E+00 8.4205E-02                      1021200200100 
 8.4867E-01 1.3270E-03 7.2525E+00 8.3840E-02                      1021200200101 
 8.5067E-01 1.3260E-03 7.1395E+00 8.4048E-02                      1021200200102 
 8.5267E-01 1.3250E-03 7.5036E+00 8.3815E-02                      1021200200103 
 8.5468E-01 1.3240E-03 7.2371E+00 8.4036E-02                      1021200200104 
 8.5668E-01 1.3230E-03 7.3071E+00 8.4155E-02                      1021200200105 
 8.5868E-01 1.3220E-03 7.3274E+00 8.3958E-02                      1021200200106 
 8.6068E-01 1.3210E-03 7.2054E+00 8.4023E-02                      1021200200107 
 8.6268E-01 1.3190E-03 7.3474E+00 8.3951E-02                      1021200200108 
 8.6468E-01 1.3180E-03 7.5281E+00 8.3738E-02                      1021200200109 
 8.6668E-01 1.3170E-03 7.3669E+00 8.4206E-02                      1021200200110 
 8.6868E-01 1.3160E-03 7.2531E+00 8.3843E-02                      1021200200111 
 8.7068E-01 1.3150E-03 7.1535E+00 8.4046E-02                      1021200200112 
 8.7269E-01 1.3140E-03 7.2182E+00 8.4241E-02                      1021200200113 
 8.7469E-01 1.3130E-03 7.3062E+00 8.3792E-02                      1021200200114 
 8.7669E-01 1.3120E-03 7.4593E+00 8.3953E-02                      1021200200115 
 8.7869E-01 1.3110E-03 7.4182E+00 8.3961E-02                      1021200200116 
 8.8069E-01 1.3090E-03 7.1718E+00 8.3954E-02                      1021200200117 
 8.8269E-01 1.3080E-03 7.1016E+00 8.3969E-02                      1021200200118 
 8.8469E-01 1.3070E-03 7.1143E+00 8.3700E-02                      1021200200119 
 8.8669E-01 1.3060E-03 7.2634E+00 8.3745E-02                      1021200200120 
 8.8869E-01 1.3050E-03 7.1534E+00 8.3660E-02                      1021200200121 
 8.9069E-01 1.3040E-03 7.4928E+00 8.3819E-02                      1021200200122 
 8.9270E-01 1.3030E-03 7.3206E+00 8.4102E-02                      1021200200123 
 8.9470E-01 1.3020E-03 7.1111E+00 8.3695E-02                      1021200200124 
 8.9670E-01 1.3010E-03 7.1920E+00 8.3601E-02                      1021200200125 
 8.9870E-01 1.3000E-03 7.3307E+00 8.4147E-02                      1021200200126 
 9.0070E-01 1.2980E-03 7.3038E+00 8.3644E-02                      1021200200127 
 9.0470E-01 1.2960E-03 7.1746E+00 8.3864E-02                      1021200200128 
 9.0670E-01 1.2950E-03 7.3728E+00 8.3747E-02                      1021200200129 
 9.0871E-01 1.2940E-03 7.1120E+00 8.3916E-02                      1021200200130 
 9.1071E-01 1.2930E-03 7.2377E+00 8.3699E-02                      1021200200131 
 9.1271E-01 1.2920E-03 7.2963E+00 8.3784E-02                      1021200200132 
 9.1471E-01 1.2910E-03 7.3279E+00 8.3772E-02                      1021200200133 
 9.1671E-01 1.2900E-03 7.2352E+00 8.3841E-02                      1021200200134 
 9.1871E-01 1.2890E-03 6.9470E+00 8.3808E-02                      1021200200135 
 9.2071E-01 1.2880E-03 6.9527E+00 8.3723E-02                      1021200200136 
 9.2271E-01 1.2870E-03 7.4013E+00 8.3888E-02                      1021200200137 
 9.2471E-01 1.2860E-03 7.1839E+00 8.3841E-02                      1021200200138 
 9.2672E-01 1.2840E-03 7.1692E+00 8.3605E-02                      1021200200139 
 9.2872E-01 1.2830E-03 7.2614E+00 8.3633E-02                      1021200200140 
 9.3072E-01 1.2820E-03 7.0186E+00 8.3826E-02                      1021200200141 
 9.3272E-01 1.2810E-03 7.4084E+00 8.3609E-02                      1021200200142 
 9.3472E-01 1.2800E-03 7.3538E+00 8.3690E-02                      1021200200143 
 9.3672E-01 1.2790E-03 7.1588E+00 8.3507E-02                      1021200200144 
 9.3872E-01 1.2780E-03 7.3230E+00 8.3691E-02                      1021200200145 
 9.4072E-01 1.2770E-03 7.1733E+00 8.3527E-02                      1021200200146 
 9.4272E-01 1.2760E-03 7.0224E+00 8.3499E-02                      1021200200147 
 9.4472E-01 1.2750E-03 7.1126E+00 8.3623E-02                      1021200200148 
 9.4673E-01 1.2740E-03 7.1706E+00 8.3435E-02                      1021200200149 
 9.4873E-01 1.2730E-03 7.2567E+00 8.3474E-02                      1021200200150 
 9.5073E-01 1.2720E-03 7.0063E+00 8.3476E-02                      1021200200151 
 9.5273E-01 1.2710E-03 7.2290E+00 8.3713E-02                      1021200200152 
 9.5473E-01 1.2700E-03 7.0644E+00 8.3427E-02                      1021200200153 
 9.5673E-01 1.2690E-03 7.1190E+00 8.3967E-02                      1021200200154 
 9.5873E-01 1.2680E-03 7.1250E+00 8.3357E-02                      1021200200155 
 9.6073E-01 1.2670E-03 7.0754E+00 8.3509E-02                      1021200200156 
 9.6273E-01 1.2660E-03 7.2031E+00 8.3763E-02                      1021200200157 
 9.6473E-01 1.2650E-03 7.1656E+00 8.3484E-02                      1021200200158 
 9.6673E-01 1.2640E-03 7.2137E+00 8.3572E-02                      1021200200159 
 9.6874E-01 1.2630E-03 7.0253E+00 8.3514E-02                      1021200200160 
 9.7074E-01 1.2620E-03 7.1355E+00 8.3299E-02                      1021200200161 
 9.7274E-01 1.2610E-03 7.0533E+00 8.3514E-02                      1021200200162 
 9.7474E-01 1.2600E-03 7.1767E+00 8.3443E-02                      1021200200163 
 9.7674E-01 1.2590E-03 6.8918E+00 8.3329E-02                      1021200200164 
 9.7874E-01 1.2580E-03 7.0232E+00 8.3244E-02                      1021200200165 
 9.8074E-01 0.0000E+00 7.0042E+00 8.3427E-02                      1021200200166 
 9.8274E-01 1.2560E-03 7.1717E+00 8.3099E-02                      1021200200167 
 9.8474E-01 1.2550E-03 7.1306E+00 8.3396E-02                      1021200200168 
 9.8674E-01 1.2540E-03 7.1267E+00 8.3368E-02                      1021200200169 
 9.8875E-01 1.2530E-03 7.3270E+00 8.3233E-02                      1021200200170 
 9.9075E-01 1.2520E-03 7.1140E+00 8.3065E-02                      1021200200171 
 9.9275E-01 1.2510E-03 6.9482E+00 8.3141E-02                      1021200200172 
 9.9475E-01 1.2500E-03 7.1979E+00 8.3147E-02                      1021200200173 
 9.9675E-01 1.2490E-03 7.0052E+00 8.3250E-02                      1021200200174 
 9.9875E-01 1.2480E-03 7.0653E+00 8.3086E-02                      1021200200175 
 1.0008E+00 1.2470E-03 7.0610E+00 8.3105E-02                      1021200200176 
 1.0028E+00 1.2460E-03 7.1048E+00 8.2738E-02                      1021200200177 
 1.0048E+00 1.2450E-03 7.1745E+00 8.2862E-02                      1021200200178 
 1.0068E+00 1.2440E-03 7.0859E+00 8.2913E-02                      1021200200179 
 1.0088E+00 1.2430E-03 7.0573E+00 8.2717E-02                      1021200200180 
 1.0108E+00 1.2420E-03 7.1892E+00 8.2797E-02                      1021200200181 
 1.0128E+00 1.2410E-03 6.7967E+00 8.2863E-02                      1021200200182 
 1.0148E+00 1.2400E-03 7.0678E+00 8.2753E-02                      1021200200183 
 1.0168E+00 1.2390E-03 7.2803E+00 8.2846E-02                      1021200200184 
 1.0188E+00 1.2380E-03 6.7304E+00 8.2537E-02                      1021200200185 
 1.0208E+00 1.2370E-03 6.9625E+00 8.2977E-02                      1021200200186 
 1.0228E+00 1.2360E-03 6.9692E+00 8.2616E-02                      1021200200187 
 1.0248E+00 1.2350E-03 7.2055E+00 8.2905E-02                      1021200200188 
 1.0288E+00 1.2330E-03 7.1051E+00 5.8709E-02                      1021200200189 
 1.0308E+00 1.2320E-03 7.1105E+00 8.2525E-02                      1021200200190 
 1.0328E+00 1.2310E-03 7.0385E+00 8.2815E-02                      1021200200191 
 1.0368E+00 1.2290E-03 7.0163E+00 8.2809E-02                      1021200200192 
 1.0377E+00 1.2300E-03 7.1495E+00 8.2715E-02                      1021200200193 
 1.0388E+00 1.2280E-03 7.2018E+00 8.2588E-02                      1021200200194 
 1.0408E+00 1.2270E-03 6.9841E+00 8.2480E-02                      1021200200195 
 1.0428E+00 1.2260E-03 6.9588E+00 8.2356E-02                      1021200200196 
 1.0448E+00 1.2250E-03 6.8734E+00 8.2389E-02                      1021200200197 
 1.0468E+00 1.2240E-03 7.0326E+00 8.2227E-02                      1021200200198 
 1.0488E+00 1.2230E-03 6.9807E+00 8.2594E-02                      1021200200199 
 1.0508E+00 1.2220E-03 7.0220E+00 8.2458E-02                      1021200200200 
 1.0528E+00 1.2210E-03 6.8844E+00 8.2387E-02                      1021200200201 
 1.0548E+00 1.2200E-03 7.1138E+00 8.2374E-02                      1021200200202 
 1.0568E+00 1.2190E-03 6.9770E+00 8.2504E-02                      1021200200203 
 1.0588E+00 1.2180E-03 6.9647E+00 8.2541E-02                      1021200200204 
 1.0608E+00 1.2170E-03 7.1643E+00 8.2277E-02                      1021200200205 
 1.0628E+00 1.2160E-03 7.2055E+00 8.2339E-02                      1021200200206 
 1.0648E+00 1.2160E-03 7.2624E+00 8.2497E-02                      1021200200207 
 1.0668E+00 1.2150E-03 7.0955E+00 8.2122E-02                      1021200200208 
 1.0688E+00 1.2140E-03 6.7854E+00 8.2321E-02                      1021200200209 
 1.0728E+00 1.2120E-03 7.2568E+00 8.2265E-02                      1021200200210 
 1.0748E+00 1.2110E-03 7.1250E+00 8.2288E-02                      1021200200211 
 1.0768E+00 1.2100E-03 7.0929E+00 8.2335E-02                      1021200200212 
 1.0788E+00 1.2090E-03 7.0787E+00 8.2032E-02                      1021200200213 
 1.0808E+00 1.2080E-03 6.8146E+00 8.2310E-02                      1021200200214 
 1.0828E+00 1.2070E-03 7.0854E+00 8.1923E-02                      1021200200215 
 1.0848E+00 1.2060E-03 7.0866E+00 8.2173E-02                      1021200200216 
 1.0868E+00 1.2050E-03 6.9773E+00 8.2346E-02                      1021200200217 
 1.0888E+00 1.2040E-03 6.9632E+00 8.2108E-02                      1021200200218 
 1.0908E+00 1.2030E-03 6.9326E+00 8.2244E-02                      1021200200219 
 1.0928E+00 1.2020E-03 7.0713E+00 8.2027E-02                      1021200200220 
 1.0948E+00 1.2020E-03 6.9637E+00 8.2115E-02                      1021200200221 
 1.0968E+00 1.2010E-03 6.9875E+00 8.2087E-02                      1021200200222 
 1.0988E+00 1.2000E-03 6.8629E+00 8.1934E-02                      1021200200223 
 1.1008E+00 1.1990E-03 7.0256E+00 8.2008E-02                      1021200200224 
 1.1028E+00 1.1980E-03 6.9632E+00 8.1995E-02                      1021200200225 
 1.1048E+00 1.1970E-03 6.9458E+00 8.1906E-02                      1021200200226 
 1.1068E+00 1.1960E-03 6.8788E+00 8.2045E-02                      1021200200227 
 1.1088E+00 1.1950E-03 7.0660E+00 8.1927E-02                      1021200200228 
 1.1108E+00 1.1940E-03 7.0468E+00 8.2026E-02                      1021200200229 
 1.1128E+00 1.1930E-03 6.9721E+00 8.1764E-02                      1021200200230 
 1.1148E+00 1.1920E-03 7.1080E+00 8.2169E-02                      1021200200231 
 1.1168E+00 1.1910E-03 7.0195E+00 8.1961E-02                      1021200200232 
 1.1188E+00 1.1910E-03 6.8894E+00 8.1851E-02                      1021200200233 
 1.1208E+00 1.1900E-03 6.9559E+00 2.8883E-02                      1021200200234 
 1.1228E+00 1.1890E-03 6.9479E+00 8.1894E-02                      1021200200235 
 1.1248E+00 1.1880E-03 6.9027E+00 8.1752E-02                      1021200200236 
 1.1268E+00 1.1870E-03 7.1009E+00 8.1704E-02                      1021200200237 
 1.1288E+00 1.1860E-03 7.1538E+00 8.1718E-02                      1021200200238 
 1.1308E+00 1.1850E-03 7.1611E+00 8.1909E-02                      1021200200239 
 1.1328E+00 1.1840E-03 7.1596E+00 8.1950E-02                      1021200200240 
 1.1348E+00 1.1830E-03 6.9490E+00 8.1771E-02                      1021200200241 
 1.1368E+00 1.1820E-03 6.9524E+00 8.1729E-02                      1021200200242 
 1.1388E+00 1.1820E-03 6.9441E+00 8.1700E-02                      1021200200243 
 1.1408E+00 1.1810E-03 7.0419E+00 8.1682E-02                      1021200200244 
 1.1428E+00 1.1800E-03 7.0175E+00 8.1672E-02                      1021200200245 
 1.1448E+00 1.1790E-03 6.9407E+00 8.1655E-02                      1021200200246 
 1.1468E+00 1.1780E-03 7.0585E+00 8.1604E-02                      1021200200247 
 1.1488E+00 1.1770E-03 6.9223E+00 8.1589E-02                      1021200200248 
 1.1508E+00 1.1760E-03 7.2732E+00 8.1574E-02                      1021200200249 
 1.1528E+00 1.1750E-03 6.8361E+00 8.1662E-02                      1021200200250 
 1.1548E+00 1.1740E-03 7.0084E+00 8.1549E-02                      1021200200251 
 1.1948E+00 1.1570E-03 6.7877E+00 8.1274E-02                      1021200200252 
 1.1968E+00 1.1560E-03 6.9956E+00 8.1247E-02                      1021200200253 
 1.1988E+00 1.1550E-03 6.7772E+00 8.1466E-02                      1021200200254 
 1.2008E+00 1.1540E-03 6.7874E+00 8.1460E-02                      1021200200255 
 1.2028E+00 1.1540E-03 7.1436E+00 8.1263E-02                      1021200200256 
 1.2048E+00 1.1530E-03 6.9509E+00 8.1296E-02                      1021200200257 
 1.2068E+00 1.1520E-03 6.6901E+00 8.1441E-02                      1021200200258 
 1.2088E+00 1.1510E-03 6.9183E+00 8.1333E-02                      1021200200259 
 1.2108E+00 1.1500E-03 7.0493E+00 8.1153E-02                      1021200200260 
 1.2128E+00 1.1490E-03 7.1091E+00 8.1076E-02                      1021200200261 
 1.2149E+00 1.1490E-03 6.9236E+00 8.1042E-02                      1021200200262 
 1.2169E+00 1.1480E-03 6.9305E+00 8.1112E-02                      1021200200263 
 1.2189E+00 1.1470E-03 6.8932E+00 8.1054E-02                      1021200200264 
 1.2209E+00 1.1460E-03 6.8984E+00 8.1290E-02                      1021200200265 
 1.2229E+00 1.1450E-03 6.8929E+00 8.1136E-02                      1021200200266 
 1.2249E+00 1.1440E-03 7.0491E+00 8.1207E-02                      1021200200267 
 1.2269E+00 1.1430E-03 7.0137E+00 8.1114E-02                      1021200200268 
 1.2289E+00 1.1430E-03 7.0519E+00 8.1167E-02                      1021200200269 
 1.2309E+00 1.1420E-03 6.7328E+00 8.1292E-02                      1021200200270 
 1.2329E+00 1.1410E-03 6.9125E+00 8.1022E-02                      1021200200271 
 1.2349E+00 1.1400E-03 6.8102E+00 8.1034E-02                      1021200200272 
 1.2369E+00 1.1390E-03 6.8482E+00 8.1115E-02                      1021200200273 
 1.2389E+00 1.1380E-03 7.1330E+00 8.1101E-02                      1021200200274 
 1.2409E+00 1.1380E-03 6.8955E+00 8.0970E-02                      1021200200275 
 1.2429E+00 1.1370E-03 6.8246E+00 8.1035E-02                      1021200200276 
 1.2449E+00 1.1360E-03 6.9880E+00 8.0878E-02                      1021200200277 
 1.2469E+00 1.1350E-03 6.7544E+00 8.0970E-02                      1021200200278 
 1.2489E+00 1.1340E-03 7.0437E+00 8.1085E-02                      1021200200279 
 1.2509E+00 1.1330E-03 6.9241E+00 8.0941E-02                      1021200200280 
 1.2529E+00 1.1330E-03 6.7467E+00 8.0851E-02                      1021200200281 
 1.2549E+00 1.1320E-03 6.8666E+00 8.0814E-02                      1021200200282 
 1.2569E+00 1.1310E-03 6.8493E+00 8.0796E-02                      1021200200283 
 1.2589E+00 1.1300E-03 6.8374E+00 8.1042E-02                      1021200200284 
 1.2609E+00 1.1290E-03 6.7452E+00 8.1075E-02                      1021200200285 
 1.2629E+00 1.1290E-03 7.0999E+00 8.0948E-02                      1021200200286 
 1.2649E+00 1.1280E-03 6.8806E+00 8.0901E-02                      1021200200287 
 1.2669E+00 1.1270E-03 7.1781E+00 8.0957E-02                      1021200200288 
 1.2689E+00 1.1260E-03 6.8371E+00 8.1100E-02                      1021200200289 
 1.2709E+00 1.1250E-03 6.8035E+00 8.0902E-02                      1021200200290 
 1.2729E+00 1.1240E-03 6.7803E+00 8.0843E-02                      1021200200291 
 1.2749E+00 1.1240E-03 6.9288E+00 8.0941E-02                      1021200200292 
 1.2769E+00 1.1230E-03 7.0896E+00 8.0934E-02                      1021200200293 
 1.2789E+00 1.1220E-03 6.8275E+00 8.0966E-02                      1021200200294 
 1.2809E+00 1.1210E-03 7.0248E+00 8.0771E-02                      1021200200295 
 1.2829E+00 1.1200E-03 6.9099E+00 8.0887E-02                      1021200200296 
 1.2849E+00 1.1200E-03 6.9538E+00 8.0871E-02                      1021200200297 
 1.2869E+00 1.1190E-03 6.9570E+00 8.0921E-02                      1021200200298 
 1.2889E+00 1.1180E-03 6.9499E+00 8.0642E-02                      1021200200299 
 1.2909E+00 1.1170E-03 6.9259E+00 8.0726E-02                      1021200200300 
 1.2929E+00 1.1160E-03 6.8074E+00 8.0727E-02                      1021200200301 
 1.2949E+00 1.1160E-03 6.8893E+00 8.0717E-02                      1021200200302 
 1.2969E+00 1.1150E-03 6.7705E+00 8.0743E-02                      1021200200303 
 1.2989E+00 1.1140E-03 7.1150E+00 8.0700E-02                      1021200200304 
 1.3009E+00 1.1130E-03 7.0249E+00 8.0882E-02                      1021200200305 
 1.3029E+00 1.1120E-03 7.0031E+00 8.0869E-02                      1021200200306 
 1.3049E+00 1.1110E-03 6.9205E+00 8.0647E-02                      1021200200307 
 1.3069E+00 1.1110E-03 7.2068E+00 8.0853E-02                      1021200200308 
 1.3089E+00 1.1100E-03 7.1292E+00 8.0659E-02                      1021200200309 
 1.3109E+00 1.1090E-03 6.9921E+00 8.0548E-02                      1021200200310 
 1.3129E+00 1.1080E-03 6.7904E+00 8.0591E-02                      1021200200311 
 1.3149E+00 1.1080E-03 7.1022E+00 8.0727E-02                      1021200200312 
 1.3169E+00 1.1070E-03 6.8982E+00 8.0762E-02                      1021200200313 
 1.3189E+00 1.1060E-03 6.8767E+00 8.0699E-02                      1021200200314 
 1.3209E+00 1.1050E-03 6.8931E+00 8.0861E-02                      1021200200315 
 1.3229E+00 1.1040E-03 6.8653E+00 8.0761E-02                      1021200200316 
 1.3249E+00 1.1040E-03 6.9198E+00 8.0829E-02                      1021200200317 
 1.3269E+00 1.1030E-03 7.1609E+00 8.0732E-02                      1021200200318 
 1.3289E+00 1.1020E-03 6.4781E+00 8.0483E-02                      1021200200319 
 1.3309E+00 1.1010E-03 7.1164E+00 8.0458E-02                      1021200200320 
 1.3329E+00 1.1000E-03 6.7611E+00 8.0413E-02                      1021200200321 
 1.3349E+00 1.1000E-03 7.0058E+00 8.0609E-02                      1021200200322 
 1.3369E+00 1.0990E-03 6.7747E+00 8.0437E-02                      1021200200323 
 1.3389E+00 1.0980E-03 7.0165E+00 8.0588E-02                      1021200200324 
 1.3409E+00 1.0970E-03 7.0383E+00 8.0651E-02                      1021200200325 
 1.3429E+00 1.0960E-03 6.9823E+00 8.0515E-02                      1021200200326 
 1.3449E+00 1.0960E-03 7.2919E+00 8.0723E-02                      1021200200327 
 1.3469E+00 1.0950E-03 6.7302E+00 8.0448E-02                      1021200200328 
 1.3489E+00 1.0940E-03 6.7165E+00 8.0411E-02                      1021200200329 
 1.3509E+00 1.0930E-03 6.9375E+00 8.0595E-02                      1021200200330 
 1.3529E+00 1.0930E-03 7.4820E+00 8.0508E-02                      1021200200331 
 1.3549E+00 1.0920E-03 6.7869E+00 8.0169E-02                      1021200200332 
 1.3569E+00 1.0910E-03 6.9017E+00 8.0309E-02                      1021200200333 
 1.3589E+00 1.0900E-03 6.6561E+00 8.0323E-02                      1021200200334 
 1.3609E+00 1.0890E-03 7.0081E+00 8.0464E-02                      1021200200335 
 1.3629E+00 1.0890E-03 6.9664E+00 8.0299E-02                      1021200200336 
 1.3649E+00 1.0880E-03 6.9509E+00 8.0467E-02                      1021200200337 
 1.3669E+00 1.0870E-03 6.9871E+00 8.0198E-02                      1021200200338 
 1.3689E+00 1.0860E-03 7.0805E+00 8.0132E-02                      1021200200339 
 1.3709E+00 1.0860E-03 7.0106E+00 8.0253E-02                      1021200200340 
 1.3729E+00 1.0850E-03 7.1330E+00 8.0312E-02                      1021200200341 
 1.3749E+00 1.0840E-03 6.8848E+00 8.0306E-02                      1021200200342 
 1.3769E+00 1.0830E-03 6.6621E+00 8.0258E-02                      1021200200343 
 1.3789E+00 1.0830E-03 6.9803E+00 8.0429E-02                      1021200200344 
 1.3809E+00 1.0820E-03 6.9203E+00 8.0251E-02                      1021200200345 
 1.3829E+00 1.0810E-03 6.8950E+00 8.0416E-02                      1021200200346 
 1.3849E+00 1.0800E-03 7.0311E+00 8.0183E-02                      1021200200347 
 1.3869E+00 1.0800E-03 7.1924E+00 8.0290E-02                      1021200200348 
 1.3889E+00 1.0790E-03 7.0524E+00 8.0203E-02                      1021200200349 
 1.3909E+00 1.0780E-03 6.8012E+00 8.3567E-02                      1021200200350 
 1.3929E+00 1.0770E-03 6.7876E+00 8.3729E-02                      1021200200351 
 1.3949E+00 1.0760E-03 7.0065E+00 8.3669E-02                      1021200200352 
 1.3969E+00 1.0760E-03 7.1176E+00 8.3555E-02                      1021200200353 
 1.3989E+00 1.0750E-03 6.9521E+00 8.3625E-02                      1021200200354 
 1.4009E+00 1.0740E-03 7.1699E+00 8.3595E-02                      1021200200355 
 1.4029E+00 1.0730E-03 6.8386E+00 8.3492E-02                      1021200200356 
 1.4049E+00 1.0730E-03 6.9593E+00 8.3486E-02                      1021200200357 
 1.4069E+00 1.0720E-03 6.9655E+00 8.3377E-02                      1021200200358 
 1.4089E+00 1.0710E-03 6.9881E+00 8.3330E-02                      1021200200359 
 1.4109E+00 1.0700E-03 6.9947E+00 8.3282E-02                      1021200200360 
 1.4129E+00 1.0700E-03 7.1294E+00 8.3636E-02                      1021200200361 
 1.4149E+00 1.0690E-03 7.0722E+00 8.3593E-02                      1021200200362 
 1.4169E+00 1.0680E-03 7.2445E+00 8.3530E-02                      1021200200363 
 1.4189E+00 1.0670E-03 7.1184E+00 8.3430E-02                      1021200200364 
 1.4209E+00 1.0670E-03 6.8225E+00 8.3405E-02                      1021200200365 
 1.4229E+00 1.0660E-03 6.7100E+00 8.2816E-02                      1021200200366 
 1.4249E+00 1.0650E-03 7.1281E+00 8.3331E-02                      1021200200367 
 1.4269E+00 1.0640E-03 7.1661E+00 8.3429E-02                      1021200200368 
 1.4289E+00 1.0640E-03 6.9446E+00 8.2997E-02                      1021200200369 
 1.4309E+00 1.0630E-03 7.0417E+00 8.3490E-02                      1021200200370 
 1.4329E+00 1.0620E-03 7.0239E+00 8.3285E-02                      1021200200371 
 1.4349E+00 1.0620E-03 6.9217E+00 8.2923E-02                      1021200200372 
 1.4369E+00 1.0610E-03 6.7495E+00 8.3301E-02                      1021200200373 
 1.4389E+00 1.0600E-03 6.8561E+00 8.3377E-02                      1021200200374 
 1.4409E+00 1.0590E-03 6.9390E+00 8.2977E-02                      1021200200375 
 1.4429E+00 1.0590E-03 6.9898E+00 8.2649E-02                      1021200200376 
 1.4449E+00 1.0580E-03 7.0740E+00 8.2713E-02                      1021200200377 
 1.4469E+00 1.0570E-03 7.2187E+00 8.3024E-02                      1021200200378 
 1.4489E+00 1.0560E-03 7.1771E+00 8.2931E-02                      1021200200379 
 1.4529E+00 1.0550E-03 6.9350E+00 8.2772E-02                      1021200200380 
 1.4549E+00 1.0540E-03 7.0517E+00 8.3015E-02                      1021200200381 
 1.4569E+00 1.0530E-03 7.1548E+00 8.2958E-02                      1021200200382 
 1.4589E+00 1.0530E-03 7.0020E+00 8.3057E-02                      1021200200383 
 1.4609E+00 1.0520E-03 7.1822E+00 8.2464E-02                      1021200200384 
 1.4629E+00 1.0510E-03 7.0674E+00 8.2851E-02                      1021200200385 
 1.4649E+00 1.0510E-03 6.9264E+00 8.2707E-02                      1021200200386 
 1.4669E+00 1.0500E-03 7.0752E+00 8.2649E-02                      1021200200387 
 1.4690E+00 1.0490E-03 7.0005E+00 8.2699E-02                      1021200200388 
 1.4710E+00 1.0480E-03 7.3643E+00 8.2601E-02                      1021200200389 
 1.4730E+00 1.0480E-03 7.1484E+00 8.2594E-02                      1021200200390 
 1.4750E+00 1.0470E-03 7.0223E+00 8.2331E-02                      1021200200391 
 1.4770E+00 1.0460E-03 6.9875E+00 8.2502E-02                      1021200200392 
 1.4790E+00 1.0450E-03 7.1290E+00 8.2638E-02                      1021200200393 
 1.4810E+00 1.0450E-03 7.1211E+00 8.2389E-02                      1021200200394 
 1.4830E+00 1.0440E-03 6.8919E+00 8.2308E-02                      1021200200395 
 1.4850E+00 1.0430E-03 7.0614E+00 8.2388E-02                      1021200200396 
 1.4870E+00 1.0430E-03 7.0174E+00 8.2353E-02                      1021200200397 
 1.4890E+00 1.0420E-03 6.9910E+00 8.2502E-02                      1021200200398 
 1.4910E+00 1.0410E-03 7.0614E+00 8.2416E-02                      1021200200399 
 1.4930E+00 1.0400E-03 7.0894E+00 8.2488E-02                      1021200200400 
 1.4950E+00 1.0400E-03 6.8064E+00 8.2365E-02                      1021200200401 
 1.4970E+00 1.0390E-03 6.8614E+00 8.2304E-02                      1021200200402 
 1.4990E+00 1.0380E-03 7.0400E+00 8.1971E-02                      1021200200403 
ENDDATA            395          0                                 1021200200404 
ENDSUBENT          403          0                                 1021200299999 
SUBENT        10212003   20010305                             00001021200300001 
BIB                  8         10                                 1021200300002 
REACTION   ((94-PU-239(N,EL)94-PU-239,,SIG)+                      1021200300003 
           (94-PU-239(N,INL)94-PU-239,PAR,SIG))                   1021200300004 
METHOD     (TOF) Time-of-flight.                                  1021200300005 
MONITOR    (6-C-0(N,EL)6-C-0,,DA) relative to carbon elastic.     1021200300006 
MISC-COL   Flag to correlate with fitting coefficients.           1021200300007 
CORRECTION Corrected for multiple scattering.                     1021200300008 
ERR-ANALYS Estimated error on cross section 5-10%.                1021200300009 
STATUS     (COREL,10212004)                                       1021200300010 
HISTORY    (19830329A) Added E-LVL-MAX.                           1021200300011 
           (20010305A) Data sorted.                               1021200300012 
ENDBIB              10          0                                 1021200300013 
NOCOMMON             0          0                                 1021200300014 
DATA                 4        135                                 1021200300015 
EN         E-LVL-MAX  DATA       MISC                             1021200300016 
KEV        KEV        B          NO-DIM                           1021200300017 
   300.      7.8         8.15                                     1021200300018 
   325.      7.8         7.51    1.                               1021200300019 
   325.      7.8         7.14    2.                               1021200300020 
   350.      7.8         7.85                                     1021200300021 
   375.      7.8         7.22    1.                               1021200300022 
   375.      7.8         6.83    2.                               1021200300023 
   375.      7.8         6.40    3.                               1021200300024 
   375.      7.8         6.80    4.                               1021200300025 
   400.      7.8         6.80    1.                               1021200300026 
   400.      7.8         7.23    2.                               1021200300027 
   400.      7.8         6.57    3.                               1021200300028 
   420.      7.8         7.19                                     1021200300029 
   425.      7.8         7.01    1.                               1021200300030 
   425.      7.8         7.13    2.                               1021200300031 
   425.      7.8         6.43    3.                               1021200300032 
   440.      7.8         7.35                                     1021200300033 
   450.      7.8         6.97    1.                               1021200300034 
   450.      7.8         6.18    2.                               1021200300035 
   450.      7.8         6.43    3.                               1021200300036 
   475.      7.8         6.91    1.                               1021200300037 
   475.      7.8         6.97    2.                               1021200300038 
   475.      7.8         6.71    3.                               1021200300039 
   500.      7.8         7.00    1.                               1021200300040 
   500.      7.8         6.21    2.                               1021200300041 
   500.      7.8         6.54    3.                               1021200300042 
   500.      7.8         5.92    4.                               1021200300043 
   520.      7.8         6.66                                     1021200300044 
   525.      7.8         6.37    1.                               1021200300045 
   525.      7.8         6.12    2.                               1021200300046 
   525.      7.8         6.07    3.                               1021200300047 
   540.      7.8         6.42                                     1021200300048 
   550.     57.          6.09    1.                               1021200300049 
   550.     57.          6.05    2.                               1021200300050 
   550.     57.          6.17    3.                               1021200300051 
   560.     57.          6.09                                     1021200300052 
   575.     57.          5.53    1.                               1021200300053 
   575.     57.          6.17    2.                               1021200300054 
   575.     57.          5.41    3.                               1021200300055 
   580.     57.          6.21                                     1021200300056 
   600.     57.          5.89    1.                               1021200300057 
   600.     57.          5.83    2.                               1021200300058 
   600.     57.          5.72    3.                               1021200300059 
   600.     57.          5.79    4.                               1021200300060 
   600.     57.          5.82    5.                               1021200300061 
   620.     57.          6.10                                     1021200300062 
   625.     57.          5.41    1.                               1021200300063 
   625.     57.          5.63    2.                               1021200300064 
   625.     57.          5.30    3.                               1021200300065 
   640.     57.          5.51                                     1021200300066 
   650.     57.          5.52    1.                               1021200300067 
   650.     57.          5.40    2.                               1021200300068 
   650.     57.          5.26    3.                               1021200300069 
   660.     57.          5.47                                     1021200300070 
   675.     57.          5.34    1.                               1021200300071 
   675.     57.          5.67    2.                               1021200300072 
   675.     57.          5.33    3.                               1021200300073 
   680.     57.          5.51                                     1021200300074 
   700.     57.          5.34    1.                               1021200300075 
   700.     57.          5.62    2.                               1021200300076 
   720.     57.          5.20                                     1021200300077 
   725.     57.          4.89    1.                               1021200300078 
   725.     57.          5.38    2.                               1021200300079 
   725.     57.          5.10    3.                               1021200300080 
   740.     57.          4.61                                     1021200300081 
   750.     57.          5.01    1.                               1021200300082 
   750.     57.          4.86    2.                               1021200300083 
   750.     57.          4.92    3.                               1021200300084 
   760.     57.          4.76                                     1021200300085 
   775.     57.          5.97    1.                               1021200300086 
   775.     57.          5.29    2.                               1021200300087 
   775.     57.          4.67    3.                               1021200300088 
   775.     57.          5.16    4.                               1021200300089 
   800.     57.          4.39    1.                               1021200300090 
   800.     57.          5.05    2.                               1021200300091 
   800.     57.          4.36    3.                               1021200300092 
   825.     57.          4.45    1.                               1021200300093 
   825.     57.          4.73    2.                               1021200300094 
   825.     57.          4.22    3.                               1021200300095 
   850.     57.          4.48    1.                               1021200300096 
   850.     57.          4.66    2.                               1021200300097 
   850.     57.          4.91    3.                               1021200300098 
   855.     57.          4.77                                     1021200300099 
   875.     57.          4.80    1.                               1021200300100 
   875.     57.          4.69    2.                               1021200300101 
   875.     57.          4.64    3.                               1021200300102 
   900.     57.          4.68    1.                               1021200300103 
   900.     57.          4.75    2.                               1021200300104 
   900.     57.          4.83    3.                               1021200300105 
   925.     76.          4.56                                     1021200300106 
   950.     76.          4.50    1.                               1021200300107 
   950.     76.          4.48    2.                               1021200300108 
   950.     76.          4.79    3.                               1021200300109 
   975.     76.          4.51    1.                               1021200300110 
   975.     76.          4.35    2.                               1021200300111 
  1000.     76.          4.38    1.                               1021200300112 
  1000.     76.          4.22    2.                               1021200300113 
  1025.     76.          4.60    1.                               1021200300114 
  1025.     76.          4.53    2.                               1021200300115 
  1025.     76.          4.17    3.                               1021200300116 
  1050.     76.          4.09    1.                               1021200300117 
  1050.     76.          4.43    2.                               1021200300118 
  1075.     76.          4.38    1.                               1021200300119 
  1075.     76.          4.54    2.                               1021200300120 
  1075.     76.          4.53    3.                               1021200300121 
  1075.     76.          4.57    4.                               1021200300122 
  1100.     76.          4.76                                     1021200300123 
  1125.     76.          3.88    1.                               1021200300124 
  1125.     76.          4.47    2.                               1021200300125 
  1125.     76.          3.91    3.                               1021200300126 
  1150.     76.          4.87    1.                               1021200300127 
  1150.     76.          4.38    2.                               1021200300128 
  1175.     76.          4.67    1.                               1021200300129 
  1175.     76.          4.51    2.                               1021200300130 
  1200.     76.          4.78    1.                               1021200300131 
  1200.     76.          3.39    2.                               1021200300132 
  1250.     76.          4.59    1.                               1021200300133 
  1250.     76.          4.10    2.                               1021200300134 
  1275.     76.          4.45    1.                               1021200300135 
  1275.     76.          4.10    2.                               1021200300136 
  1325.     76.          4.16    1.                               1021200300137 
  1325.     76.          3.44    2.                               1021200300138 
  1375.     76.          4.37    1.                               1021200300139 
  1375.     76.          3.56    2.                               1021200300140 
  1375.     76.          4.27    3.                               1021200300141 
  1400.     76.          3.40    1.                               1021200300142 
  1400.     76.          4.76    2.                               1021200300143 
  1400.     76.          4.49    3.                               1021200300144 
  1425.     76.          4.32    1.                               1021200300145 
  1425.     76.          3.58    2.                               1021200300146 
  1425.     76.          4.14    3.                               1021200300147 
  1450.     76.          4.29    1.                               1021200300148 
  1450.     76.          3.72    2.                               1021200300149 
  1450.     76.          4.11    3.                               1021200300150 
  1500.     76.          3.95    1.                               1021200300151 
  1500.     76.          4.73    2.                               1021200300152 
ENDDATA            137          0                                 1021200300153 
ENDSUBENT          152          0                                 1021200399999 
SUBENT        10212004   20010305                             00001021200400001 
BIB                  9         12                                 1021200400002 
REACTION   ((94-PU-239(N,EL)94-PU-239,,DA,,LEG/RS)+               1021200400003 
           (94-PU-239(N,INL)94-PU-239,PAR,DA,,LEG/RS))            1021200400004 
METHOD     (TOF) Time-of-flight.                                  1021200400005 
ANALYSIS   Least-squares fit to elastic cross section             1021200400006 
            measured at 8 angles in angular range 25-155 degrees  1021200400007 
MONITOR    (6-C-12(N,EL)6-C-12,,DA)                               1021200400008 
MISC-COL   Flag to link coefficients with elastic cross section.  1021200400009 
CORRECTION Corrected for multiple scattering.                     1021200400010 
ERR-ANALYS (DATA-ERR) No information on source of uncertainty.    1021200400011 
STATUS     (COREL,10212003)                                       1021200400012 
HISTORY    (19760205A) BIB correction                             1021200400013 
           (19830329A) REACTION, data table corrected.            1021200400014 
ENDBIB              12          0                                 1021200400015 
NOCOMMON             0          0                                 1021200400016 
DATA                 6        675                                 1021200400017 
EN         E-LVL-MAX  NUMBER     DATA       DATA-ERR   MISC       1021200400018 
KEV        KEV        NO-DIM     NO-DIM     NO-DIM     NO-DIM     1021200400019 
   300.      7.8       1.          0.969      0.040               1021200400020 
   300.      7.8       2.          0.442      0.059               1021200400021 
   300.      7.8       3.          0.174      0.071               1021200400022 
   300.      7.8       4.          0.276      0.097               1021200400023 
   300.      7.8       5.          0.000      0.000               1021200400024 
   325.      7.8       1.          1.110      0.052    1.         1021200400025 
   325.      7.8       1.          0.903      0.016    2.         1021200400026 
   325.      7.8       2.          0.586      0.077    1.         1021200400027 
   325.      7.8       2.          0.287      0.023    2.         1021200400028 
   325.      7.8       3.          0.415      0.092    1.         1021200400029 
   325.      7.8       3.          0.106      0.028    2.         1021200400030 
   325.      7.8       4.          0.042      0.126    1.         1021200400031 
   325.      7.8       4.         -0.003      0.038    2.         1021200400032 
   325.      7.8       5.          0.000      0.000    1.         1021200400033 
   325.      7.8       5.          0.000      0.000    2.         1021200400034 
   350.      7.8       1.          1.087      0.093               1021200400035 
   350.      7.8       2.          0.688      0.136               1021200400036 
   350.      7.8       3.          0.380      0.163               1021200400037 
   350.      7.8       4.          0.160      0.224               1021200400038 
   350.      7.8       5.          0.000      0.000               1021200400039 
   375.      7.8       1.          0.955      0.074    1.         1021200400040 
   375.      7.8       1.          1.054      0.097    2.         1021200400041 
   375.      7.8       1.          1.062      0.060    3.         1021200400042 
   375.      7.8       1.          1.062      0.060    4.         1021200400043 
   375.      7.8       2.          0.468      0.109    1.         1021200400044 
   375.      7.8       2.          0.855      0.122    2.         1021200400045 
   375.      7.8       2.          0.496      0.088    3.         1021200400046 
   375.      7.8       2.          0.496      0.088    4.         1021200400047 
   375.      7.8       3.          0.107      0.130    1.         1021200400048 
   375.      7.8       3.          0.416      0.189    2.         1021200400049 
   375.      7.8       3.          0.028      0.106    3.         1021200400050 
   375.      7.8       3.          0.228      0.106    4.         1021200400051 
   375.      7.8       4.         -0.257      0.178    1.         1021200400052 
   375.      7.8       4.          0.319      0.203    2.         1021200400053 
   375.      7.8       4.         -0.162      0.145    3.         1021200400054 
   375.      7.8       4.          0.000      0.145    4.         1021200400055 
   375.      7.8       5.          0.000      0.000    1.         1021200400056 
   375.      7.8       5.          0.087      0.275    2.         1021200400057 
   375.      7.8       5.          0.000      0.000    3.         1021200400058 
   375.      7.8       5.          0.000      0.000    4.         1021200400059 
   400.      7.8       1.          1.119      0.081    1.         1021200400060 
   400.      7.8       1.          1.114      0.036    2.         1021200400061 
   400.      7.8       1.          1.066      0.039    3.         1021200400062 
   400.      7.8       2.          0.561      0.119    1.         1021200400063 
   400.      7.8       2.          0.855      0.046    2.         1021200400064 
   400.      7.8       2.          0.458      0.058    3.         1021200400065 
   400.      7.8       3.          0.130      0.142    1.         1021200400066 
   400.      7.8       3.          0.288      0.071    2.         1021200400067 
   400.      7.8       3.          0.015      0.069    3.         1021200400068 
   400.      7.8       4.         -0.218      0.195    1.         1021200400069 
   400.      7.8       4.          0.360      0.076    2.         1021200400070 
   400.      7.8       4.         -0.191      0.095    3.         1021200400071 
   400.      7.8       5.          0.000      0.000    1.         1021200400072 
   400.      7.8       5.          0.032      0.103    2.         1021200400073 
   400.      7.8       5.          0.000      0.000    3.         1021200400074 
   420.      7.8       1.          1.138      0.031               1021200400075 
   420.      7.8       2.          0.736      0.046               1021200400076 
   420.      7.8       3.          0.431      0.055               1021200400077 
   420.      7.8       4.         -0.170      0.076               1021200400078 
   420.      7.8       5.          0.000      0.000               1021200400079 
   425.      7.8       1.          1.145      0.044    1.         1021200400080 
   425.      7.8       1.          1.124      0.052    2.         1021200400081 
   425.      7.8       1.          1.170      0.038    3.         1021200400082 
   425.      7.8       2.          0.581      0.064    1.         1021200400083 
   425.      7.8       2.          0.565      0.065    2.         1021200400084 
   425.      7.8       2.          0.686      0.056    3.         1021200400085 
   425.      7.8       3.          0.210      0.077    1.         1021200400086 
   425.      7.8       3.          0.358      0.101    2.         1021200400087 
   425.      7.8       3.          0.301      0.067    3.         1021200400088 
   425.      7.8       4.          0.001      0.105    1.         1021200400089 
   425.      7.8       4.         -0.026      0.108    2.         1021200400090 
   425.      7.8       4.          0.000      0.092    3.         1021200400091 
   425.      7.8       5.          0.000      0.000    1.         1021200400092 
   425.      7.8       5.          0.133      0.147    2.         1021200400093 
   425.      7.8       5.          0.000      0.000    3.         1021200400094 
   440.      7.8       1.          1.101      0.010               1021200400095 
   440.      7.8       2.          0.683      0.015               1021200400096 
   440.      7.8       3.          0.330      0.018               1021200400097 
   440.      7.8       4.          0.125      0.025               1021200400098 
   440.      7.8       5.          0.000      0.000               1021200400099 
   450.      7.8       1.          1.278      0.034    1.         1021200400100 
   450.      7.8       1.          1.199      0.008    2.         1021200400101 
   450.      7.8       1.          1.175      0.015    3.         1021200400102 
   450.      7.8       2.          0.854      0.042    1.         1021200400103 
   450.      7.8       2.          0.759      0.011    2.         1021200400104 
   450.      7.8       2.          0.689      0.021    3.         1021200400105 
   450.      7.8       3.          0.443      0.067    1.         1021200400106 
   450.      7.8       3.          0.414      0.017    2.         1021200400107 
   450.      7.8       3.          0.228      0.026    3.         1021200400108 
   450.      7.8       4.          0.035      0.070    1.         1021200400109 
   450.      7.8       4.          0.116      0.018    2.         1021200400110 
   450.      7.8       4.         -0.091      0.035    3.         1021200400111 
   450.      7.8       5.          0.138      0.095    1.         1021200400112 
   450.      7.8       5.          0.242      0.024    2.         1021200400113 
   450.      7.8       5.          0.000      0.000    3.         1021200400114 
   475.      7.8       1.          1.230      0.051    1.         1021200400115 
   475.      7.8       1.          1.086      0.025    2.         1021200400116 
   475.      7.8       1.          1.179      0.052    3.         1021200400117 
   475.      7.8       2.          0.855      0.075    1.         1021200400118 
   475.      7.8       2.          0.743      0.032    2.         1021200400119 
   475.      7.8       2.          0.806      0.077    3.         1021200400120 
   475.      7.8       3.          0.406      0.090    1.         1021200400121 
   475.      7.8       3.          0.345      0.049    2.         1021200400122 
   475.      7.8       3.          0.378      0.091    3.         1021200400123 
   475.      7.8       4.          0.186      0.123    1.         1021200400124 
   475.      7.8       4.          0.214      0.052    2.         1021200400125 
   475.      7.8       4.          0.151      0.126    3.         1021200400126 
   475.      7.8       5.          0.000      0.000    1.         1021200400127 
   475.      7.8       5.          0.033      0.071    2.         1021200400128 
   475.      7.8       5.          0.000      0.000    3.         1021200400129 
   500.      7.8       1.          1.167      0.015    1.         1021200400130 
   500.      7.8       1.          1.167      0.014    2.         1021200400131 
   500.      7.8       1.          1.202      0.076    3.         1021200400132 
   500.      7.8       1.          1.219      0.018    4.         1021200400133 
   500.      7.8       2.          0.753      0.023    1.         1021200400134 
   500.      7.8       2.          0.819      0.020    2.         1021200400135 
   500.      7.8       2.          0.922      0.096    3.         1021200400136 
   500.      7.8       2.          0.854      0.026    4.         1021200400137 
   500.      7.8       3.          0.393      0.027    1.         1021200400138 
   500.      7.8       3.          0.352      0.024    2.         1021200400139 
   500.      7.8       3.          0.595      0.148    3.         1021200400140 
   500.      7.8       3.          0.384      0.031    4.         1021200400141 
   500.      7.8       4.          0.036      0.038    1.         1021200400142 
   500.      7.8       4.          0.073      0.034    2.         1021200400143 
   500.      7.8       4.          0.403      0.158    3.         1021200400144 
   500.      7.8       4.          0.059      0.043    4.         1021200400145 
   500.      7.8       5.          0.000      0.000    1.         1021200400146 
   500.      7.8       5.          0.000      0.000    2.         1021200400147 
   500.      7.8       5.          0.187      0.215    3.         1021200400148 
   500.      7.8       5.          0.000      0.000    4.         1021200400149 
   520.      7.8       1.          1.118      0.049               1021200400150 
   520.      7.8       2.          0.723      0.071               1021200400151 
   520.      7.8       3.          0.339      0.085               1021200400152 
   520.      7.8       4.          0.130      0.117               1021200400153 
   520.      7.8       5.          0.000      0.000               1021200400154 
   525.      7.8       1.          1.204      0.011    1.         1021200400155 
   525.      7.8       1.          1.099      0.055    2.         1021200400156 
   525.      7.8       1.          1.246      0.014    3.         1021200400157 
   525.      7.8       2.          0.890      0.016    1.         1021200400158 
   525.      7.8       2.          0.765      0.069    2.         1021200400159 
   525.      7.8       2.          0.929      0.021    3.         1021200400160 
   525.      7.8       3.          0.418      0.020    1.         1021200400161 
   525.      7.8       3.          0.309      0.107    2.         1021200400162 
   525.      7.8       3.          0.430      0.025    3.         1021200400163 
   525.      7.8       4.         -0.002      0.027    1.         1021200400164 
   525.      7.8       4.          0.004      0.115    2.         1021200400165 
   525.      7.8       4.         -0.013      0.034    3.         1021200400166 
   525.      7.8       5.          0.000      0.000    1.         1021200400167 
   525.      7.8       5.         -0.076      0.156    2.         1021200400168 
   525.      7.8       5.          0.000      0.000    3.         1021200400169 
   540.      7.8       1.          1.258      0.061               1021200400170 
   540.      7.8       2.          0.918      0.089               1021200400171 
   540.      7.8       3.          0.485      0.106               1021200400172 
   540.      7.8       4.          0.048      0.146               1021200400173 
   540.      7.8       5.          0.000      0.000               1021200400174 
   550.     57.        1.          1.230      0.018    1.         1021200400175 
   550.     57.        1.          1.228      0.036    2.         1021200400176 
   550.     57.        1.          1.243      0.015    3.         1021200400177 
   550.     57.        2.          0.854      0.027    1.         1021200400178 
   550.     57.        2.          0.867      0.046    2.         1021200400179 
   550.     57.        2.          0.880      0.022    3.         1021200400180 
   550.     57.        3.          0.414      0.032    1.         1021200400181 
   550.     57.        3.          0.425      0.071    2.         1021200400182 
   550.     57.        3.          0.438      0.026    3.         1021200400183 
   550.     57.        4.          0.025      0.045    1.         1021200400184 
   550.     57.        4.          0.052      0.076    2.         1021200400185 
   550.     57.        4.          0.031      0.036    3.         1021200400186 
   550.     57.        5.          0.000      0.000    1.         1021200400187 
   550.     57.        5.         -0.021      0.103    2.         1021200400188 
   550.     57.        5.          0.000      0.000    3.         1021200400189 
   560.     57.        1.          1.292      0.036               1021200400190 
   560.     57.        2.          0.834      0.052               1021200400191 
   560.     57.        3.          0.386      0.062               1021200400192 
   560.     57.        4.         -0.078      0.086               1021200400193 
   560.     57.        5.          0.000      0.000               1021200400194 
   575.     57.        1.          1.291      0.039    1.         1021200400195 
   575.     57.        1.          1.122      0.011    2.         1021200400196 
   575.     57.        1.          1.290      0.025    3.         1021200400197 
   575.     57.        2.          0.993      0.058    1.         1021200400198 
   575.     57.        2.          0.781      0.014    2.         1021200400199 
   575.     57.        2.          1.005      0.036    3.         1021200400200 
   575.     57.        3.          0.517      0.069    1.         1021200400201 
   575.     57.        3.          0.462      0.022    2.         1021200400202 
   575.     57.        3.          0.573      0.044    3.         1021200400203 
   575.     57.        4.          0.198      0.095    1.         1021200400204 
   575.     57.        4.          0.180      0.023    2.         1021200400205 
   575.     57.        4.          0.164      0.060    3.         1021200400206 
   575.     57.        5.          0.000      0.000    1.         1021200400207 
   575.     57.        5.          0.118      0.032    2.         1021200400208 
   575.     57.        5.          0.000      0.000    3.         1021200400209 
   580.     57.        1.          1.247      0.010               1021200400210 
   580.     57.        2.          0.918      0.014               1021200400211 
   580.     57.        3.          0.449      0.017               1021200400212 
   580.     57.        4.          0.050      0.024               1021200400213 
   580.     57.        5.          0.000      0.000               1021200400214 
   600.     57.        1.          1.312      0.013    1.         1021200400215 
   600.     57.        1.          1.279      0.015    2.         1021200400216 
   600.     57.        1.          1.174      0.026    3.         1021200400217 
   600.     57.        1.          1.249      0.009    4.         1021200400218 
   600.     57.        1.          1.207      0.022    5.         1021200400219 
   600.     57.        2.          1.002      0.019    1.         1021200400220 
   600.     57.        2.          0.957      0.022    2.         1021200400221 
   600.     57.        2.          0.802      0.032    3.         1021200400222 
   600.     57.        2.          0.934      0.014    4.         1021200400223 
   600.     57.        2.          0.813      0.033    5.         1021200400224 
   600.     57.        3.          0.562      0.022    1.         1021200400225 
   600.     57.        3.          0.515      0.026    2.         1021200400226 
   600.     57.        3.          0.352      0.050    3.         1021200400227 
   600.     57.        3.          0.516      0.016    4.         1021200400228 
   600.     57.        3.          0.347      0.041    5.         1021200400229 
   600.     57.        4.          0.027      0.031    1.         1021200400230 
   600.     57.        4.          0.131      0.036    2.         1021200400231 
   600.     57.        4.          0.038      0.054    3.         1021200400232 
   600.     57.        4.          0.139      0.023    4.         1021200400233 
   600.     57.        4.         -0.010      0.055    5.         1021200400234 
   600.     57.        5.          0.000      0.000    1.         1021200400235 
   600.     57.        5.          0.000      0.000    2.         1021200400236 
   600.     57.        5.          0.007      0.073    3.         1021200400237 
   600.     57.        5.          0.000      0.000    4.         1021200400238 
   600.     57.        5.          0.000      0.000    5.         1021200400239 
   620.     57.        1.          1.250      0.028               1021200400240 
   620.     57.        2.          0.887      0.041               1021200400241 
   620.     57.        3.          0.439      0.048               1021200400242 
   620.     57.        4.          0.070      0.067               1021200400243 
   620.     57.        5.          0.000      0.000               1021200400244 
   625.     57.        1.          1.353      0.030    1.         1021200400245 
   625.     57.        1.          1.294      0.044    2.         1021200400246 
   625.     57.        1.          1.399      0.031    3.         1021200400247 
   625.     57.        2.          1.000      0.044    1.         1021200400248 
   625.     57.        2.          0.894      0.056    2.         1021200400249 
   625.     57.        2.          1.039      0.045    3.         1021200400250 
   625.     57.        3.          0.614      0.053    1.         1021200400251 
   625.     57.        3.          0.659      0.087    2.         1021200400252 
   625.     57.        3.          0.631      0.054    3.         1021200400253 
   625.     57.        4.          0.092      0.073    1.         1021200400254 
   625.     57.        4.          0.259      0.093    2.         1021200400255 
   625.     57.        4.          0.052      0.074    3.         1021200400256 
   625.     57.        5.          0.000      0.000    1.         1021200400257 
   625.     57.        5.          0.268      0.126    2.         1021200400258 
   625.     57.        5.          0.000      0.000    3.         1021200400259 
   640.     57.        1.          1.294      0.043               1021200400260 
   640.     57.        2.          0.858      0.063               1021200400261 
   640.     57.        3.          0.474      0.076               1021200400262 
   640.     57.        4.          0.096      0.104               1021200400263 
   640.     57.        5.          0.000      0.000               1021200400264 
   650.     57.        1.          1.348      0.019    1.         1021200400265 
   650.     57.        1.          1.311      0.024    2.         1021200400266 
   650.     57.        1.          1.388      0.029    3.         1021200400267 
   650.     57.        2.          0.991      0.028    1.         1021200400268 
   650.     57.        2.          0.898      0.031    2.         1021200400269 
   650.     57.        2.          1.026      0.042    3.         1021200400270 
   650.     57.        3.          0.566      0.033    1.         1021200400271 
   650.     57.        3.          0.471      0.048    2.         1021200400272 
   650.     57.        3.          0.625      0.050    3.         1021200400273 
   650.     57.        4.          0.195      0.045    1.         1021200400274 
   650.     57.        4.         -0.002      0.051    2.         1021200400275 
   650.     57.        4.          0.100      0.069    3.         1021200400276 
   650.     57.        5.          0.000      0.000    1.         1021200400277 
   650.     57.        5.          0.014      0.070    2.         1021200400278 
   650.     57.        5.          0.000      0.000    3.         1021200400279 
   660.     57.        1.          1.414      0.026               1021200400280 
   660.     57.        2.          1.163      0.038               1021200400281 
   660.     57.        3.          0.650      0.045               1021200400282 
   660.     57.        4.          0.225      0.062               1021200400283 
   660.     57.        5.          0.000      0.000               1021200400284 
   675.     57.        1.          1.320      0.009    1.         1021200400285 
   675.     57.        1.          1.327      0.037    2.         1021200400286 
   675.     57.        1.          1.327      0.012    3.         1021200400287 
   675.     57.        2.          1.049      0.014    1.         1021200400288 
   675.     57.        2.          0.968      0.046    2.         1021200400289 
   675.     57.        2.          1.065      0.018    3.         1021200400290 
   675.     57.        3.          0.704      0.017    1.         1021200400291 
   675.     57.        3.          0.411      0.072    2.         1021200400292 
   675.     57.        3.          0.705      0.021    3.         1021200400293 
   675.     57.        4.          0.152      0.023    1.         1021200400294 
   675.     57.        4.          0.082      0.077    2.         1021200400295 
   675.     57.        4.          0.109      0.029    3.         1021200400296 
   675.     57.        5.          0.000      0.000    1.         1021200400297 
   675.     57.        5.         -0.127      0.104    2.         1021200400298 
   675.     57.        5.          0.000      0.000    3.         1021200400299 
   680.     57.        1.          1.411      0.032               1021200400300 
   680.     57.        2.          1.111      0.047               1021200400301 
   680.     57.        3.          0.666      0.057               1021200400302 
   680.     57.        4.          0.286      0.078               1021200400303 
   680.     57.        5.          0.000      0.000               1021200400304 
   700.     57.        1.          1.412      0.026    1.         1021200400305 
   700.     57.        1.          1.411      0.026    2.         1021200400306 
   700.     57.        2.          1.045      0.038    1.         1021200400307 
   700.     57.        2.          1.050      0.039    2.         1021200400308 
   700.     57.        3.          0.656      0.045    1.         1021200400309 
   700.     57.        3.          0.592      0.046    2.         1021200400310 
   700.     57.        4.          0.173      0.063    1.         1021200400311 
   700.     57.        4.          0.101      0.064    2.         1021200400312 
   700.     57.        5.          0.000      0.000    1.         1021200400313 
   700.     57.        5.          0.000      0.000    2.         1021200400314 
   720.     57.        1.          1.429      0.022               1021200400315 
   720.     57.        2.          1.152      0.032               1021200400316 
   720.     57.        3.          0.691      0.038               1021200400317 
   720.     57.        4.          0.176      0.052               1021200400318 
   720.     57.        5.          0.000      0.000               1021200400319 
   725.     57.        1.          1.394      0.023    1.         1021200400320 
   725.     57.        1.          1.488      0.054    2.         1021200400321 
   725.     57.        1.          1.389      0.020    3.         1021200400322 
   725.     57.        2.          1.135      0.034    1.         1021200400323 
   725.     57.        2.          1.185      0.068    2.         1021200400324 
   725.     57.        2.          1.106      0.029    3.         1021200400325 
   725.     57.        3.          0.759      0.040    1.         1021200400326 
   725.     57.        3.          0.806      0.105    2.         1021200400327 
   725.     57.        3.          0.738      0.035    3.         1021200400328 
   725.     57.        4.          0.196      0.055    1.         1021200400329 
   725.     57.        4.          0.109      0.113    2.         1021200400330 
   725.     57.        4.          0.198      0.048    3.         1021200400331 
   725.     57.        5.          0.000      0.000    1.         1021200400332 
   725.     57.        5.          0.197      0.153    2.         1021200400333 
   725.     57.        5.          0.000      0.000    3.         1021200400334 
   740.     57.        1.          1.414      0.033               1021200400335 
   740.     57.        2.          1.076      0.049               1021200400336 
   740.     57.        3.          0.627      0.058               1021200400337 
   740.     57.        4.          0.147      0.080               1021200400338 
   740.     57.        5.          0.000      0.000               1021200400339 
   750.     57.        1.          1.374      0.020    1.         1021200400340 
   750.     57.        1.          1.507      0.032    2.         1021200400341 
   750.     57.        1.          1.409      0.020    3.         1021200400342 
   750.     57.        2.          1.001      0.029    1.         1021200400343 
   750.     57.        2.          1.277      0.041    2.         1021200400344 
   750.     57.        2.          1.066      0.030    3.         1021200400345 
   750.     57.        3.          0.805      0.035    1.         1021200400346 
   750.     57.        3.          0.961      0.063    2.         1021200400347 
   750.     57.        3.          0.879      0.036    3.         1021200400348 
   750.     57.        4.          0.224      0.048    1.         1021200400349 
   750.     57.        4.          0.361      0.067    2.         1021200400350 
   750.     57.        4.          0.262      0.049    3.         1021200400351 
   750.     57.        5.          0.000      0.000    1.         1021200400352 
   750.     57.        5.          0.066      0.091    2.         1021200400353 
   750.     57.        5.          0.000      0.000    3.         1021200400354 
   760.     57.        1.          1.506      0.054               1021200400355 
   760.     57.        2.          1.143      0.079               1021200400356 
   760.     57.        3.          0.659      0.095               1021200400357 
   760.     57.        4.          0.125      0.130               1021200400358 
   760.     57.        5.          0.000      0.000               1021200400359 
   775.     57.        1.          1.096      0.050    1.         1021200400360 
   775.     57.        1.          1.412      0.031    2.         1021200400361 
   775.     57.        1.          1.421      0.027    3.         1021200400362 
   775.     57.        1.          1.497      0.029    4.         1021200400363 
   775.     57.        2.          0.956      0.076    1.         1021200400364 
   775.     57.        2.          1.051      0.046    2.         1021200400365 
   775.     57.        2.          1.233      0.035    3.         1021200400366 
   775.     57.        2.          1.198      0.042    4.         1021200400367 
   775.     57.        3.          0.669      0.090    1.         1021200400368 
   775.     57.        3.          0.763      0.055    2.         1021200400369 
   775.     57.        3.          0.744      0.054    3.         1021200400370 
   775.     57.        3.          0.766      0.050    4.         1021200400371 
   775.     57.        4.          0.228      0.114    1.         1021200400372 
   775.     57.        4.          0.275      0.075    2.         1021200400373 
   775.     57.        4.          0.153      0.058    3.         1021200400374 
   775.     57.        4.          0.202      0.069    4.         1021200400375 
   775.     57.        5.         -0.064      0.158    1.         1021200400376 
   775.     57.        5.          0.000      0.000    2.         1021200400377 
   775.     57.        5.         -0.300      0.078    3.         1021200400378 
   775.     57.        5.          0.000      0.000    4.         1021200400379 
   800.     57.        1.          1.429      0.081    1.         1021200400380 
   800.     57.        1.          1.499      0.044    2.         1021200400381 
   800.     57.        1.          1.524      0.061    3.         1021200400382 
   800.     57.        2.          1.056      0.118    1.         1021200400383 
   800.     57.        2.          1.252      0.055    2.         1021200400384 
   800.     57.        2.          1.258      0.089    3.         1021200400385 
   800.     57.        3.          0.780      0.141    1.         1021200400386 
   800.     57.        3.          0.812      0.085    2.         1021200400387 
   800.     57.        3.          0.939      0.107    3.         1021200400388 
   800.     57.        4.          0.379      0.194    1.         1021200400389 
   800.     57.        4.          0.188      0.091    2.         1021200400390 
   800.     57.        4.          0.466      0.147    3.         1021200400391 
   800.     57.        5.          0.000      0.000    1.         1021200400392 
   800.     57.        5.         -0.206      0.124    2.         1021200400393 
   800.     57.        5.          0.000      0.000    3.         1021200400394 
   825.     57.        1.          1.487      0.035    1.         1021200400395 
   825.     57.        1.          1.574      0.040    2.         1021200400396 
   825.     57.        1.          1.517      0.062    3.         1021200400397 
   825.     57.        2.          1.211      0.051    1.         1021200400398 
   825.     57.        2.          1.254      0.050    2.         1021200400399 
   825.     57.        2.          1.278      0.091    3.         1021200400400 
   825.     57.        3.          0.932      0.061    1.         1021200400401 
   825.     57.        3.          0.772      0.078    2.         1021200400402 
   825.     57.        3.          1.020      0.109    3.         1021200400403 
   825.     57.        4.          0.411      0.084    1.         1021200400404 
   825.     57.        4.          0.134      0.083    2.         1021200400405 
   825.     57.        4.          0.485      0.150    3.         1021200400406 
   825.     57.        5.          0.000      0.000    1.         1021200400407 
   825.     57.        5.         -0.308      0.113    2.         1021200400408 
   825.     57.        5.          0.000      0.000    3.         1021200400409 
   850.     57.        1.          1.578      0.009    1.         1021200400410 
   850.     57.        1.          1.556      0.027    2.         1021200400411 
   850.     57.        1.          1.419      0.039    3.         1021200400412 
   850.     57.        2.          1.297      0.011    1.         1021200400413 
   850.     57.        2.          1.282      0.040    2.         1021200400414 
   850.     57.        2.          1.152      0.056    3.         1021200400415 
   850.     57.        3.          0.951      0.017    1.         1021200400416 
   850.     57.        3.          1.069      0.048    2.         1021200400417 
   850.     57.        3.          1.008      0.068    3.         1021200400418 
   850.     57.        4.          0.318      0.018    1.         1021200400419 
   850.     57.        4.          0.410      0.066    2.         1021200400420 
   850.     57.        4.          0.547      0.093    3.         1021200400421 
   850.     57.        5.          0.106      0.025    1.         1021200400422 
   850.     57.        5.          0.000      0.000    2.         1021200400423 
   850.     57.        5.          0.000      0.000    3.         1021200400424 
   855.     57.        1.          1.284      0.016               1021200400425 
   855.     57.        2.          0.974      0.025               1021200400426 
   855.     57.        3.          0.713      0.029               1021200400427 
   855.     57.        4.          0.239      0.037               1021200400428 
   855.     57.        5.          0.015      0.052               1021200400429 
   875.     57.        1.          1.456      0.035    1.         1021200400430 
   875.     57.        1.          1.395      0.080    2.         1021200400431 
   875.     57.        1.          1.456      0.049    3.         1021200400432 
   875.     57.        2.          1.207      0.051    1.         1021200400433 
   875.     57.        2.          1.098      0.101    2.         1021200400434 
   875.     57.        2.          1.228      0.072    3.         1021200400435 
   875.     57.        3.          0.955      0.061    1.         1021200400436 
   875.     57.        3.          0.766      0.156    2.         1021200400437 
   875.     57.        3.          0.928      0.086    3.         1021200400438 
   875.     57.        4.          0.447      0.084    1.         1021200400439 
   875.     57.        4.          0.303      0.167    2.         1021200400440 
   875.     57.        4.          0.480      0.118    3.         1021200400441 
   875.     57.        5.          0.000      0.000    1.         1021200400442 
   875.     57.        5.         -0.103      0.227    2.         1021200400443 
   875.     57.        5.          0.000      0.000    3.         1021200400444 
   900.     57.        1.          1.430      0.041    1.         1021200400445 
   900.     57.        1.          1.491      0.025    2.         1021200400446 
   900.     57.        1.          1.381      0.054    3.         1021200400447 
   900.     57.        2.          1.163      0.059    1.         1021200400448 
   900.     57.        2.          1.387      0.032    2.         1021200400449 
   900.     57.        2.          1.156      0.079    3.         1021200400450 
   900.     57.        3.          1.178      0.071    1.         1021200400451 
   900.     57.        3.          0.904      0.050    2.         1021200400452 
   900.     57.        3.          1.149      0.094    3.         1021200400453 
   900.     57.        4.          0.753      0.098    1.         1021200400454 
   900.     57.        4.          0.185      0.054    2.         1021200400455 
   900.     57.        4.          0.781      0.129    3.         1021200400456 
   900.     57.        5.          0.000      0.000    1.         1021200400457 
   900.     57.        5.         -0.188      0.073    2.         1021200400458 
   900.     57.        5.          0.000      0.000    3.         1021200400459 
   925.     76.        1.          1.491      0.043               1021200400460 
   925.     76.        2.          1.306      0.055               1021200400461 
   925.     76.        3.          1.001      0.085               1021200400462 
   925.     76.        4.          0.403      0.091               1021200400463 
   925.     76.        5.         -0.297      0.123               1021200400464 
   950.     76.        1.          1.505      0.061    1.         1021200400465 
   950.     76.        1.          1.518      0.006    2.         1021200400466 
   950.     76.        1.          1.409      0.076    3.         1021200400467 
   950.     76.        2.          1.182      0.089    1.         1021200400468 
   950.     76.        2.          1.179      0.008    2.         1021200400469 
   950.     76.        2.          1.123      0.111    3.         1021200400470 
   950.     76.        3.          0.991      0.106    1.         1021200400471 
   950.     76.        3.          0.856      0.012    2.         1021200400472 
   950.     76.        3.          0.991      0.133    3.         1021200400473 
   950.     76.        4.          0.534      0.145    1.         1021200400474 
   950.     76.        4.          0.300      0.013    2.         1021200400475 
   950.     76.        4.          0.606      0.182    3.         1021200400476 
   950.     76.        5.          0.000      0.000    1.         1021200400477 
   950.     76.        5.         -0.228      0.018    2.         1021200400478 
   950.     76.        5.          0.000      0.000    3.         1021200400479 
   975.     76.        1.          1.518      0.012    1.         1021200400480 
   975.     76.        1.          1.532      0.041    2.         1021200400481 
   975.     76.        2.          1.308      0.015    1.         1021200400482 
   975.     76.        2.          1.398      0.059    2.         1021200400483 
   975.     76.        3.          1.149      0.024    1.         1021200400484 
   975.     76.        3.          1.214      0.071    2.         1021200400485 
   975.     76.        4.          0.476      0.025    1.         1021200400486 
   975.     76.        4.          0.900      0.098    2.         1021200400487 
   975.     76.        5.          0.069      0.035    1.         1021200400488 
   975.     76.        5.          0.000      0.000    2.         1021200400489 
  1000.     76.        1.          1.476      0.048    1.         1021200400490 
  1000.     76.        1.          1.556      0.056    2.         1021200400491 
  1000.     76.        2.          1.276      0.060    1.         1021200400492 
  1000.     76.        2.          1.307      0.070    2.         1021200400493 
  1000.     76.        3.          1.206      0.094    1.         1021200400494 
  1000.     76.        3.          1.078      0.109    2.         1021200400495 
  1000.     76.        4.          0.458      0.099    1.         1021200400496 
  1000.     76.        4.          0.462      0.116    2.         1021200400497 
  1000.     76.        5.          0.117      0.135    1.         1021200400498 
  1000.     76.        5.         -0.091      0.158    2.         1021200400499 
  1025.     76.        1.          1.583      0.073    1.         1021200400500 
  1025.     76.        1.          1.418      0.043    2.         1021200400501 
  1025.     76.        1.          1.629      0.065    3.         1021200400502 
  1025.     76.        2.          1.355      0.090    1.         1021200400503 
  1025.     76.        2.          1.328      0.054    2.         1021200400504 
  1025.     76.        2.          1.492      0.096    3.         1021200400505 
  1025.     76.        3.          1.431      0.142    1.         1021200400506 
  1025.     76.        3.          1.073      0.084    2.         1021200400507 
  1025.     76.        3.          1.321      0.114    3.         1021200400508 
  1025.     76.        4.          0.622      0.149    1.         1021200400509 
  1025.     76.        4.          0.490      0.090    2.         1021200400510 
  1025.     76.        4.          0.643      0.157    3.         1021200400511 
  1025.     76.        5.          0.347      0.203    1.         1021200400512 
  1025.     76.        5.         -0.094      0.122    2.         1021200400513 
  1025.     76.        5.          0.000      0.000    3.         1021200400514 
  1050.     76.        1.          1.526      0.015    1.         1021200400515 
  1050.     76.        1.          1.535      0.024    2.         1021200400516 
  1050.     76.        2.          1.362      0.018    1.         1021200400517 
  1050.     76.        2.          1.396      0.030    2.         1021200400518 
  1050.     76.        3.          1.283      0.029    1.         1021200400519 
  1050.     76.        3.          1.393      0.047    2.         1021200400520 
  1050.     76.        4.          0.584      0.030    1.         1021200400521 
  1050.     76.        4.          0.628      0.051    2.         1021200400522 
  1050.     76.        5.          0.005      0.042    1.         1021200400523 
  1050.     76.        5.          0.266      0.069    2.         1021200400524 
  1075.     76.        1.          1.476      0.015    1.         1021200400525 
  1075.     76.        1.          1.454      0.028    2.         1021200400526 
  1075.     76.        1.          1.444      0.015    3.         1021200400527 
  1075.     76.        1.          1.451      0.011    4.         1021200400528 
  1075.     76.        2.          1.312      0.023    1.         1021200400529 
  1075.     76.        2.          1.275      0.040    2.         1021200400530 
  1075.     76.        2.          1.349      0.018    3.         1021200400531 
  1075.     76.        2.          1.331      0.017    4.         1021200400532 
  1075.     76.        3.          1.356      0.027    1.         1021200400533 
  1075.     76.        3.          1.294      0.048    2.         1021200400534 
  1075.     76.        3.          1.212      0.029    3.         1021200400535 
  1075.     76.        3.          1.318      0.020    4.         1021200400536 
  1075.     76.        4.          0.707      0.038    1.         1021200400537 
  1075.     76.        4.          0.794      0.067    2.         1021200400538 
  1075.     76.        4.          0.451      0.031    3.         1021200400539 
  1075.     76.        4.          0.717      0.028    4.         1021200400540 
  1075.     76.        5.          0.000      0.000    1.         1021200400541 
  1075.     76.        5.          0.000      0.000    2.         1021200400542 
  1075.     76.        5.          0.123      0.042    3.         1021200400543 
  1075.     76.        5.          0.000      0.000    4.         1021200400544 
  1100.     76.        1.          1.479      0.013               1021200400545 
  1100.     76.        2.          1.298      0.016               1021200400546 
  1100.     76.        3.          1.330      0.025               1021200400547 
  1100.     76.        4.          0.748      0.027               1021200400548 
  1100.     76.        5.          0.178      0.037               1021200400549 
  1125.     76.        1.          1.419      0.049    1.         1021200400550 
  1125.     76.        1.          1.488      0.034    2.         1021200400551 
  1125.     76.        1.          1.482      0.072    3.         1021200400552 
  1125.     76.        2.          1.271      0.072    1.         1021200400553 
  1125.     76.        2.          1.159      0.043    2.         1021200400554 
  1125.     76.        2.          1.372      0.090    3.         1021200400555 
  1125.     76.        3.          1.238      0.086    1.         1021200400556 
  1125.     76.        3.          1.228      0.066    2.         1021200400557 
  1125.     76.        3.          1.294      0.141    3.         1021200400558 
  1125.     76.        4.          0.647      0.118    1.         1021200400559 
  1125.     76.        4.          0.547      0.071    2.         1021200400560 
  1125.     76.        4.          0.555      0.148    3.         1021200400561 
  1125.     76.        5.          0.000      0.000    1.         1021200400562 
  1125.     76.        5.          0.189      0.096    2.         1021200400563 
  1125.     76.        5.          0.145      0.202    3.         1021200400564 
  1150.     76.        1.          1.548      0.014    1.         1021200400565 
  1150.     76.        1.          1.500      0.023    2.         1021200400566 
  1150.     76.        2.          1.450      0.017    1.         1021200400567 
  1150.     76.        2.          1.248      0.030    2.         1021200400568 
  1150.     76.        3.          1.484      0.027    1.         1021200400569 
  1150.     76.        3.          1.122      0.046    2.         1021200400570 
  1150.     76.        4.          0.766      0.029    1.         1021200400571 
  1150.     76.        4.          0.544      0.049    2.         1021200400572 
  1150.     76.        5.          0.186      0.039    1.         1021200400573 
  1150.     76.        5.         -0.163      0.067    2.         1021200400574 
  1175.     76.        1.          1.506      0.019    1.         1021200400575 
  1175.     76.        1.          1.568      0.013    2.         1021200400576 
  1175.     76.        2.          1.426      0.024    1.         1021200400577 
  1175.     76.        2.          1.503      0.016    2.         1021200400578 
  1175.     76.        3.          1.417      0.038    1.         1021200400579 
  1175.     76.        3.          1.414      0.025    2.         1021200400580 
  1175.     76.        4.          0.716      0.040    1.         1021200400581 
  1175.     76.        4.          0.700      0.026    2.         1021200400582 
  1175.     76.        5.          0.108      0.055    1.         1021200400583 
  1175.     76.        5.          0.139      0.036    2.         1021200400584 
  1200.     76.        1.          1.643      0.021    1.         1021200400585 
  1200.     76.        1.          1.353      0.019    2.         1021200400586 
  1200.     76.        2.          1.576      0.026    1.         1021200400587 
  1200.     76.        2.          1.335      0.024    2.         1021200400588 
  1200.     76.        3.          1.770      0.041    1.         1021200400589 
  1200.     76.        3.          1.215      0.037    2.         1021200400590 
  1200.     76.        4.          0.987      0.044    1.         1021200400591 
  1200.     76.        4.          0.307      0.040    2.         1021200400592 
  1200.     76.        5.          0.423      0.059    1.         1021200400593 
  1200.     76.        5.          0.025      0.054    2.         1021200400594 
  1250.     76.        1.          1.469      0.052    1.         1021200400595 
  1250.     76.        1.          1.543      0.024    2.         1021200400596 
  1250.     76.        2.          1.392      0.065    1.         1021200400597 
  1250.     76.        2.          1.468      0.029    2.         1021200400598 
  1250.     76.        3.          1.438      0.102    1.         1021200400599 
  1250.     76.        3.          1.455      0.046    2.         1021200400600 
  1250.     76.        4.          0.671      0.107    1.         1021200400601 
  1250.     76.        4.          0.469      0.049    2.         1021200400602 
  1250.     76.        5.          0.034      0.146    1.         1021200400603 
  1250.     76.        5.          0.199      0.066    2.         1021200400604 
  1275.     76.        1.          1.552      0.038    1.         1021200400605 
  1275.     76.        1.          1.576      0.018    2.         1021200400606 
  1275.     76.        2.          1.393      0.047    1.         1021200400607 
  1275.     76.        2.          1.390      0.023    2.         1021200400608 
  1275.     76.        3.          1.550      0.074    1.         1021200400609 
  1275.     76.        3.          1.835      0.035    2.         1021200400610 
  1275.     76.        4.          0.672      0.078    1.         1021200400611 
  1275.     76.        4.          0.346      0.038    2.         1021200400612 
  1275.     76.        5.          0.419      0.106    1.         1021200400613 
  1275.     76.        5.          0.322      0.052    2.         1021200400614 
  1325.     76.        1.          1.487      0.059    1.         1021200400615 
  1325.     76.        1.          1.455      0.062    2.         1021200400616 
  1325.     76.        2.          1.415      0.073    1.         1021200400617 
  1325.     76.        2.          1.362      0.079    2.         1021200400618 
  1325.     76.        3.          1.554      0.115    1.         1021200400619 
  1325.     76.        3.          1.561      0.122    2.         1021200400620 
  1325.     76.        4.          0.470      0.121    1.         1021200400621 
  1325.     76.        4.          0.670      0.130    2.         1021200400622 
  1325.     76.        5.          0.291      0.164    1.         1021200400623 
  1325.     76.        5.          0.055      0.177    2.         1021200400624 
  1375.     76.        1.          1.565      0.030    1.         1021200400625 
  1375.     76.        1.          1.514      0.045    2.         1021200400626 
  1375.     76.        1.          1.541      0.014    3.         1021200400627 
  1375.     76.        2.          1.562      0.038    1.         1021200400628 
  1375.     76.        2.          1.374      0.057    2.         1021200400629 
  1375.     76.        2.          1.530      0.017    3.         1021200400630 
  1375.     76.        3.          1.610      0.059    1.         1021200400631 
  1375.     76.        3.          1.486      0.088    2.         1021200400632 
  1375.     76.        3.          1.581      0.028    3.         1021200400633 
  1375.     76.        4.          0.585      0.063    1.         1021200400634 
  1375.     76.        4.          0.659      0.094    2.         1021200400635 
  1375.     76.        4.          0.634      0.029    3.         1021200400636 
  1375.     76.        5.          0.209      0.085    1.         1021200400637 
  1375.     76.        5.          0.163      0.128    2.         1021200400638 
  1375.     76.        5.          0.193      0.040    3.         1021200400639 
  1400.     76.        1.          1.561      0.080    1.         1021200400640 
  1400.     76.        1.          1.481      0.052    2.         1021200400641 
  1400.     76.        1.          1.511      0.027    3.         1021200400642 
  1400.     76.        2.          1.673      0.101    1.         1021200400643 
  1400.     76.        2.          1.550      0.064    2.         1021200400644 
  1400.     76.        2.          1.573      0.034    3.         1021200400645 
  1400.     76.        3.          1.723      0.156    1.         1021200400646 
  1400.     76.        3.          1.624      0.101    2.         1021200400647 
  1400.     76.        3.          1.660      0.053    3.         1021200400648 
  1400.     76.        4.          0.810      0.167    1.         1021200400649 
  1400.     76.        4.          0.613      0.106    2.         1021200400650 
  1400.     76.        4.          0.763      0.056    3.         1021200400651 
  1400.     76.        5.          0.135      0.226    1.         1021200400652 
  1400.     76.        5.          0.354      0.145    2.         1021200400653 
  1400.     76.        5.          0.240      0.077    3.         1021200400654 
  1425.     76.        1.          1.477      0.034    1.         1021200400655 
  1425.     76.        1.          1.570      0.055    2.         1021200400656 
  1425.     76.        1.          1.557      0.049    3.         1021200400657 
  1425.     76.        2.          1.420      0.043    1.         1021200400658 
  1425.     76.        2.          1.339      0.069    2.         1021200400659 
  1425.     76.        2.          1.512      0.060    3.         1021200400660 
  1425.     76.        3.          1.545      0.067    1.         1021200400661 
  1425.     76.        3.          1.430      0.107    2.         1021200400662 
  1425.     76.        3.          1.625      0.095    3.         1021200400663 
  1425.     76.        4.          0.625      0.071    1.         1021200400664 
  1425.     76.        4.          0.368      0.115    2.         1021200400665 
  1425.     76.        4.          0.634      0.100    3.         1021200400666 
  1425.     76.        5.          0.213      0.097    1.         1021200400667 
  1425.     76.        5.          0.075      0.156    2.         1021200400668 
  1425.     76.        5.          0.239      0.136    3.         1021200400669 
  1450.     76.        1.          1.402      0.059    1.         1021200400670 
  1450.     76.        1.          1.578      0.033    2.         1021200400671 
  1450.     76.        1.          1.480      0.025    3.         1021200400672 
  1450.     76.        2.          1.419      0.074    1.         1021200400673 
  1450.     76.        2.          1.496      0.041    2.         1021200400674 
  1450.     76.        2.          1.500      0.031    3.         1021200400675 
  1450.     76.        3.          1.486      0.116    1.         1021200400676 
  1450.     76.        3.          1.785      0.064    2.         1021200400677 
  1450.     76.        3.          1.566      0.049    3.         1021200400678 
  1450.     76.        4.          0.921      0.122    1.         1021200400679 
  1450.     76.        4.          1.027      0.069    2.         1021200400680 
  1450.     76.        4.          0.882      0.052    3.         1021200400681 
  1450.     76.        5.          0.064      0.166    1.         1021200400682 
  1450.     76.        5.          0.381      0.093    2.         1021200400683 
  1450.     76.        5.          0.162      0.071    3.         1021200400684 
  1500.     76.        1.          1.529      0.044    1.         1021200400685 
  1500.     76.        1.          1.622      0.023    2.         1021200400686 
  1500.     76.        2.          1.425      0.056    1.         1021200400687 
  1500.     76.        2.          1.674      0.029    2.         1021200400688 
  1500.     76.        3.          1.623      0.086    1.         1021200400689 
  1500.     76.        3.          1.830      0.045    2.         1021200400690 
  1500.     76.        4.          0.849      0.093    1.         1021200400691 
  1500.     76.        4.          0.920      0.048    2.         1021200400692 
  1500.     76.        5.          0.492      0.126    1.         1021200400693 
  1500.     76.        5.          0.582      0.065    2.         1021200400694 
ENDDATA            677          0                                 1021200400695 
ENDSUBENT          694          0                                 1021200499999 
ENDENTRY             4          0                                 1021299999999 
