ENTRY            10224   20010309                             00001022400000001 
SUBENT        10224001   20010309                             00001022400100001 
BIB                  9         20                                 1022400100002 
INSTITUTE  (1CANCRC)                                              1022400100003 
REFERENCE  (J,CJP,50,2536,1972)                                   1022400100004 
           (C,71KNOX,1,299,197103)                                1022400100005 
AUTHOR     (D.C.SANTRY,J.P.BUTLER)                                1022400100006 
TITLE      Excitation Curves for the Reactions of Fast Neutrons   1022400100007 
            with Zinc                                             1022400100008 
FACILITY   (VDGT,1CANCRC) Tandem accelerator                      1022400100009 
METHOD     (ACTIV) Activation                                     1022400100010 
ERR-ANALYS (DATA-ERR) Uncertainties given include contributions   1022400100011 
            due to:                                               1022400100012 
           . standard deviations in activity measurements,        1022400100013 
           . uncertainties in counting efficiencies,              1022400100014 
           . sample-to-monitor geometry,                          1022400100015 
           . corrections for extraneous neutrons.                 1022400100016 
           Uncertainty in normalization value and angular neutron 1022400100017 
            intensity are not included.                           1022400100018 
STATUS     (APRVD) Approved by author.                            1022400100019 
HISTORY    (19730227C)                                            1022400100020 
           (19821014A) Converted to REACTION formalism            1022400100021 
           (20010309A) Updated to new date formats, lower case.   1022400100022 
ENDBIB              20          0                                 1022400100023 
NOCOMMON             0          0                                 1022400100024 
ENDSUBENT           23          0                                 1022400199999 
SUBENT        10224002   20010309                             00001022400200001 
BIB                  5          6                                 1022400200002 
REACTION   (30-ZN-64(N,P)29-CU-64,,SIG)                           1022400200003 
INC-SOURCE (P-T) T(P,N)HE-3                                       1022400200004 
DETECTOR   (PROPC) Flow-type end-window propotional counter.      1022400200005 
           BF3 long-counter for neutron flux monitor              1022400200006 
MONITOR    Long counter calibrated using Ra-Be source.            1022400200007 
DECAY-DATA (29-CU-64,12.9HR,B)                                    1022400200008 
ENDBIB               6          0                                 1022400200009 
NOCOMMON             0          0                                 1022400200010 
DATA                 5         22                                 1022400200011 
EN         EN-RSL     DATA       DATA-ERR   DATA-MAX              1022400200012 
MEV        MEV        MB         MB         MB                    1022400200013 
 1.50       0.08                             0.5                  1022400200014 
 1.83       0.04       4.4        1.0                             1022400200015 
 2.01       0.04       8.2        1.7                             1022400200016 
 2.20       0.03       17.4       1.4                             1022400200017 
 2.36       0.04       26.2       2.5                             1022400200018 
 2.50       0.03       38.9       3.1                             1022400200019 
 2.81       0.03       67.6       2.8                             1022400200020 
 3.01       0.03       92.0       4.1                             1022400200021 
 3.10       0.06       100.       4.                              1022400200022 
 3.18       0.06       113.       4.                              1022400200023 
 3.21       0.03       119.       7.                              1022400200024 
 3.33       0.03       123.       5.                              1022400200025 
 3.46       0.03       119.       7.                              1022400200026 
 3.51       0.03       138.       6.                              1022400200027 
 4.07       0.08       148.       10.                             1022400200028 
 4.55       0.04       183.       8.                              1022400200029 
 4.60       0.03       180.       11.                             1022400200030 
 4.86       0.02       188.       8.                              1022400200031 
 4.88       0.04       192.       7.                              1022400200032 
 5.03       0.10       191.       7.                              1022400200033 
 5.13       0.10       191.       9.                              1022400200034 
 5.33       0.10       187.       11.                             1022400200035 
ENDDATA             24          0                                 1022400200036 
ENDSUBENT           35          0                                 1022400299999 
SUBENT        10224003   20010309                             00001022400300001 
BIB                  7         10                                 1022400300002 
REACTION   (30-ZN-64(N,P)29-CU-64,,SIG)                           1022400300003 
INC-SOURCE (P-T) T(P,N) SOURCE                                    1022400300004 
DETECTOR   (GELI) Ge(Li) detector for high resolution gamma-ray   1022400300005 
                  spectrometer                                    1022400300006 
           (NAICR) NaI crystal detector for gamma-ray             1022400300007 
                   spectrometer.                                  1022400300008 
MONITOR    (16-S-32(N,P)15-P-32,,SIG)                             1022400300009 
DECAY-DATA (29-CU-64,12.9HR,B,,,DG)                               1022400300010 
DECAY-MON  (15-P-32,14.2D,B)                                      1022400300011 
HISTORY    (19830608U) BIB CORRECTION                             1022400300012 
ENDBIB              10          0                                 1022400300013 
NOCOMMON             0          0                                 1022400300014 
DATA                 5          8                                 1022400300015 
EN         EN-RSL     DATA       DATA-ERR   MONIT                 1022400300016 
MEV        MEV        MB         MB         MB                    1022400300017 
 4.86       0.02       189.       8.         248.                 1022400300018 
 4.88       0.04       186.       8.         248.                 1022400300019 
 5.03       0.10       181.       7.         248.                 1022400300020 
 5.13       0.10       189.       7.         248.                 1022400300021 
 5.33       0.08       199.       7.         249.                 1022400300022 
 5.61       0.02       195.       7.         280.                 1022400300023 
 6.00       0.09       229.       7.         326.                 1022400300024 
 6.50       0.02       259.       10.        334.                 1022400300025 
ENDDATA             10          0                                 1022400300026 
ENDSUBENT           25          0                                 1022400399999 
SUBENT        10224004   20010309                             00001022400400001 
BIB                  7         10                                 1022400400002 
REACTION   (30-ZN-64(N,P)29-CU-64,,SIG)                           1022400400003 
INC-SOURCE (D-D) D(D,N) SOURCE                                    1022400400004 
DETECTOR   (GELI) Ge(Li) detector high resolution gamma-ray       1022400400005 
                  spectrometer                                    1022400400006 
           (NAICR) NaI crystal detector for gamma-ray             1022400400007 
                   spectrometer.                                  1022400400008 
MONITOR    (16-S-32(N,P)15-P-32,,SIG)                             1022400400009 
DECAY-DATA (29-CU-64,12.9HR,B,,,DG)                               1022400400010 
DECAY-MON  (15-P-32,14.2D,B)                                      1022400400011 
HISTORY    (19830608U) BIB CORRECTION                             1022400400012 
ENDBIB              10          0                                 1022400400013 
NOCOMMON             0          0                                 1022400400014 
DATA                 6         33                                 1022400400015 
EN         +EN-ERR    -EN-RSL    DATA       DATA-ERR   MONIT      1022400400016 
MEV        MEV        MEV        MB         MB         MB         1022400400017 
 4.96       0.17       0.17       196.       7.         250.      1022400400018 
 5.13       0.18       0.08       184.       7.         248.      1022400400019 
 5.30       0.20       0.13       194.       7.         252.      1022400400020 
 5.70       0.16       0.12       225.       7.         304.      1022400400021 
 5.94       0.15       0.11       229.       8.         326.      1022400400022 
 6.30       0.29       0.29       241.       8.         333.      1022400400023 
 6.40       0.14       0.11       263.       8.         333.      1022400400024 
 6.51       0.14       0.11       264.       8.         334.      1022400400025 
 6.75       0.14       0.11       251.       8.         336.      1022400400026 
 7.01       0.13       0.09       237.       8.         338.      1022400400027 
 7.25       0.12       0.08       258.       8.         340.      1022400400028 
 7.47       0.12       0.08       239.       8.         342.      1022400400029 
 7.50       0.12       0.08       238.       8.         342.      1022400400030 
 7.59       0.12       0.08       255.       8.         342.      1022400400031 
 7.80       0.12       0.08       268.       9.         344.      1022400400032 
 8.01       0.11       0.07       261.       9.         346.      1022400400033 
 8.27       0.11       0.07       253.       8.         347.      1022400400034 
 8.61       0.11       0.05       275.       9.         351.      1022400400035 
 9.02       0.11       0.05       280.       9.         361.      1022400400036 
 9.25       0.11       0.05       285.       9.         366.      1022400400037 
 9.30       0.11       0.05       283.       10.        368.      1022400400038 
 9.63       0.11       0.05       287.       10.        379.      1022400400039 
 9.80       0.11       0.05       296.       10.        383.      1022400400040 
 10.03      0.11       0.05       288.       10.        390.      1022400400041 
 10.25      0.11       0.05       294.       10.        397.      1022400400042 
 10.50      0.11       0.05       299.       10.        397.      1022400400043 
 10.75      0.11       0.05       297.       10.        398.      1022400400044 
 11.00      0.11       0.05       292.       10.        399.      1022400400045 
 11.50      0.11       0.05       286.       10.        389.      1022400400046 
 12.10      0.11       0.05       282.       9.         360.      1022400400047 
 12.60      0.12       0.06       267.       12.        333.      1022400400048 
 13.08      0.12       0.06       232.       15.        305.      1022400400049 
 13.58      0.12       0.06       216.       16.        277.      1022400400050 
ENDDATA             35          0                                 1022400400051 
ENDSUBENT           50          0                                 1022400499999 
SUBENT        10224005   20010309                             00001022400500001 
BIB                  7         10                                 1022400500002 
REACTION   (30-ZN-64(N,P)29-CU-64,,SIG)                           1022400500003 
INC-SOURCE (D-T) T(D,N) SOURCE                                    1022400500004 
DETECTOR   (GELI) Ge(Li) detector high resolution gamma-ray       1022400500005 
                  spectrometer                                    1022400500006 
           (NAICR) NaI crystal detector for gamma-ray             1022400500007 
                   spectrometer.                                  1022400500008 
MONITOR    (16-S-32(N,P)15-P-32,,SIG)                             1022400500009 
DECAY-DATA (29-CU-64,12.9HR,B,,,DG)                               1022400500010 
DECAY-MON  (15-P-32,14.2D,B)                                      1022400500011 
HISTORY    (19830608U) BIB CORRECTION                             1022400500012 
ENDBIB              10          0                                 1022400500013 
NOCOMMON             0          0                                 1022400500014 
DATA                 5         11                                 1022400500015 
EN         EN-RSL     DATA       DATA-ERR   MONIT                 1022400500016 
MEV        MEV        MB         MB         MB                    1022400500017 
 12.5       0.4        265.       15.                             1022400500018 
 13.58      0.10       217.       13.                             1022400500019 
 13.89      0.06       200.       12.                             1022400500020 
 14.24      0.08       180.       11.                             1022400500021 
 14.50      0.15       178.       10.        226.                 1022400500022 
 14.7       0.20       166.       10.                             1022400500023 
 16.2       0.6        114.       8.                              1022400500024 
 17.8       0.5        87.8       6.1                             1022400500025 
 19.1       0.3        76.2       5.9                             1022400500026 
 19.6       0.3        60.2       5.1                             1022400500027 
 19.8       0.3        66.6       5.6                             1022400500028 
ENDDATA             13          0                                 1022400500029 
ENDSUBENT           28          0                                 1022400599999 
SUBENT        10224006   20010309                             00001022400600001 
BIB                  6          6                                 1022400600002 
REACTION   (30-ZN-68(N,A)28-NI-65,,SIG)                           1022400600003 
INC-SOURCE (D-D) D(D,N) SOURCE.                                   1022400600004 
DETECTOR   (PROPC) Flow-type end-window propotional counter.      1022400600005 
MONITOR    (16-S-32(N,P)15-P-32,,SIG)                             1022400600006 
DECAY-DATA (28-NI-65,2.56HR,B)                                    1022400600007 
DECAY-MON  (15-P-32,14.2D,B)                                      1022400600008 
ENDBIB               6          0                                 1022400600009 
NOCOMMON             0          0                                 1022400600010 
DATA                 5         14                                 1022400600011 
EN         EN-ERR     DATA       DATA-ERR   MONIT                 1022400600012 
MEV        MEV        MB         MB         MB                    1022400600013 
 6.51       0.14       0.4        0.4        334.                 1022400600014 
 7.50       0.12       1.5        0.4        342.                 1022400600015 
 7.80       0.12       2.8        0.6        344.                 1022400600016 
 8.01       0.11       2.8        0.5        346.                 1022400600017 
 8.27       0.11       2.6        1.0        347.                 1022400600018 
 9.02       0.11       4.2        0.8        361.                 1022400600019 
 9.63       0.11       3.8        1.1        379.                 1022400600020 
 10.03      0.11       5.5        0.8        390.                 1022400600021 
 11.00      0.11       7.5        2.3        399.                 1022400600022 
 11.61      0.11       7.7        1.6        386.                 1022400600023 
 12.10      0.11       7.2        1.1        360.                 1022400600024 
 12.60      0.12       8.9        1.8        333.                 1022400600025 
 13.08      0.12       9.5        2.1        305.                 1022400600026 
 14.50      0.15       10.5       1.6        226.                 1022400600027 
ENDDATA             16          0                                 1022400600028 
ENDSUBENT           27          0                                 1022400699999 
SUBENT        10224007   20010309                             00001022400700001 
BIB                  6          9                                 1022400700002 
REACTION   (30-ZN-70(N,2N)30-ZN-69-M,,SIG)                        1022400700003 
INC-SOURCE (D-D) D(D,N) SOURCE                                    1022400700004 
DETECTOR   (GELI) Ge(Li) detector high resolution gamma-ray       1022400700005 
                  spectrometer                                    1022400700006 
           (NAICR) NaI crystal detector for gamma-ray             1022400700007 
                   spectrometer.                                  1022400700008 
MONITOR    (16-S-32(N,P)15-P-32,,SIG)                             1022400700009 
DECAY-DATA (30-ZN-69-M,13.9HR,DG)                                 1022400700010 
DECAY-MON  (15-P-32,14.2D,B)                                      1022400700011 
ENDBIB               9          0                                 1022400700012 
NOCOMMON             0          0                                 1022400700013 
DATA                 5         17                                 1022400700014 
EN         EN-RSL     DATA       DATA-ERR   MONIT                 1022400700015 
MEV        MEV        MB         MB         MB                    1022400700016 
 9.30       0.11       46.        23.        368.                 1022400700017 
 9.80       0.11       143.       35.        383.                 1022400700018 
 10.03      0.11       216.       32.        390.                 1022400700019 
 10.75      0.11       328.       49.        398.                 1022400700020 
 11.00      0.11       275.       35.        399.                 1022400700021 
 12.10      0.11       468.       23.        360.                 1022400700022 
 12.5       0.4        513.       82.                             1022400700023 
 12.60      0.12       573.       30.        333.                 1022400700024 
 13.58      0.10       508.       30.        277.                 1022400700025 
 13.89      0.06       536.       32.                             1022400700026 
 14.24      0.06       572.       25.                             1022400700027 
 14.50      0.15       547.       22.        226.                 1022400700028 
 14.74      0.20       548.       22.                             1022400700029 
 16.2       0.6        569.       28.                             1022400700030 
 17.8       0.5        612.       30.                             1022400700031 
 19.1       0.3        569.       29.                             1022400700032 
 19.6       0.3        508.       25.                             1022400700033 
ENDDATA             19          0                                 1022400700034 
ENDSUBENT           33          0                                 1022400799999 
ENDENTRY             7          0                                 1022499999999 
