ENTRY            10240   20010309                             00001024000000001 
SUBENT        10240001   20010309                             00001024000100001 
BIB                 10         17                                 1024000100002 
INSTITUTE  (1USALAS,1USAFSU)                                      1024000100003 
REFERENCE  (J,NP/A,171,113,197108)                                1024000100004 
AUTHOR     (M.J.BENNETT,R.K.SHELINE,Y.SHIDA)                      1024000100005 
TITLE      Levels in 153Sm                                        1024000100006 
INC-SOURCE (THCOL) Thermal column of Omega West Reactor           1024000100007 
SAMPLE     Sm2O3 sample enriched to 99.18% in 152Sm.              1024000100008 
MONITOR    (79-AU-197(N,G)79-AU-198,,SIG)                         1024000100009 
ERR-ANALYS (DATA-ERR) Uncertainty given includes minimum          1024000100010 
            uncertainty due to efficiency and standard cross      1024000100011 
            section (10%), combined quadratically with            1024000100012 
            statistical error.                                    1024000100013 
           Note from author: minimum more probably 20%.           1024000100014 
STATUS     (APRVD) Approved by author.                            1024000100015 
            Data taken from Table 2 in reference.                 1024000100016 
HISTORY    (19740603C)                                            1024000100017 
           (19821018A) Converted to REACTION formalism            1024000100018 
           (20010309A) Updated to new date formats, lower case.   1024000100019 
ENDBIB              17          0                                 1024000100020 
COMMON               1          3                                 1024000100021 
EN                                                                1024000100022 
EV                                                                1024000100023 
 0.0253                                                           1024000100024 
ENDCOMMON            3          0                                 1024000100025 
ENDSUBENT           24          0                                 1024000199999 
SUBENT        10240002   20010309                             00001024000200001 
BIB                  2          4                                 1024000200002 
REACTION   (62-SM-152(N,G)62-SM-153,PAR,SIG)                      1024000200003 
DETECTOR   (BPAIR) Ge(Li) detector inside NaI(Tl) annulus         1024000200004 
            operated as pair spectrometer for high-energy gamma   1024000200005 
            spectrum.                                             1024000200006 
ENDBIB               4          0                                 1024000200007 
NOCOMMON             0          0                                 1024000200008 
DATA                 4         25                                 1024000200009 
E          E-ERR      DATA       DATA-ERR                         1024000200010 
KEV        KEV        MB         PER-CENT                         1024000200011 
 4468.3     0.8        270.       17.                             1024000200012 
 4474.4     0.8        228.       18.                             1024000200013 
 4505.8     0.4        1468.      11.                             1024000200014 
 4523.9     0.5        589.       12.                             1024000200015 
 4545.7     0.4        1941.      10.                             1024000200016 
 4643.8     1.0        265.       15.                             1024000200017 
 4696.3     0.4        2068.      10.                             1024000200018 
 4757.9     0.7        155.       19.                             1024000200019 
 4883.2     0.6        762.       11.                             1024000200020 
 4951.5     0.6        241.       15.                             1024000200021 
 5117.5     0.5        770.       11.                             1024000200022 
 5133.3     0.8        124.       42.                             1024000200023 
 5172.2     0.3        1210.      11.                             1024000200024 
 5220.4     1.0        33.        60.                             1024000200025 
 5237.4     0.3        2102.      10.                             1024000200026 
 5283.9     1.1        68.        31.                             1024000200027 
 5386.5     0.5        877.       11.                             1024000200028 
 5453.1     0.7        408.       12.                             1024000200029 
 5462.8     0.5        589.       12.                             1024000200030 
 5546.8     1.0        174.       16.                             1024000200031 
 5591.7     1.2        163.       16.                             1024000200032 
 5740.9     0.3        8701.      10.                             1024000200033 
 5832.6     0.3        1989.      10.                             1024000200034 
 5861.6     1.0        12.        60.                             1024000200035 
 5868.6     0.7        282.       11.                             1024000200036 
ENDDATA             27          0                                 1024000200037 
ENDSUBENT           36          0                                 1024000299999 
SUBENT        10240003   20010309                             00001024000300001 
BIB                  2          5                                 1024000300002 
REACTION   (62-SM-152(N,G)62-SM-153,PAR,SIG)                      1024000300003 
DETECTOR   For low-energy spectrum (less than 130 keV), Si(Li)    1024000300004 
            spectrometer used.                                    1024000300005 
           For higher-energy spectrum, NaI(Tl) annulus and Ge(Li) 1024000300006 
            detector operated in anticoincidence.                 1024000300007 
ENDBIB               5          0                                 1024000300008 
NOCOMMON             0          0                                 1024000300009 
DATA                 4         79                                 1024000300010 
E          E-ERR      DATA       DATA-ERR                         1024000300011 
KEV        KEV        B          PER-CENT                         1024000300012 
 28.29      0.02       4.36       20.                             1024000300013 
 35.87      0.02       16.06      20.                             1024000300014 
 37.33      0.03       0.74       21.                             1024000300015 
 53.54      0.02       0.48       20.                             1024000300016 
 55.04      0.02       0.44       20.                             1024000300017 
 83.37      0.02       3.03       15.                             1024000300018 
 90.88      0.02       4.13       15.                             1024000300019 
 91.49      0.03       1.22       17.                             1024000300020 
 108.95     0.22       0.18       49.                             1024000300021 
 119.77     0.02       4.31       16.                             1024000300022 
 127.24     0.02       10.28      15.                             1024000300023 
 129.45     0.06       1.14       19.                             1024000300024 
 146.95     0.05       0.59       15.                             1024000300025 
 166.60     0.04       1.75       10.                             1024000300026 
 171.75     0.04       0.52       11.                             1024000300027 
 175.26     0.04       2.61       10.                             1024000300028 
 182.86     0.04       3.19       10.                             1024000300029 
 186.33     0.05       0.39       11.                             1024000300030 
 196.93     0.06       0.21       16.                             1024000300031 
 208.61     0.08       0.22       15.                             1024000300032 
 212.98     0.07       0.24       15.                             1024000300033 
 223.04     0.04       0.86       10.                             1024000300034 
 254.85     0.05       0.72       10.                             1024000300035 
 269.02     0.04       1.51       10.                             1024000300036 
 276.79     0.04       3.62       10.                             1024000300037 
 313.72     0.16       0.36       15.                             1024000300038 
 321.04     0.04       5.02       10.                             1024000300039 
 354.67     0.08       1.04       11.                             1024000300040 
 362.50     0.07       1.17       11.                             1024000300041 
 390.22     0.08       1.13       11.                             1024000300042 
 398.81     0.04       6.57       10.                             1024000300043 
 403.77     0.04       4.66       10.                             1024000300044 
 414.89     0.04       6.19       10.                             1024000300045 
 470.62     0.05       3.83       10.                             1024000300046 
 473.56     0.05       4.08       10.                             1024000300047 
 481.20     0.12       0.99       12.                             1024000300048 
 517.2      0.4        1.70       13.                             1024000300049 
 568.6      1.1        0.62       27.                             1024000300050 
 623.3      0.3        2.38       13.                             1024000300051 
 627.4      0.8        0.83       16.                             1024000300052 
 630.3      0.2        2.71       12.                             1024000300053 
 646.1      1.0        0.52       22.                             1024000300054 
 659.9      0.2        3.28       12.                             1024000300055 
 681.4      0.5        0.82       18.                             1024000300056 
 688.6      0.9        0.52       23.                             1024000300057 
 693.8      1.0        0.48       25.                             1024000300058 
 698.0      0.5        0.90       16.                             1024000300059 
 706.3      0.5        0.82       17.                             1024000300060 
 727.1      0.5        0.99       16.                             1024000300061 
 753.0      0.5        1.23       15.                             1024000300062 
 767.5      0.8        0.72       22.                             1024000300063 
 772.7      1.5        0.37       39.                             1024000300064 
 781.0      1.3        0.41       36.                             1024000300065 
 789.3      0.8        0.71       23.                             1024000300066 
 808.0      0.5        0.45       13.                             1024000300067 
 825.7      0.3        0.85       11.                             1024000300068 
 836.0      0.2        1.32       11.                             1024000300069 
 841.2      0.2        1.20       12.                             1024000300070 
 873.4      0.5        0.31       18.                             1024000300071 
 880.6      0.2        1.39       11.                             1024000300072 
 901.4      0.6        0.44       14.                             1024000300073 
 906.6      0.3        0.99       12.                             1024000300074 
 915.9      1.0        0.26       20.                             1024000300075 
 928.3      0.7        0.37       16.                             1024000300076 
 946.0      0.3        1.02       12.                             1024000300077 
 949.1      0.8        0.40       16.                             1024000300078 
 955.3      0.9        0.33       18.                             1024000300079 
 959.4      0.4        0.65       13.                             1024000300080 
 970.8      0.5        0.58       14.                             1024000300081 
 976.0      0.3        0.81       12.                             1024000300082 
 984.3      0.2        1.63       10.                             1024000300083 
 989.5      0.7        0.40       16.                             1024000300084 
 1029.8     0.3        1.01       12.                             1024000300085 
 1045.4     0.2        2.24       10.                             1024000300086 
 1075.4     0.5        0.61       14.                             1024000300087 
 1097.2     0.4        0.86       12.                             1024000300088 
 1142.8     0.8        0.40       18.                             1024000300089 
 1160.5     0.5        0.70       14.                             1024000300090 
 1215.4     0.4        0.97       12.                             1024000300091 
ENDDATA             81          0                                 1024000300092 
ENDSUBENT           91          0                                 1024000399999 
ENDENTRY             3          0                                 1024099999999 
