ENTRY            10406   20100119                             13571040600000001 
SUBENT        10406001   20100119                             13571040600100001 
BIB                 10         14                                 1040600100002 
INSTITUTE  (1USAMTR)                                              1040600100003 
REFERENCE  (P,WASH-1093,60,196804)                                1040600100004 
AUTHOR     (T.E.Young,J.R.Smtih)                                  1040600100005 
TITLE      Shape of the total neutron cross section of 241Pu      1040600100006 
FACILITY   (CHOPF,1USAMTR) MTR fast chopper                       1040600100007 
METHOD     (TOF) Time-of-flight. 20-m flight path.                1040600100008 
CORRECTION Corrected for contaminants indicated.                  1040600100009 
ERR-ANALYS Possible error in sample thickness (probably <2%).     1040600100010 
STATUS     (APRVD) Approved by author                             1040600100011 
           Data received in private comm., Young, April 1974.     1040600100012 
HISTORY    (19740710C)                                            1040600100013 
           (19830527A) Converted to REACTION formalism            1040600100014 
           (20030207A) Updated to new date formats, lower case.   1040600100015 
           (20100112A) SD: page of the ref.was changed.           1040600100016 
ENDBIB              14          0                                 1040600100017 
NOCOMMON             0          0                                 1040600100018 
ENDSUBENT           17          0                                 1040600199999 
SUBENT        10406002   20030207                             00001040600200001 
BIB                  2          6                                 1040600200002 
REACTION   (94-PU-241(N,TOT),,SIG)                                1040600200003 
SAMPLE     Metallic foils, enriched to 99.3% 241Pu. Sample        1040600200004 
            thickness 2707.1 b/atom. Contaminants:                1040600200005 
            241Am (266000 b/atom), 239Pu (453600 b/atom),         1040600200006 
            240Pu (1894600 b/atom), 242Pu (4278300 b/atom),       1040600200007 
            27Al  (56660 b/atom).                                 1040600200008 
ENDBIB               6          0                                 1040600200009 
NOCOMMON             0          0                                 1040600200010 
DATA                 2        100                                 1040600200011 
EN         DATA                                                   1040600200012 
EV         B                                                      1040600200013 
 0.00851   2465.20                                                1040600200014 
 0.00894   2380.58                                                1040600200015 
 0.00939   2357.36                                                1040600200016 
 0.00986   2298.04                                                1040600200017 
 0.01035   2193.98                                                1040600200018 
 0.01085   2198.68                                                1040600200019 
 0.01140   2137.28                                                1040600200020 
 0.01197   2090.73                                                1040600200021 
 0.01257   2016.40                                                1040600200022 
 0.01320   1967.73                                                1040600200023 
 0.01387   1913.20                                                1040600200024 
 0.01456   1880.35                                                1040600200025 
 0.01529   1814.71                                                1040600200026 
 0.01604   1774.46                                                1040600200027 
 0.01684   1724.71                                                1040600200028 
 0.01769   1680.27                                                1040600200029 
 0.01858   1633.28                                                1040600200030 
 0.01951   1599.46                                                1040600200031 
 0.02048   1559.56                                                1040600200032 
 0.02149   1527.52                                                1040600200033 
 0.02258   1496.79                                                1040600200034 
 0.02371   1451.77                                                1040600200035 
 0.02488   1412.43                                                1040600200036 
 0.02614   1366.35                                                1040600200037 
 0.02745   1338.63                                                1040600200038 
 0.02881   1304.54                                                1040600200039 
 0.03027   1278.22                                                1040600200040 
 0.03178   1234.38                                                1040600200041 
 0.03334   1216.61                                                1040600200042 
 0.03502   1181.07                                                1040600200043 
 0.03682   1152.13                                                1040600200044 
 0.03869   1120.15                                                1040600200045 
 0.04061   1097.18                                                1040600200046 
 0.04258   1073.91                                                1040600200047 
 0.04470   1047.43                                                1040600200048 
 0.04698   1023.03                                                1040600200049 
 0.04932   1000.23                                                1040600200050 
 0.05170    980.67                                                1040600200051 
 0.05427    953.67                                                1040600200052 
 0.05703    935.34                                                1040600200053 
 0.05983    925.18                                                1040600200054 
 0.06287    899.63                                                1040600200055 
 0.06612    883.65                                                1040600200056 
 0.06944    868.64                                                1040600200057 
 0.07280    855.67                                                1040600200058 
 0.07641    845.68                                                1040600200059 
 0.08029    828.95                                                1040600200060 
 0.08447    829.03                                                1040600200061 
 0.08871    816.03                                                1040600200062 
 0.09293    816.19                                                1040600200063 
 0.09750    820.15                                                1040600200064 
 0.10237    815.91                                                1040600200065 
 0.10766    812.46                                                1040600200066 
 0.11291    813.59                                                1040600200067 
 0.11856    833.60                                                1040600200068 
 0.12468    836.30                                                1040600200069 
 0.13073    859.38                                                1040600200070 
 0.13724    876.61                                                1040600200071 
 0.14425    909.06                                                1040600200072 
 0.15181    957.67                                                1040600200073 
 0.15931   1009.92                                                1040600200074 
 0.16651   1074.34                                                1040600200075 
 0.17514   1154.21                                                1040600200076 
 0.18446   1263.82                                                1040600200077 
 0.19346   1375.41                                                1040600200078 
 0.20333   1527.38                                                1040600200079 
 0.21376   1737.23                                                1040600200080 
 0.22401   1966.23                                                1040600200081 
 0.23502   2198.97                                                1040600200082 
 0.24672   2378.29                                                1040600200083 
 0.25932   2404.66                                                1040600200084 
 0.27307   2205.86                                                1040600200085 
 0.28615   1849.07                                                1040600200086 
 0.30020   1431.77                                                1040600200087 
 0.31531   1091.98                                                1040600200088 
 0.33159    790.60                                                1040600200089 
 0.34916    587.59                                                1040600200090 
 0.36591    423.59                                                1040600200091 
 0.38063    366.11                                                1040600200092 
 0.39972    254.35                                                1040600200093 
 0.42307    221.29                                                1040600200094 
 0.44549    170.99                                                1040600200095 
 0.46533    134.59                                                1040600200096 
 0.48777    133.24                                                1040600200097 
 0.51052     85.33                                                1040600200098 
 0.53635     79.55                                                1040600200099 
 0.56264     57.40                                                1040600200100 
 0.59258     12.01                                                1040600200101 
 0.62316     71.86                                                1040600200102 
 0.65178     98.53                                                1040600200103 
 0.68242     49.65                                                1040600200104 
 0.72032     54.98                                                1040600200105 
 0.75598     73.80                                                1040600200106 
 0.79435     44.81                                                1040600200107 
 0.83432     34.46                                                1040600200108 
 0.86910     77.62                                                1040600200109 
 0.90610     20.01                                                1040600200110 
 0.94552     26.47                                                1040600200111 
 0.98757    101.35                                                1040600200112 
 1.03248     37.93                                                1040600200113 
ENDDATA            102          0                                 1040600200114 
ENDSUBENT          113          0                                 1040600299999 
SUBENT        10406003   20030207                             00001040600300001 
BIB                  2          6                                 1040600300002 
REACTION   (94-PU-241(N,TOT),,SIG)                                1040600300003 
SAMPLE     Metallic foils, enriched to 99.3% 241Pu. Sample        1040600300004 
            thickness 2787.8 b/atom. Contaminants:                1040600300005 
            241Am (69160 b/atom), 239Pu (453600 b/atom),          1040600300006 
            240Pu (1899000 b/atom), 242Pu (4288000 b/atom),       1040600300007 
            27Al  (59600 b/atom).                                 1040600300008 
ENDBIB               6          0                                 1040600300009 
NOCOMMON             0          0                                 1040600300010 
DATA                 2        153                                 1040600300011 
EN         DATA                                                   1040600300012 
EV         B                                                      1040600300013 
 0.00104   6388.21                                                1040600300014 
 0.00110   6414.15                                                1040600300015 
 0.00115   6494.42                                                1040600300016 
 0.00121   6741.98                                                1040600300017 
 0.00127   6461.06                                                1040600300018 
 0.00133   6297.18                                                1040600300019 
 0.00140   6201.37                                                1040600300020 
 0.00147   5951.71                                                1040600300021 
 0.00154   5848.95                                                1040600300022 
 0.00162   5778.38                                                1040600300023 
 0.00170   5767.66                                                1040600300024 
 0.00178   5486.65                                                1040600300025 
 0.00187   5426.92                                                1040600300026 
 0.00197   5246.56                                                1040600300027 
 0.00206   5130.40                                                1040600300028 
 0.00217   5040.14                                                1040600300029 
 0.00228   4842.99                                                1040600300030 
 0.00240   4774.54                                                1040600300031 
 0.00252   4641.52                                                1040600300032 
 0.00264   4512.08                                                1040600300033 
 0.00277   4430.93                                                1040600300034 
 0.00291   4301.62                                                1040600300035 
 0.00306   4222.78                                                1040600300036 
 0.00321   4108.66                                                1040600300037 
 0.00336   4024.19                                                1040600300038 
 0.00354   3936.34                                                1040600300039 
 0.00371   3808.37                                                1040600300040 
 0.00390   3717.95                                                1040600300041 
 0.00409   3636.86                                                1040600300042 
 0.00430   3567.13                                                1040600300043 
 0.00452   3480.80                                                1040600300044 
 0.00474   3403.70                                                1040600300045 
 0.00499   3318.32                                                1040600300046 
 0.00523   3212.48                                                1040600300047 
 0.00547   3127.07                                                1040600300048 
 0.00576   3062.63                                                1040600300049 
 0.00606   2970.97                                                1040600300050 
 0.00636   2891.26                                                1040600300051 
 0.00667   2829.59                                                1040600300052 
 0.00700   2764.77                                                1040600300053 
 0.00735   2685.47                                                1040600300054 
 0.00770   2632.00                                                1040600300055 
 0.00810   2571.08                                                1040600300056 
 0.00860   2510.45                                                1040600300057 
 0.00904   2295.27                                                1040600300058 
 0.00950   2370.30                                                1040600300059 
 0.00996   2295.66                                                1040600300060 
 0.01047   2278.47                                                1040600300061 
 0.01101   2192.07                                                1040600300062 
 0.01157   2156.11                                                1040600300063 
 0.01214   2072.28                                                1040600300064 
 0.01275   2013.63                                                1040600300065 
 0.01338   1976.65                                                1040600300066 
 0.01402   1925.96                                                1040600300067 
 0.01474   1858.47                                                1040600300068 
 0.01548   1815.87                                                1040600300069 
 0.01623   1789.42                                                1040600300070 
 0.01704   1732.28                                                1040600300071 
 0.01791   1693.63                                                1040600300072 
 0.01884   1652.89                                                1040600300073 
 0.01980   1594.32                                                1040600300074 
 0.02075   1550.88                                                1040600300075 
 0.02178   1511.88                                                1040600300076 
 0.02289   1479.08                                                1040600300077 
 0.02400   1444.73                                                1040600300078 
 0.02520   1402.97                                                1040600300079 
 0.02648   1358.26                                                1040600300080 
 0.02777   1331.68                                                1040600300081 
 0.02915   1296.01                                                1040600300082 
 0.03064   1279.55                                                1040600300083 
 0.03211   1231.10                                                1040600300084 
 0.03370   1199.52                                                1040600300085 
 0.03540   1187.90                                                1040600300086 
 0.03724   1152.12                                                1040600300087 
 0.03905   1137.06                                                1040600300088 
 0.04100   1104.28                                                1040600300089 
 0.04310   1074.64                                                1040600300090 
 0.04515   1052.12                                                1040600300091 
 0.04735   1038.30                                                1040600300092 
 0.04971   1006.42                                                1040600300093 
 0.05226    985.29                                                1040600300094 
 0.05501    953.84                                                1040600300095 
 0.05767    953.17                                                1040600300096 
 0.06053    917.80                                                1040600300097 
 0.06361    905.08                                                1040600300098 
 0.06693    894.59                                                1040600300099 
 0.07052    868.92                                                1040600300100 
 0.07395    847.12                                                1040600300101 
 0.07765    852.29                                                1040600300102 
 0.08162    844.15                                                1040600300103 
 0.08536    845.08                                                1040600300104 
 0.08936    824.16                                                1040600300105 
 0.09428    824.71                                                1040600300106 
 0.09893    829.74                                                1040600300107 
 0.10394    810.56                                                1040600300108 
 0.10933    816.74                                                1040600300109 
 0.11429    841.07                                                1040600300110 
 0.11960    853.83                                                1040600300111 
 0.12529    867.07                                                1040600300112 
 0.13245    880.46                                                1040600300113 
 0.13909    911.18                                                1040600300114 
 0.14501    914.29                                                1040600300115 
 0.15264    972.25                                                1040600300116 
 0.16087   1033.75                                                1040600300117 
 0.16980   1113.13                                                1040600300118 
 0.17781   1202.12                                                1040600300119 
 0.18641   1313.73                                                1040600300120 
 0.19564   1431.85                                                1040600300121 
 0.20558   1628.98                                                1040600300122 
 0.21630   1837.09                                                1040600300123 
 0.22549   2065.33                                                1040600300124 
 0.23782   2250.57                                                1040600300125 
 0.25119   2407.20                                                1040600300126 
 0.26272   2321.63                                                1040600300127 
 0.27505   2175.05                                                1040600300128 
 0.28828   1762.93                                                1040600300129 
 0.30249   1322.55                                                1040600300130 
 0.31777   1008.90                                                1040600300131 
 0.33425    749.57                                                1040600300132 
 0.35203    537.59                                                1040600300133 
 0.37128    358.11                                                1040600300134 
 0.38676    261.21                                                1040600300135 
 0.40324    196.46                                                1040600300136 
 0.42690    199.78                                                1040600300137 
 0.45271    189.72                                                1040600300138 
 0.47363    115.50                                                1040600300139 
 0.49604    136.77                                                1040600300140 
 0.52007     96.01                                                1040600300141 
 0.54590     75.35                                                1040600300142 
 0.57369     57.34                                                1040600300143 
 0.60367     27.52                                                1040600300144 
 0.63606   -116.57                                                1040600300145 
 0.65912    -25.47                                                1040600300146 
 0.69614     71.04                                                1040600300147 
 0.73636    115.63                                                1040600300148 
 0.76515    116.30                                                1040600300149 
 0.79566     31.56                                                1040600300150 
 0.84496     51.15                                                1040600300151 
 0.89899    -54.34                                                1040600300152 
 0.93794     69.32                                                1040600300153 
 0.97947     13.75                                                1040600300154 
 1.02383     57.33                                                1040600300155 
 1.07127    -72.90                                                1040600300156 
 1.12209     67.12                                                1040600300157 
 1.17661    111.13                                                1040600300158 
 1.23520     12.35                                                1040600300159 
 1.29828     -8.71                                                1040600300160 
 1.36632    -28.20                                                1040600300161 
 1.43985    -15.39                                                1040600300162 
 1.51949      9.06                                                1040600300163 
 1.60591    -32.49                                                1040600300164 
 1.69992    -15.16                                                1040600300165 
 1.80244     -4.16                                                1040600300166 
ENDDATA            155          0                                 1040600300167 
ENDSUBENT          166          0                                 1040600399999 
SUBENT        10406004   20030207                             00001040600400001 
BIB                  2          6                                 1040600400002 
REACTION   (94-PU-241(N,TOT),,SIG)                                1040600400003 
SAMPLE     Metallic foils, enriched to 99.3% 241Pu. Sample        1040600400004 
            thickness 905.9 b/atom. Contaminants:                 1040600400005 
            241Am (89290 b/atom), 239Pu (151800 b/atom),          1040600400006 
            240Pu (636230 b/atom), 242Pu (1435000 b/atom),        1040600400007 
            27Al  (18956 b/atom).                                 1040600400008 
ENDBIB               6          0                                 1040600400009 
NOCOMMON             0          0                                 1040600400010 
DATA                 2        121                                 1040600400011 
EN         DATA                                                   1040600400012 
EV         B                                                      1040600400013 
 0.00812   2464.00                                                1040600400014 
 0.00851   2438.96                                                1040600400015 
 0.00894   2366.61                                                1040600400016 
 0.00939   2282.94                                                1040600400017 
 0.00986   2249.62                                                1040600400018 
 0.01035   2182.69                                                1040600400019 
 0.01085   2134.85                                                1040600400020 
 0.01140   2097.11                                                1040600400021 
 0.01197   2038.87                                                1040600400022 
 0.01257   1974.76                                                1040600400023 
 0.01320   1928.14                                                1040600400024 
 0.01387   1894.04                                                1040600400025 
 0.01456   1827.39                                                1040600400026 
 0.01529   1786.31                                                1040600400027 
 0.01604   1747.08                                                1040600400028 
 0.01684   1707.83                                                1040600400029 
 0.01769   1662.62                                                1040600400030 
 0.01858   1611.33                                                1040600400031 
 0.01951   1584.61                                                1040600400032 
 0.02048   1540.34                                                1040600400033 
 0.02149   1499.05                                                1040600400034 
 0.02258   1461.08                                                1040600400035 
 0.02371   1433.14                                                1040600400036 
 0.02488   1398.15                                                1040600400037 
 0.02614   1350.87                                                1040600400038 
 0.02745   1320.52                                                1040600400039 
 0.02881   1285.31                                                1040600400040 
 0.03027   1255.36                                                1040600400041 
 0.03178   1224.50                                                1040600400042 
 0.03334   1195.22                                                1040600400043 
 0.03502   1165.75                                                1040600400044 
 0.03682   1135.81                                                1040600400045 
 0.03869   1106.68                                                1040600400046 
 0.04061   1083.50                                                1040600400047 
 0.04258   1053.45                                                1040600400048 
 0.04470   1033.05                                                1040600400049 
 0.04698   1008.25                                                1040600400050 
 0.04932    986.41                                                1040600400051 
 0.05170    966.42                                                1040600400052 
 0.05427    944.21                                                1040600400053 
 0.05703    925.93                                                1040600400054 
 0.05983    907.62                                                1040600400055 
 0.06287    888.41                                                1040600400056 
 0.06612    873.80                                                1040600400057 
 0.06944    860.27                                                1040600400058 
 0.07280    848.06                                                1040600400059 
 0.07641    832.65                                                1040600400060 
 0.08029    823.54                                                1040600400061 
 0.08447    814.54                                                1040600400062 
 0.08871    804.04                                                1040600400063 
 0.09293    804.94                                                1040600400064 
 0.09750    799.72                                                1040600400065 
 0.10237    802.56                                                1040600400066 
 0.10766    800.00                                                1040600400067 
 0.11291    806.22                                                1040600400068 
 0.11856    821.20                                                1040600400069 
 0.12468    827.56                                                1040600400070 
 0.13073    847.57                                                1040600400071 
 0.13724    866.06                                                1040600400072 
 0.14425    902.43                                                1040600400073 
 0.15181    940.55                                                1040600400074 
 0.15931    987.23                                                1040600400075 
 0.16651   1048.84                                                1040600400076 
 0.17514   1132.70                                                1040600400077 
 0.18446   1241.73                                                1040600400078 
 0.19346   1358.58                                                1040600400079 
 0.20333   1519.76                                                1040600400080 
 0.21376   1735.40                                                1040600400081 
 0.22401   1938.40                                                1040600400082 
 0.23502   2167.08                                                1040600400083 
 0.24672   2359.44                                                1040600400084 
 0.25932   2365.78                                                1040600400085 
 0.27307   2139.14                                                1040600400086 
 0.28615   1779.90                                                1040600400087 
 0.30020   1377.09                                                1040600400088 
 0.31531   1038.16                                                1040600400089 
 0.33159    748.46                                                1040600400090 
 0.34916    543.01                                                1040600400091 
 0.36591    408.16                                                1040600400092 
 0.38063    333.12                                                1040600400093 
 0.39972    247.73                                                1040600400094 
 0.42307    203.99                                                1040600400095 
 0.44549    162.13                                                1040600400096 
 0.46533    134.39                                                1040600400097 
 0.48777    112.42                                                1040600400098 
 0.51052     97.21                                                1040600400099 
 0.53635     83.87                                                1040600400100 
 0.56264     74.19                                                1040600400101 
 0.59258     54.54                                                1040600400102 
 0.62316     69.95                                                1040600400103 
 0.65178     61.53                                                1040600400104 
 0.68242     51.73                                                1040600400105 
 0.72032     56.45                                                1040600400106 
 0.75598     56.49                                                1040600400107 
 0.79435     49.28                                                1040600400108 
 0.83432     56.47                                                1040600400109 
 0.86910     64.27                                                1040600400110 
 0.90610     52.02                                                1040600400111 
 0.94552     51.66                                                1040600400112 
 0.98757     78.61                                                1040600400113 
 1.03248     36.11                                                1040600400114 
 1.08053    -54.04                                                1040600400115 
 1.13202     32.67                                                1040600400116 
 1.18727     50.33                                                1040600400117 
 1.24667      6.55                                                1040600400118 
 1.31065     32.16                                                1040600400119 
 1.37967     58.23                                                1040600400120 
 1.45430     48.42                                                1040600400121 
 1.53515     56.44                                                1040600400122 
 1.62293     41.49                                                1040600400123 
 1.71847     31.14                                                1040600400124 
 1.84791     41.21                                                1040600400125 
 1.99775     31.64                                                1040600400126 
 2.12885     35.83                                                1040600400127 
 2.27329     38.07                                                1040600400128 
 2.43295     53.05                                                1040600400129 
 2.61004     59.01                                                1040600400130 
 2.80718     47.04                                                1040600400131 
 3.02754     58.41                                                1040600400132 
 3.27491     62.56                                                1040600400133 
 3.55387     61.74                                                1040600400134 
ENDDATA            123          0                                 1040600400135 
ENDSUBENT          134          0                                 1040600499999 
ENDENTRY             4          0                                 1040699999999 
