ENTRY            10436   20030408                             00001043600000001 
SUBENT        10436001   20030408                             00001043600100001 
BIB                 11         19                                 1043600100002 
INSTITUTE  (1USARPI)                                              1043600100003 
REFERENCE  (C,75WASH,2,584,197503)                                1043600100004 
           (P,USNDC-11,220,197406)                                1043600100005 
AUTHOR     (R.W.Hockenbury,A.J.Sanislo,N.N.Kaushal)               1043600100006 
TITLE      keV capture cross section of 242Pu                     1043600100007 
FACILITY   (LINAC,1USARPI)                                        1043600100008 
METHOD     (TOF)                                                  1043600100009 
DETECTOR   (SCIN) Liquid scintillator                             1043600100010 
           Flux monitored by NaI crystal                          1043600100011 
MONITOR    10B used to determine shape of flux.                   1043600100012 
CORRECTION Corrected for deadtime and background effects, and for 1043600100013 
            efficiency of flux monitor.                           1043600100014 
STATUS     (APRVD) Approved by author                             1043600100015 
            Data received on punched cards, Hockenbury, 1974/10.  1043600100016 
HISTORY    (19741024C)                                            1043600100017 
           (19751002A) Resonance parameters added                 1043600100018 
           (19760302A)Reference updated, SAN 3 reaction corrected.1043600100019 
           (19830607A) Converted to REACTION formalism            1043600100020 
           (20030408A) Converted to new date formats, lower case. 1043600100021 
ENDBIB              19          0                                 1043600100022 
NOCOMMON             0          0                                 1043600100023 
ENDSUBENT           22          0                                 1043600199999 
SUBENT        10436002   20030408                             00001043600200001 
BIB                  2          2                                 1043600200002 
REACTION   (94-PU-242(N,G)94-PU-243,,SIG)                         1043600200003 
ERR-ANALYS No information on uncertainties.                       1043600200004 
ENDBIB               2          0                                 1043600200005 
NOCOMMON             0          0                                 1043600200006 
DATA                 2        251                                 1043600200007 
EN         DATA                                                   1043600200008 
KEV        B                                                      1043600200009 
     6.2709     1.3005                                            1043600200010 
     6.3045     1.5780                                            1043600200011 
     6.3384     1.3419                                            1043600200012 
     6.3726     1.0273                                            1043600200013 
     6.4070     0.8291                                            1043600200014 
     6.4417     1.1563                                            1043600200015 
     6.4767     0.8677                                            1043600200016 
     6.5120     1.6331                                            1043600200017 
     6.5476     1.2109                                            1043600200018 
     6.5835     1.2192                                            1043600200019 
     6.6196     1.5293                                            1043600200020 
     6.6561     1.1700                                            1043600200021 
     6.6929     1.5987                                            1043600200022 
     6.7299     1.0974                                            1043600200023 
     6.7673     1.3196                                            1043600200024 
     6.8050     1.1435                                            1043600200025 
     6.8430     1.3467                                            1043600200026 
     6.8814     1.4663                                            1043600200027 
     6.9200     1.9183                                            1043600200028 
     6.9590     1.5719                                            1043600200029 
     6.9983     1.7201                                            1043600200030 
     7.0379     1.3941                                            1043600200031 
     7.0779     1.2062                                            1043600200032 
     7.1183     1.3459                                            1043600200033 
     7.1589     1.2211                                            1043600200034 
     7.1999     0.8531                                            1043600200035 
     7.2413     0.9481                                            1043600200036 
     7.2830     1.2324                                            1043600200037 
     7.3251     0.9377                                            1043600200038 
     7.3676     1.7865                                            1043600200039 
     7.4104     1.4529                                            1043600200040 
     7.4536     0.9510                                            1043600200041 
     7.4972     1.0334                                            1043600200042 
     7.5412     1.3085                                            1043600200043 
     7.5855     1.0984                                            1043600200044 
     7.6303     1.0551                                            1043600200045 
     7.6754     1.0988                                            1043600200046 
     7.7210     0.7543                                            1043600200047 
     7.7669     1.0682                                            1043600200048 
     7.8133     1.5940                                            1043600200049 
     7.8601     1.2877                                            1043600200050 
     7.9073     0.7700                                            1043600200051 
     7.9549     1.0029                                            1043600200052 
     8.0029     1.4760                                            1043600200053 
     8.0514     1.2801                                            1043600200054 
     8.1004     1.0165                                            1043600200055 
     8.1498     0.7810                                            1043600200056 
     8.1996     0.7193                                            1043600200057 
     8.2499     0.6267                                            1043600200058 
     8.3006     0.9508                                            1043600200059 
     8.3519     0.7843                                            1043600200060 
     8.4036     1.1495                                            1043600200061 
     8.4558     1.2251                                            1043600200062 
     8.5084     1.7495                                            1043600200063 
     8.5616     1.3586                                            1043600200064 
     8.6153     1.0855                                            1043600200065 
     8.6695     1.2278                                            1043600200066 
     8.7241     1.6471                                            1043600200067 
     8.7794     1.5179                                            1043600200068 
     8.8351     1.2120                                            1043600200069 
     8.8913     1.2070                                            1043600200070 
     8.9482     1.4028                                            1043600200071 
     9.0055     1.3589                                            1043600200072 
     9.0634     1.3082                                            1043600200073 
     9.1219     1.3724                                            1043600200074 
     9.1809     1.3626                                            1043600200075 
     9.2405     1.2479                                            1043600200076 
     9.3007     1.3411                                            1043600200077 
     9.3615     0.8294                                            1043600200078 
     9.4229     0.8530                                            1043600200079 
     9.4848     1.3650                                            1043600200080 
     9.5474     1.1751                                            1043600200081 
     9.6106     0.9974                                            1043600200082 
     9.6745     1.4183                                            1043600200083 
     9.7390     1.2772                                            1043600200084 
     9.8041     1.0575                                            1043600200085 
     9.8699     1.0947                                            1043600200086 
     9.9363     1.2529                                            1043600200087 
    10.0035     1.2099                                            1043600200088 
    10.0713     1.2329                                            1043600200089 
    10.1398     0.8845                                            1043600200090 
    10.2090     0.9399                                            1043600200091 
    10.2789     1.2860                                            1043600200092 
    10.3495     1.4266                                            1043600200093 
    10.4209     1.2204                                            1043600200094 
    10.4930     1.0646                                            1043600200095 
    10.5658     0.8058                                            1043600200096 
    10.6395     1.0482                                            1043600200097 
    10.7139     1.2010                                            1043600200098 
    10.7890     1.1171                                            1043600200099 
    10.8650     1.1172                                            1043600200100 
    10.9418     1.3559                                            1043600200101 
    11.0193     1.1703                                            1043600200102 
    11.0978     1.0898                                            1043600200103 
    11.1770     1.0818                                            1043600200104 
    11.2571     1.1418                                            1043600200105 
    11.3381     1.2809                                            1043600200106 
    11.4199     1.1588                                            1043600200107 
    11.5027     1.0871                                            1043600200108 
    11.5863     1.3501                                            1043600200109 
    11.6709     1.3708                                            1043600200110 
    11.7564     0.9364                                            1043600200111 
    11.8428     0.9302                                            1043600200112 
    11.9302     1.0842                                            1043600200113 
    12.0185     0.9247                                            1043600200114 
    12.1079     1.1676                                            1043600200115 
    12.1982     0.8444                                            1043600200116 
    12.2896     0.8912                                            1043600200117 
    12.3819     0.8498                                            1043600200118 
    12.4754     0.8937                                            1043600200119 
    12.5699     1.1550                                            1043600200120 
    12.6654     1.1951                                            1043600200121 
    12.7621     1.1244                                            1043600200122 
    12.8599     0.9289                                            1043600200123 
    12.9588     1.1541                                            1043600200124 
    13.0588     1.0709                                            1043600200125 
    13.1600     0.6480                                            1043600200126 
    13.2624     1.0727                                            1043600200127 
    13.3660     1.0540                                            1043600200128 
    13.4708     1.2085                                            1043600200129 
    13.5769     1.0195                                            1043600200130 
    13.6842     0.8133                                            1043600200131 
    13.7928     1.0533                                            1043600200132 
    13.9026     0.8782                                            1043600200133 
    14.0138     0.9270                                            1043600200134 
    14.1264     0.9840                                            1043600200135 
    14.2403     0.9567                                            1043600200136 
    14.3555     0.6839                                            1043600200137 
    14.4722     0.8157                                            1043600200138 
    14.5903     0.7651                                            1043600200139 
    14.7099     0.7509                                            1043600200140 
    14.8310     1.0493                                            1043600200141 
    14.9535     0.9478                                            1043600200142 
    15.0776     1.0179                                            1043600200143 
    15.2032     1.0067                                            1043600200144 
    15.3304     1.1444                                            1043600200145 
    15.4592     0.9233                                            1043600200146 
    15.5896     0.8850                                            1043600200147 
    15.7217     0.8396                                            1043600200148 
    15.8555     0.9049                                            1043600200149 
    15.9910     0.8110                                            1043600200150 
    16.1282     0.9149                                            1043600200151 
    16.2672     0.8273                                            1043600200152 
    16.4080     0.9771                                            1043600200153 
    16.5506     0.7699                                            1043600200154 
    16.6952     0.6467                                            1043600200155 
    16.8416     0.6416                                            1043600200156 
    16.9899     0.7441                                            1043600200157 
    17.1402     0.8087                                            1043600200158 
    17.2926     1.0013                                            1043600200159 
    17.4469     0.8878                                            1043600200160 
    17.6034     0.9644                                            1043600200161 
    17.7619     0.7991                                            1043600200162 
    17.9226     0.8295                                            1043600200163 
    18.0855     0.9697                                            1043600200164 
    18.2506     0.6367                                            1043600200165 
    18.4180     1.0159                                            1043600200166 
    18.5877     0.7598                                            1043600200167 
    18.7598     0.9184                                            1043600200168 
    18.9343     1.0899                                            1043600200169 
    19.1112     0.8043                                            1043600200170 
    19.2906     0.8141                                            1043600200171 
    19.4725     0.8624                                            1043600200172 
    19.6570     0.6472                                            1043600200173 
    19.8442     0.6738                                            1043600200174 
    20.0341     0.6813                                            1043600200175 
    20.2266     0.7052                                            1043600200176 
    20.4220     0.6829                                            1043600200177 
    20.6202     0.7829                                            1043600200178 
    20.8214     0.9804                                            1043600200179 
    21.0254     0.9160                                            1043600200180 
    21.2325     0.7929                                            1043600200181 
    21.4427     0.6477                                            1043600200182 
    21.6560     0.8075                                            1043600200183 
    21.8725     0.7929                                            1043600200184 
    22.0923     0.9545                                            1043600200185 
    22.3154     0.9268                                            1043600200186 
    22.5419     0.9534                                            1043600200187 
    22.7718     0.8429                                            1043600200188 
    23.0053     0.8584                                            1043600200189 
    23.2424     0.7456                                            1043600200190 
    23.4832     0.7990                                            1043600200191 
    23.7277     0.8997                                            1043600200192 
    23.9761     0.7703                                            1043600200193 
    24.2284     0.8013                                            1043600200194 
    24.4848     0.6993                                            1043600200195 
    24.7452     0.7854                                            1043600200196 
    25.0097     0.6697                                            1043600200197 
    25.2786     0.6923                                            1043600200198 
    25.5518     0.6820                                            1043600200199 
    25.8294     0.7454                                            1043600200200 
    26.1117     0.7386                                            1043600200201 
    26.3985     0.8795                                            1043600200202 
    26.6901     0.6824                                            1043600200203 
    26.9866     0.6794                                            1043600200204 
    27.2880     0.8357                                            1043600200205 
    27.5945     0.7107                                            1043600200206 
    27.9062     0.7234                                            1043600200207 
    28.2233     0.7696                                            1043600200208 
    28.5457     0.7273                                            1043600200209 
    28.8737     0.7678                                            1043600200210 
    29.2074     0.6740                                            1043600200211 
    29.5469     0.7026                                            1043600200212 
    29.8924     0.7954                                            1043600200213 
    40.9609     0.4492                                            1043600200214 
    41.5256     0.3474                                            1043600200215 
    42.1022     0.5543                                            1043600200216 
    42.6908     0.5826                                            1043600200217 
    43.2918     0.5499                                            1043600200218 
    43.9057     0.5332                                            1043600200219 
    44.5326     0.3514                                            1043600200220 
    45.1732     0.6272                                            1043600200221 
    45.8276     0.5783                                            1043600200222 
    46.4963     0.4728                                            1043600200223 
    47.1798     0.5189                                            1043600200224 
    47.8785     0.5556                                            1043600200225 
    48.5928     0.5725                                            1043600200226 
    49.3233     0.3721                                            1043600200227 
    50.0703     0.4609                                            1043600200228 
    50.8344     0.3024                                            1043600200229 
    51.6161     0.4119                                            1043600200230 
    52.4161     0.4331                                            1043600200231 
    53.2347     0.3349                                            1043600200232 
    54.0727     0.4218                                            1043600200233 
    54.9306     0.4457                                            1043600200234 
    55.8091     0.3712                                            1043600200235 
    56.7089     0.4435                                            1043600200236 
    57.6306     0.4305                                            1043600200237 
    58.5749     0.3710                                            1043600200238 
    59.5427     0.4493                                            1043600200239 
    60.5346     0.3274                                            1043600200240 
    61.5515     0.3105                                            1043600200241 
    62.5943     0.4166                                            1043600200242 
    63.6638     0.3651                                            1043600200243 
    64.7609     0.4003                                            1043600200244 
    65.8867     0.3407                                            1043600200245 
    67.0420     0.3866                                            1043600200246 
    68.2281     0.3136                                            1043600200247 
    69.4458     0.3796                                            1043600200248 
    70.6965     0.3501                                            1043600200249 
    71.9812     0.2554                                            1043600200250 
    73.3014     0.3178                                            1043600200251 
    74.6581     0.3325                                            1043600200252 
    76.0529     0.2425                                            1043600200253 
    77.4871     0.1165                                            1043600200254 
    78.9623     0.2035                                            1043600200255 
    80.4800     0.1249                                            1043600200256 
    82.0419     0.0079                                            1043600200257 
    83.6497     0.0571                                            1043600200258 
    85.3052     0.2987                                            1043600200259 
    87.0104    -2.3286                                            1043600200260 
ENDDATA            253          0                                 1043600200261 
ENDSUBENT          260          0                                 1043600299999 
SUBENT        10436003   20030408                             00001043600300001 
BIB                  2          2                                 1043600300002 
REACTION   (94-PU-242(N,EL),,WID)                                 1043600300003 
ERR-ANALYS (DATA-ERR) No information on source of uncertainties.  1043600300004 
ENDBIB               2          0                                 1043600300005 
NOCOMMON             0          0                                 1043600300006 
DATA                 3          5                                 1043600300007 
EN-RES     DATA       DATA-ERR                                    1043600300008 
EV         MILLI-EV   MILLI-EV                                    1043600300009 
205.0      48.        2.0                                         1043600300010 
273.8      15.1       0.8                                         1043600300011 
303.7      17.        0.8                                         1043600300012 
332.6      91.        3.0                                         1043600300013 
382.4      36.        2.                                          1043600300014 
ENDDATA              7          0                                 1043600300015 
ENDSUBENT           14          0                                 1043600399999 
SUBENT        10436004   20030408                             00001043600400001 
BIB                  2          2                                 1043600400002 
REACTION   (94-PU-242(N,G)94-PU-243,,SIG,,AV)                     1043600400003 
HISTORY    (19870814A) Data removed. Avg of 10436.002.            1043600400004 
ENDBIB               2          0                                 1043600400005 
NOCOMMON             0          0                                 1043600400006 
NODATA               0          0                                 1043600400007 
ENDSUBENT            6          0                                 1043600499999 
SUBENT        10436005   20030408                             00001043600500001 
BIB                  2          3                                 1043600500002 
REACTION  1(94-PU-242(N,G),,WID,,AV)                              1043600500003 
          2(94-PU-242(N,0),,D)                                    1043600500004 
ERR-ANALYS No information on uncertainties.                       1043600500005 
ENDBIB               3          0                                 1043600500006 
NOCOMMON             0          0                                 1043600500007 
DATA                 3          1                                 1043600500008 
EN-MAX     DATA      1DATA      2                                 1043600500009 
KEV        EV         EV                                          1043600500010 
87.        0.0226     13.                                         1043600500011 
ENDDATA              3          0                                 1043600500012 
ENDSUBENT           11          0                                 1043600599999 
SUBENT        10436006   20030408                             00001043600600001 
BIB                  2          2                                 1043600600002 
REACTION   (94-PU-242(N,EL),,STF)                                 1043600600003 
ERR-ANALYS No information on uncertainties.                       1043600600004 
ENDBIB               2          0                                 1043600600005 
COMMON               1          3                                 1043600600006 
EN-MAX                                                            1043600600007 
KEV                                                               1043600600008 
87.                                                               1043600600009 
ENDCOMMON            3          0                                 1043600600010 
DATA                 2          2                                 1043600600011 
MOMENTUM L DATA                                                   1043600600012 
NO-DIM     NO-DIM                                                 1043600600013 
 0.           1.16E-04                                            1043600600014 
 1.           2.5 E-04                                            1043600600015 
ENDDATA              4          0                                 1043600600016 
ENDSUBENT           15          0                                 1043600699999 
ENDENTRY             6          0                                 1043699999999 
