ENTRY            10498   20040114                             00001049800000001 
SUBENT        10498001   20040114                             00001049800100001 
BIB                 12         20                                 1049800100002 
INSTITUTE  (1USACOL,1USAALB)                                      1049800100003 
REFERENCE  (J,PR/C,10,2143,197412)                                1049800100004 
           (W,SINGH,197504) TOTAL CROSS SECTION DATA REC'D        1049800100005 
AUTHOR     (U.N.Singh,H.I.Liou,J.Rainwater,G.Hacken,W.Makofske,   1049800100006 
            J.B.Garg)                                             1049800100007 
TITLE      Neutron resonance spectroscopy: Calcium                1049800100008 
FACILITY   (SYNCH,1USACOL) Nevis synchrocyclotron                 1049800100009 
SAMPLE     High purity metallic calcium of varying thicknesses    1049800100010 
METHOD     (TOF) Time-of-flight                                   1049800100011 
DETECTOR   (SCIN) SCintillation detectors for self-indication     1049800100012 
                  measurements.                                   1049800100013 
           (NAICR) NaI crystals viewing boron slab.               1049800100014 
CORRECTION Data have been corrected for background count          1049800100015 
            effects and effects of polyethelene sample containers.1049800100016 
ERR-ANALYS (DATA-ERR) No information on source of uncertainties.  1049800100017 
STATUS     (APRVD) Approved by author                             1049800100018 
HISTORY    (19750428C)                                            1049800100019 
           (19770214A) Added STF data                             1049800100020 
           (19800819A) Converted to REACTION                      1049800100021 
           (20040114A) Converted to new date formats, lower case. 1049800100022 
ENDBIB              20          0                                 1049800100023 
NOCOMMON             0          0                                 1049800100024 
ENDSUBENT           23          0                                 1049800199999 
SUBENT        10498002   20040114                             00001049800200001 
BIB                  5          8                                 1049800200002 
REACTION  1(20-CA-40(N,0),,EN)                                    1049800200003 
          2(20-CA-40(N,EL),,WID,,AG)                              1049800200004 
          3(20-CA-40(N,0),,L)                                     1049800200005 
ANALYSIS   (AREA) Transmission area analysis                      1049800200006 
FLAG       (1.) Uncertain isotopic assignment                     1049800200007 
           (2.) Uncertain momentum assignment.                    1049800200008 
STATUS     Data taken from Table II in reference.                 1049800200009 
HISTORY    (19800819A) Added momentum                             1049800200010 
ENDBIB               8          0                                 1049800200011 
NOCOMMON             0          0                                 1049800200012 
DATA                 7         18                                 1049800200013 
DATA      1DATA-ERR  1DATA      2DATA-ERR  2DATA      3DATA-MIN  31049800200014 
FLAG                                                              1049800200015 
KEV        KEV        EV         EV         NO-DIM     NO-DIM     1049800200016 
NO-DIM                                                            1049800200017 
 10.827    0.006         0.65      0.15                1.         1049800200018 
                                                                  1049800200019 
 20.404    0.016         6.0       1.0      0.                    1049800200020 
  2.                                                              1049800200021 
 42.04     0.05          0.85      0.20     0.                    1049800200022 
  2.                                                              1049800200023 
 84.80     0.14          3.4       0.7                 1.         1049800200024 
  1.                                                              1049800200025 
 88.75     0.15        140.       30.       0.                    1049800200026 
                                                                  1049800200027 
 90.93     0.15          9.        2.                  1.         1049800200028 
  1.                                                              1049800200029 
101.0      0.2          17.        4.                  1.         1049800200030 
                                                                  1049800200031 
121.3      0.2          14.        4.                  1.         1049800200032 
                                                                  1049800200033 
145.1      0.3         170.       40.                  1.         1049800200034 
                                                                  1049800200035 
151.0      0.3          23.        5.                  1.         1049800200036 
                                                                  1049800200037 
160.5      0.4          26.        6.                  1.         1049800200038 
                                                                  1049800200039 
185.1      0.4          29.        6.                  1.         1049800200040 
                                                                  1049800200041 
210.2      0.5         180.       40.                  1.         1049800200042 
                                                                  1049800200043 
229.1      0.6         300.       60.                  1.         1049800200044 
                                                                  1049800200045 
385.0      1.3         450.       90.                  1.         1049800200046 
                                                                  1049800200047 
466.3      1.8         450.      100.                  1.         1049800200048 
                                                                  1049800200049 
476.1      1.8         600.      125.                  1.         1049800200050 
                                                                  1049800200051 
535.4      2.2        1000.      300.                  1.         1049800200052 
                                                                  1049800200053 
ENDDATA             40          0                                 1049800200054 
ENDSUBENT           53          0                                 1049800299999 
SUBENT        10498003   20040114                             00001049800300001 
BIB                  4          5                                 1049800300002 
REACTION  1(20-CA-42(N,0),,EN)                                    1049800300003 
          2(20-CA-42(N,EL),,WID,,AG)                              1049800300004 
ANALYSIS   (AREA) Transmission area analysis                      1049800300005 
STATUS     Data taken from Table II in reference.                 1049800300006 
FLAG       (1.) Uncertain isotopic assignment                     1049800300007 
ENDBIB               5          0                                 1049800300008 
NOCOMMON             0          0                                 1049800300009 
DATA                 5          1                                 1049800300010 
DATA      1DATA-ERR  1DATA      2DATA-ERR  2FLAG                  1049800300011 
KEV        KEV        EV         EV         NO-DIM                1049800300012 
37.43      0.04       7.0        3.0        1.                    1049800300013 
ENDDATA              3          0                                 1049800300014 
ENDSUBENT           13          0                                 1049800399999 
SUBENT        10498004   20040114                             00001049800400001 
BIB                  4          5                                 1049800400002 
REACTION  1(20-CA-44(N,0),,EN)                                    1049800400003 
          2(20-CA-44(N,EL),,WID,,AG)                              1049800400004 
ANALYSIS   (AREA) Transmission area analysis                      1049800400005 
STATUS     Data taken from Table II in reference.                 1049800400006 
FLAG       (1.) Uncertain isotopic assignment                     1049800400007 
ENDBIB               5          0                                 1049800400008 
NOCOMMON             0          0                                 1049800400009 
DATA                 5          1                                 1049800400010 
DATA      1DATA-ERR  1DATA      2DATA-ERR  2FLAG                  1049800400011 
KEV        KEV        EV         EV         NO-DIM                1049800400012 
51.80      0.20       25.0       5.0        1.                    1049800400013 
ENDDATA              3          0                                 1049800400014 
ENDSUBENT           13          0                                 1049800499999 
SUBENT        10498005   20040114                             00001049800500001 
BIB                  3          4                                 1049800500002 
REACTION  1(20-CA-0(N,0),,EN)                                     1049800500003 
          2(20-CA-0(N,EL),,WID)                                   1049800500004 
ANALYSIS   (AREA) Transmission area analysis                      1049800500005 
STATUS     Data taken from Table II in reference.                 1049800500006 
ENDBIB               4          0                                 1049800500007 
NOCOMMON             0          0                                 1049800500008 
DATA                 4          2                                 1049800500009 
DATA      1DATA-ERR  1DATA      2DATA-ERR  2                      1049800500010 
KEV        KEV        EV         EV                               1049800500011 
 82.55     0.20       20.0       10.0                             1049800500012 
103.0      1.0        40.        10.                              1049800500013 
ENDDATA              4          0                                 1049800500014 
ENDSUBENT           13          0                                 1049800599999 
SUBENT        10498006   20040114                             00001049800600001 
BIB                  4          6                                 1049800600002 
REACTION  1(20-CA-40(N,0),,EN)                                    1049800600003 
          2(20-CA-40(N,EL),,WID)                                  1049800600004 
ANALYSIS   (MLA) R-matrix multi-level analysis                    1049800600005 
ERR-ANALYS Estimated uncertainties are <10% for strong levels,    1049800600006 
            <15% for weaker levels.                               1049800600007 
STATUS     Data taken from Table III in reference.                1049800600008 
ENDBIB               6          0                                 1049800600009 
COMMON               1          3                                 1049800600010 
MOMENTUM L                                                        1049800600011 
NO-DIM                                                            1049800600012 
0.                                                                1049800600013 
ENDCOMMON            3          0                                 1049800600014 
DATA                 2          9                                 1049800600015 
DATA      1DATA      2                                            1049800600016 
KEV        KEV                                                    1049800600017 
131.60      3.17                                                  1049800600018 
168.57      2.44                                                  1049800600019 
216.15      7.37                                                  1049800600020 
241.80     20.0                                                   1049800600021 
290.95      1.80                                                  1049800600022 
326.35     14.2                                                   1049800600023 
354.50      1.61                                                  1049800600024 
435.00      8.24                                                  1049800600025 
501.50      8.11                                                  1049800600026 
ENDDATA             11          0                                 1049800600027 
ENDSUBENT           26          0                                 1049800699999 
SUBENT        10498007   20040114                             00001049800700001 
BIB                  3          3                                 1049800700002 
REACTION   (20-CA-0(N,TOT),,SIG)                                  1049800700003 
INC-SPECT  Data taken with iron filter                            1049800700004 
STATUS     Data taken from Table I in reference.                  1049800700005 
ENDBIB               3          0                                 1049800700006 
NOCOMMON             0          0                                 1049800700007 
DATA                 2          8                                 1049800700008 
EN         DATA                                                   1049800700009 
KEV        B                                                      1049800700010 
 23.0      1.72                                                   1049800700011 
 63.8      1.02                                                   1049800700012 
 72.7      0.87                                                   1049800700013 
 81.6      1.03                                                   1049800700014 
180.7      1.09                                                   1049800700015 
270.5      3.02                                                   1049800700016 
273.6      2.47                                                   1049800700017 
375.3      2.09                                                   1049800700018 
ENDDATA             10          0                                 1049800700019 
ENDSUBENT           18          0                                 1049800799999 
SUBENT        10498008   20040114                             00001049800800001 
BIB                  3          3                                 1049800800002 
REACTION   (20-CA-0(N,TOT),,SIG)                                  1049800800003 
INC-SPECT  Data taken with cobalt filter                          1049800800004 
STATUS     Data taken from Table I in reference.                  1049800800005 
ENDBIB               3          0                                 1049800800006 
NOCOMMON             0          0                                 1049800800007 
DATA                 2         11                                 1049800800008 
EN         DATA                                                   1049800800009 
KEV        B                                                      1049800800010 
 12.6      1.98                                                   1049800800011 
 15.3      1.90                                                   1049800800012 
 21.1      1.71                                                   1049800800013 
 21.3      1.67                                                   1049800800014 
 23.7      1.62                                                   1049800800015 
 28.6      1.42                                                   1049800800016 
 29.1      1.51                                                   1049800800017 
 39.5      1.27                                                   1049800800018 
 43.5      1.17                                                   1049800800019 
 49.1      1.24                                                   1049800800020 
124.0      0.59                                                   1049800800021 
ENDDATA             13          0                                 1049800800022 
ENDSUBENT           21          0                                 1049800899999 
SUBENT        10498009   20040114                             00001049800900001 
BIB                  3          3                                 1049800900002 
REACTION   (20-CA-0(N,TOT),,SIG)                                  1049800900003 
INC-SPECT  Data taken with copper filter                          1049800900004 
STATUS     Data taken from Table I in reference.                  1049800900005 
ENDBIB               3          0                                 1049800900006 
NOCOMMON             0          0                                 1049800900007 
DATA                 2          9                                 1049800900008 
EN         DATA                                                   1049800900009 
KEV        B                                                      1049800900010 
1.82       2.78                                                   1049800900011 
2.43       2.55                                                   1049800900012 
3.78       2.39                                                   1049800900013 
4.30       2.58                                                   1049800900014 
5.15       2.46                                                   1049800900015 
5.73       2.30                                                   1049800900016 
7.44       2.07                                                   1049800900017 
7.76       2.10                                                   1049800900018 
9.65       1.94                                                   1049800900019 
ENDDATA             11          0                                 1049800900020 
ENDSUBENT           19          0                                 1049800999999 
SUBENT        10498010   20040114                             00001049801000001 
BIB                  3          4                                 1049801000002 
REACTION   (20-CA-0(N,TOT),,SIG)                                  1049801000003 
INC-SPECT  Unfiltered beam data                                   1049801000004 
STATUS     Data received in private communication, U.N.Singh,     1049801000005 
            1975/4/24.                                            1049801000006 
ENDBIB               4          0                                 1049801000007 
NOCOMMON             0          0                                 1049801000008 
DATA                 2        674                                 1049801000009 
EN         DATA                                                   1049801000010 
EV         B                                                      1049801000011 
 1.6162E+03 3.42                                                  1049801000012 
 1.7062E+03 3.13                                                  1049801000013 
 1.8040E+03 3.05                                                  1049801000014 
 1.9105E+03 2.98                                                  1049801000015 
 2.0267E+03 2.93                                                  1049801000016 
 2.1538E+03 2.91                                                  1049801000017 
 2.2932E+03 2.86                                                  1049801000018 
 2.4466E+03 2.81                                                  1049801000019 
 2.6160E+03 2.79                                                  1049801000020 
 2.8036E+03 2.77                                                  1049801000021 
 3.0121E+03 2.69                                                  1049801000022 
 3.2448E+03 2.69                                                  1049801000023 
 3.5055E+03 2.67                                                  1049801000024 
 3.7989E+03 2.64                                                  1049801000025 
 4.1307E+03 2.60                                                  1049801000026 
 4.5081E+03 2.59                                                  1049801000027 
 4.9396E+03 2.46                                                  1049801000028 
 5.4362E+03 2.38                                                  1049801000029 
 6.0115E+03 2.40                                                  1049801000030 
 6.6834E+03 2.27                                                  1049801000031 
 7.4744E+03 2.20                                                  1049801000032 
 8.0825E+03 2.16                                                  1049801000033 
 8.4147E+03 2.16                                                  1049801000034 
 8.7679E+03 2.17                                                  1049801000035 
 9.0158E+03 2.13                                                  1049801000036 
 9.1437E+03 2.13                                                  1049801000037 
 9.2744E+03 2.10                                                  1049801000038 
 9.4079E+03 2.03                                                  1049801000039 
 9.5443E+03 2.02                                                  1049801000040 
 9.6837E+03 2.00                                                  1049801000041 
 9.8261E+03 1.99                                                  1049801000042 
 9.9718E+03 1.99                                                  1049801000043 
 1.0121E+04 1.98                                                  1049801000044 
 1.0273E+04 2.29                                                  1049801000045 
 1.0429E+04 2.20                                                  1049801000046 
 1.0588E+04 2.26                                                  1049801000047 
 1.0751E+04 2.52                                                  1049801000048 
 1.0806E+04 3.04                                                  1049801000049 
 1.0812E+04 3.78                                                  1049801000050 
 1.0818E+04 4.67                                                  1049801000051 
 1.0824E+04 9.08                                                  1049801000052 
 1.0831E+04 8.99                                                  1049801000053 
 1.0837E+04 3.96                                                  1049801000054 
 1.0843E+04 3.12                                                  1049801000055 
 1.0849E+04 2.27                                                  1049801000056 
 1.0918E+04 2.34                                                  1049801000057 
 1.1442E+04 2.10                                                  1049801000058 
 1.2005E+04 2.13                                                  1049801000059 
 1.2610E+04 2.04                                                  1049801000060 
 1.3263E+04 2.06                                                  1049801000061 
 1.3967E+04 2.08                                                  1049801000062 
 1.4729E+04 2.01                                                  1049801000063 
 1.5555E+04 1.92                                                  1049801000064 
 1.6453E+04 1.88                                                  1049801000065 
 1.7431E+04 1.88                                                  1049801000066 
 1.8498E+04 1.83                                                  1049801000067 
 1.9667E+04 1.92                                                  1049801000068 
 2.0081E+04 1.92                                                  1049801000069 
 2.0222E+04 2.01                                                  1049801000070 
 2.0269E+04 2.20                                                  1049801000071 
 2.0317E+04 2.59                                                  1049801000072 
 2.0364E+04 3.56                                                  1049801000073 
 2.0380E+04 6.39                                                  1049801000074 
 2.0396E+04 9.69                                                  1049801000075 
 2.0412E+0410.39                                                  1049801000076 
 2.0428E+04 7.30                                                  1049801000077 
 2.0444E+04 3.61                                                  1049801000078 
 2.0460E+04 2.53                                                  1049801000079 
 2.0508E+04 2.46                                                  1049801000080 
 2.0950E+04 1.71                                                  1049801000081 
 2.1405E+04 1.69                                                  1049801000082 
 2.1876E+04 1.64                                                  1049801000083 
 2.2362E+04 1.59                                                  1049801000084 
 2.2865E+04 1.72                                                  1049801000085 
 2.3385E+04 1.60                                                  1049801000086 
 2.3923E+04 1.56                                                  1049801000087 
 2.4480E+04 1.58                                                  1049801000088 
 2.5056E+04 1.51                                                  1049801000089 
 2.5653E+04 1.48                                                  1049801000090 
 2.6272E+04 1.51                                                  1049801000091 
 2.6913E+04 1.53                                                  1049801000092 
 2.7578E+04 1.52                                                  1049801000093 
 2.8267E+04 1.45                                                  1049801000094 
 2.8984E+04 1.44                                                  1049801000095 
 2.9727E+04 1.46                                                  1049801000096 
 3.0500E+04 1.44                                                  1049801000097 
 3.1303E+04 1.44                                                  1049801000098 
 3.2138E+04 1.37                                                  1049801000099 
 3.3007E+04 1.36                                                  1049801000100 
 3.3912E+04 1.36                                                  1049801000101 
 3.4855E+04 1.32                                                  1049801000102 
 3.5837E+04 1.30                                                  1049801000103 
 3.6862E+04 1.46                                                  1049801000104 
 3.7096E+04 1.58                                                  1049801000105 
 3.7213E+04 1.68                                                  1049801000106 
 3.7332E+04 1.72                                                  1049801000107 
 3.7450E+04 1.72                                                  1049801000108 
 3.7570E+04 1.68                                                  1049801000109 
 3.7690E+04 1.66                                                  1049801000110 
 3.7810E+04 1.53                                                  1049801000111 
 3.7931E+04 1.53                                                  1049801000112 
 3.9048E+04 1.35                                                  1049801000113 
 4.0214E+04 1.30                                                  1049801000114 
 4.1434E+04 1.30                                                  1049801000115 
 4.1852E+04 1.34                                                  1049801000116 
 4.1899E+04 1.34                                                  1049801000117 
 4.1946E+04 1.34                                                  1049801000118 
 4.1994E+04 1.53                                                  1049801000119 
 4.2041E+04 1.84                                                  1049801000120 
 4.2088E+04 1.52                                                  1049801000121 
 4.2135E+04 1.33                                                  1049801000122 
 4.2709E+04 1.27                                                  1049801000123 
 4.4045E+04 1.24                                                  1049801000124 
 4.5444E+04 1.24                                                  1049801000125 
 4.6912E+04 1.26                                                  1049801000126 
 4.8451E+04 1.30                                                  1049801000127 
 4.8981E+04 1.32                                                  1049801000128 
 4.9520E+04 1.35                                                  1049801000129 
 5.0067E+04 1.49                                                  1049801000130 
 5.0624E+04 1.68                                                  1049801000131 
 5.1190E+04 1.86                                                  1049801000132 
 5.1766E+04 2.12                                                  1049801000133 
 5.2351E+04 2.07                                                  1049801000134 
 5.2947E+04 1.68                                                  1049801000135 
 5.3552E+04 1.45                                                  1049801000136 
 5.4168E+04 1.30                                                  1049801000137 
 5.4795E+04 1.25                                                  1049801000138 
 5.5433E+04 1.21                                                  1049801000139 
 5.7414E+04 1.13                                                  1049801000140 
 5.9504E+04 1.09                                                  1049801000141 
 6.1710E+04 1.06                                                  1049801000142 
 6.4040E+04 1.03                                                  1049801000143 
 6.6506E+04 0.98                                                  1049801000144 
 6.9116E+04 0.97                                                  1049801000145 
 7.1883E+04 0.95                                                  1049801000146 
 7.4820E+04 0.96                                                  1049801000147 
 7.7941E+04 1.01                                                  1049801000148 
 7.9024E+04 1.04                                                  1049801000149 
 8.0131E+04 1.06                                                  1049801000150 
 8.1261E+04 1.11                                                  1049801000151 
 8.1643E+04 1.13                                                  1049801000152 
 8.2027E+04 1.19                                                  1049801000153 
 8.2415E+04 1.25                                                  1049801000154 
 8.2805E+04 1.23                                                  1049801000155 
 8.3198E+04 1.21                                                  1049801000156 
 8.3593E+04 1.18                                                  1049801000157 
 8.3992E+04 1.19                                                  1049801000158 
 8.4393E+04 1.14                                                  1049801000159 
 8.4662E+04 1.23                                                  1049801000160 
 8.4797E+04 1.27                                                  1049801000161 
 8.4933E+04 1.30                                                  1049801000162 
 8.5204E+04 1.13                                                  1049801000163 
 8.5615E+04 1.04                                                  1049801000164 
 8.6028E+04 0.99                                                  1049801000165 
 8.6444E+04 1.02                                                  1049801000166 
 8.6863E+04 0.93                                                  1049801000167 
 8.7285E+04 0.88                                                  1049801000168 
 8.7710E+04 0.94                                                  1049801000169 
 8.8138E+04 1.16                                                  1049801000170 
 8.8282E+04 1.34                                                  1049801000171 
 8.8426E+04 2.91                                                  1049801000172 
 8.8570E+04 8.65                                                  1049801000173 
 8.8714E+0412.08                                                  1049801000174 
 8.8859E+04 6.95                                                  1049801000175 
 8.9005E+04 3.62                                                  1049801000176 
 8.9150E+04 2.74                                                  1049801000177 
 8.9443E+04 1.96                                                  1049801000178 
 8.9884E+04 1.35                                                  1049801000179 
 9.0328E+04 1.19                                                  1049801000180 
 9.0626E+04 1.18                                                  1049801000181 
 9.0776E+04 1.16                                                  1049801000182 
 9.0926E+04 1.25                                                  1049801000183 
 9.1076E+04 1.17                                                  1049801000184 
 9.1227E+04 1.10                                                  1049801000185 
 9.2600E+04 0.97                                                  1049801000186 
 9.4005E+04 0.92                                                  1049801000187 
 9.5442E+04 0.91                                                  1049801000188 
 9.6912E+04 0.89                                                  1049801000189 
 9.8416E+04 0.93                                                  1049801000190 
 9.9956E+04 1.06                                                  1049801000191 
 1.0013E+05 1.12                                                  1049801000192 
 1.0030E+05 1.13                                                  1049801000193 
 1.0048E+05 1.14                                                  1049801000194 
 1.0065E+05 1.18                                                  1049801000195 
 1.0083E+05 1.38                                                  1049801000196 
 1.0100E+05 2.31                                                  1049801000197 
 1.0118E+05 1.45                                                  1049801000198 
 1.0135E+05 1.26                                                  1049801000199 
 1.0153E+05 1.20                                                  1049801000200 
 1.0171E+05 1.21                                                  1049801000201 
 1.0189E+05 1.19                                                  1049801000202 
 1.0207E+05 1.23                                                  1049801000203 
 1.0224E+05 1.18                                                  1049801000204 
 1.0242E+05 1.26                                                  1049801000205 
 1.0260E+05 1.21                                                  1049801000206 
 1.0278E+05 1.25                                                  1049801000207 
 1.0296E+05 1.24                                                  1049801000208 
 1.0315E+05 1.20                                                  1049801000209 
 1.0369E+05 1.16                                                  1049801000210 
 1.0424E+05 1.13                                                  1049801000211 
 1.0480E+05 1.03                                                  1049801000212 
 1.0536E+05 0.95                                                  1049801000213 
 1.0592E+05 0.93                                                  1049801000214 
 1.0649E+05 0.88                                                  1049801000215 
 1.0706E+05 0.85                                                  1049801000216 
 1.0764E+05 0.82                                                  1049801000217 
 1.0822E+05 0.76                                                  1049801000218 
 1.0881E+05 0.75                                                  1049801000219 
 1.0940E+05 0.76                                                  1049801000220 
 1.1000E+05 0.71                                                  1049801000221 
 1.1060E+05 0.70                                                  1049801000222 
 1.1121E+05 0.70                                                  1049801000223 
 1.1182E+05 0.64                                                  1049801000224 
 1.1244E+05 0.61                                                  1049801000225 
 1.1306E+05 0.62                                                  1049801000226 
 1.1369E+05 0.61                                                  1049801000227 
 1.1432E+05 0.60                                                  1049801000228 
 1.1496E+05 0.60                                                  1049801000229 
 1.1560E+05 0.62                                                  1049801000230 
 1.1625E+05 0.59                                                  1049801000231 
 1.1690E+05 0.61                                                  1049801000232 
 1.1756E+05 0.59                                                  1049801000233 
 1.1823E+05 0.63                                                  1049801000234 
 1.1890E+05 0.61                                                  1049801000235 
 1.1957E+05 0.63                                                  1049801000236 
 1.2026E+05 0.65                                                  1049801000237 
 1.2071E+05 0.73                                                  1049801000238 
 1.2094E+05 0.76                                                  1049801000239 
 1.2117E+05 0.79                                                  1049801000240 
 1.2141E+05 0.90                                                  1049801000241 
 1.2164E+05 0.76                                                  1049801000242 
 1.2187E+05 0.74                                                  1049801000243 
 1.2234E+05 0.71                                                  1049801000244 
 1.2304E+05 0.72                                                  1049801000245 
 1.2376E+05 0.67                                                  1049801000246 
 1.2447E+05 0.69                                                  1049801000247 
 1.2520E+05 0.80                                                  1049801000248 
 1.2593E+05 0.95                                                  1049801000249 
 1.2667E+05 1.10                                                  1049801000250 
 1.2741E+05 1.32                                                  1049801000251 
 1.2816E+05 2.08                                                  1049801000252 
 1.2892E+05 2.75                                                  1049801000253 
 1.2968E+05 3.91                                                  1049801000254 
 1.3020E+05 6.04                                                  1049801000255 
 1.3045E+05 7.75                                                  1049801000256 
 1.3071E+05 8.50                                                  1049801000257 
 1.3097E+0511.58                                                  1049801000258 
 1.3123E+0512.95                                                  1049801000259 
 1.3149E+0516.05                                                  1049801000260 
 1.3175E+0518.13                                                  1049801000261 
 1.3202E+0520.20                                                  1049801000262 
 1.3228E+0519.96                                                  1049801000263 
 1.3254E+0519.60                                                  1049801000264 
 1.3281E+0517.52                                                  1049801000265 
 1.3307E+0516.49                                                  1049801000266 
 1.3334E+0515.24                                                  1049801000267 
 1.3361E+0513.24                                                  1049801000268 
 1.3387E+0511.49                                                  1049801000269 
 1.3414E+0511.41                                                  1049801000270 
 1.3441E+05 9.00                                                  1049801000271 
 1.3468E+05 7.99                                                  1049801000272 
 1.3495E+05 7.00                                                  1049801000273 
 1.3523E+05 6.03                                                  1049801000274 
 1.3605E+05 4.91                                                  1049801000275 
 1.3688E+05 4.11                                                  1049801000276 
 1.3771E+05 3.38                                                  1049801000277 
 1.3855E+05 2.82                                                  1049801000278 
 1.3941E+05 2.74                                                  1049801000279 
 1.4026E+05 2.21                                                  1049801000280 
 1.4113E+05 2.07                                                  1049801000281 
 1.4201E+05 1.82                                                  1049801000282 
 1.4289E+05 1.80                                                  1049801000283 
 1.4378E+05 1.81                                                  1049801000284 
 1.4408E+05 1.98                                                  1049801000285 
 1.4438E+05 1.94                                                  1049801000286 
 1.4468E+05 2.50                                                  1049801000287 
 1.4498E+05 3.37                                                  1049801000288 
 1.4529E+05 3.40                                                  1049801000289 
 1.4559E+05 2.17                                                  1049801000290 
 1.4589E+05 1.90                                                  1049801000291 
 1.4620E+05 1.70                                                  1049801000292 
 1.4651E+05 1.44                                                  1049801000293 
 1.4743E+05 1.43                                                  1049801000294 
 1.4837E+05 1.30                                                  1049801000295 
 1.4931E+05 1.25                                                  1049801000296 
 1.5026E+05 1.28                                                  1049801000297 
 1.5058E+05 1.29                                                  1049801000298 
 1.5090E+05 1.26                                                  1049801000299 
 1.5122E+05 1.38                                                  1049801000300 
 1.5155E+05 1.18                                                  1049801000301 
 1.5187E+05 1.11                                                  1049801000302 
 1.5220E+05 1.05                                                  1049801000303 
 1.5318E+05 0.96                                                  1049801000304 
 1.5417E+05 0.92                                                  1049801000305 
 1.5516E+05 0.93                                                  1049801000306 
 1.5617E+05 0.91                                                  1049801000307 
 1.5719E+05 0.92                                                  1049801000308 
 1.5822E+05 0.88                                                  1049801000309 
 1.5926E+05 0.87                                                  1049801000310 
 1.5996E+05 0.90                                                  1049801000311 
 1.6031E+05 1.06                                                  1049801000312 
 1.6066E+05 1.13                                                  1049801000313 
 1.6102E+05 0.81                                                  1049801000314 
 1.6137E+05 0.85                                                  1049801000315 
 1.6173E+05 0.94                                                  1049801000316 
 1.6244E+05 0.85                                                  1049801000317 
 1.6352E+05 0.96                                                  1049801000318 
 1.6461E+05 1.19                                                  1049801000319 
 1.6572E+05 1.51                                                  1049801000320 
 1.6609E+05 2.29                                                  1049801000321 
 1.6646E+05 2.72                                                  1049801000322 
 1.6683E+05 3.16                                                  1049801000323 
 1.6720E+05 3.97                                                  1049801000324 
 1.6758E+05 4.77                                                  1049801000325 
 1.6796E+05 7.00                                                  1049801000326 
 1.6833E+0510.11                                                  1049801000327 
 1.6871E+0510.73                                                  1049801000328 
 1.6909E+0514.00                                                  1049801000329 
 1.6947E+0512.59                                                  1049801000330 
 1.6986E+0510.84                                                  1049801000331 
 1.7024E+05 8.51                                                  1049801000332 
 1.7063E+05 6.93                                                  1049801000333 
 1.7101E+05 5.80                                                  1049801000334 
 1.7140E+05 5.25                                                  1049801000335 
 1.7179E+05 4.03                                                  1049801000336 
 1.7218E+05 3.76                                                  1049801000337 
 1.7257E+05 3.02                                                  1049801000338 
 1.7297E+05 2.99                                                  1049801000339 
 1.7336E+05 2.51                                                  1049801000340 
 1.7376E+05 2.43                                                  1049801000341 
 1.7415E+05 2.20                                                  1049801000342 
 1.7455E+05 1.88                                                  1049801000343 
 1.7495E+05 1.77                                                  1049801000344 
 1.7616E+05 1.52                                                  1049801000345 
 1.7738E+05 1.32                                                  1049801000346 
 1.7862E+05 1.20                                                  1049801000347 
 1.7986E+05 1.07                                                  1049801000348 
 1.8112E+05 0.98                                                  1049801000349 
 1.8240E+05 0.91                                                  1049801000350 
 1.8368E+05 0.85                                                  1049801000351 
 1.8411E+05 0.86                                                  1049801000352 
 1.8455E+05 0.86                                                  1049801000353 
 1.8498E+05 0.91                                                  1049801000354 
 1.8542E+05 1.00                                                  1049801000355 
 1.8586E+05 0.76                                                  1049801000356 
 1.8630E+05 0.77                                                  1049801000357 
 1.8674E+05 0.77                                                  1049801000358 
 1.8762E+05 0.78                                                  1049801000359 
 1.8897E+05 0.76                                                  1049801000360 
 1.9032E+05 0.69                                                  1049801000361 
 1.9169E+05 0.71                                                  1049801000362 
 1.9308E+05 0.68                                                  1049801000363 
 1.9448E+05 0.69                                                  1049801000364 
 1.9590E+05 0.67                                                  1049801000365 
 1.9733E+05 0.72                                                  1049801000366 
 1.9878E+05 0.74                                                  1049801000367 
 2.0024E+05 0.74                                                  1049801000368 
 2.0172E+05 0.77                                                  1049801000369 
 2.0322E+05 0.81                                                  1049801000370 
 2.0474E+05 0.96                                                  1049801000371 
 2.0524E+05 0.99                                                  1049801000372 
 2.0575E+05 0.99                                                  1049801000373 
 2.0627E+05 1.08                                                  1049801000374 
 2.0678E+05 1.13                                                  1049801000375 
 2.0730E+05 1.23                                                  1049801000376 
 2.0781E+05 1.29                                                  1049801000377 
 2.0833E+05 1.43                                                  1049801000378 
 2.0885E+05 2.11                                                  1049801000379 
 2.0938E+05 2.31                                                  1049801000380 
 2.0990E+05 2.65                                                  1049801000381 
 2.1043E+05 3.51                                                  1049801000382 
 2.1096E+05 4.56                                                  1049801000383 
 2.1149E+05 4.06                                                  1049801000384 
 2.1203E+05 3.63                                                  1049801000385 
 2.1256E+05 3.64                                                  1049801000386 
 2.1310E+05 4.03                                                  1049801000387 
 2.1364E+05 4.55                                                  1049801000388 
 2.1418E+05 5.16                                                  1049801000389 
 2.1473E+05 6.37                                                  1049801000390 
 2.1527E+05 7.49                                                  1049801000391 
 2.1582E+05 8.63                                                  1049801000392 
 2.1637E+05 9.95                                                  1049801000393 
 2.1692E+0511.05                                                  1049801000394 
 2.1748E+0510.42                                                  1049801000395 
 2.1803E+0511.46                                                  1049801000396 
 2.1859E+05 9.62                                                  1049801000397 
 2.1915E+05 8.46                                                  1049801000398 
 2.1972E+05 7.36                                                  1049801000399 
 2.2028E+05 5.95                                                  1049801000400 
 2.2085E+05 4.93                                                  1049801000401 
 2.2142E+05 3.59                                                  1049801000402 
 2.2199E+05 2.89                                                  1049801000403 
 2.2256E+05 2.24                                                  1049801000404 
 2.2314E+05 1.82                                                  1049801000405 
 2.2372E+05 1.42                                                  1049801000406 
 2.2430E+05 1.23                                                  1049801000407 
 2.2488E+05 1.14                                                  1049801000408 
 2.2547E+05 1.02                                                  1049801000409 
 2.2605E+05 0.99                                                  1049801000410 
 2.2664E+05 0.98                                                  1049801000411 
 2.2724E+05 0.99                                                  1049801000412 
 2.2783E+05 1.16                                                  1049801000413 
 2.2843E+05 2.05                                                  1049801000414 
 2.2903E+05 3.05                                                  1049801000415 
 2.2963E+05 2.10                                                  1049801000416 
 2.3023E+05 1.21                                                  1049801000417 
 2.3084E+05 1.27                                                  1049801000418 
 2.3145E+05 1.22                                                  1049801000419 
 2.3206E+05 1.27                                                  1049801000420 
 2.3267E+05 1.40                                                  1049801000421 
 2.3329E+05 1.55                                                  1049801000422 
 2.3390E+05 1.65                                                  1049801000423 
 2.3452E+05 2.22                                                  1049801000424 
 2.3515E+05 2.49                                                  1049801000425 
 2.3577E+05 2.88                                                  1049801000426 
 2.3640E+05 3.41                                                  1049801000427 
 2.3703E+05 3.86                                                  1049801000428 
 2.3767E+05 4.14                                                  1049801000429 
 2.3830E+05 4.28                                                  1049801000430 
 2.3894E+05 5.68                                                  1049801000431 
 2.3958E+05 5.80                                                  1049801000432 
 2.4022E+05 6.91                                                  1049801000433 
 2.4087E+05 7.91                                                  1049801000434 
 2.4152E+05 8.02                                                  1049801000435 
 2.4217E+05 8.36                                                  1049801000436 
 2.4282E+05 9.48                                                  1049801000437 
 2.4348E+05 9.73                                                  1049801000438 
 2.4414E+0510.58                                                  1049801000439 
 2.4480E+0510.89                                                  1049801000440 
 2.4547E+0510.41                                                  1049801000441 
 2.4613E+0510.53                                                  1049801000442 
 2.4681E+0510.81                                                  1049801000443 
 2.4748E+0511.16                                                  1049801000444 
 2.4815E+0511.63                                                  1049801000445 
 2.4883E+0511.76                                                  1049801000446 
 2.4951E+0511.37                                                  1049801000447 
 2.5020E+0510.38                                                  1049801000448 
 2.5088E+05 9.79                                                  1049801000449 
 2.5157E+05 9.80                                                  1049801000450 
 2.5227E+05 9.62                                                  1049801000451 
 2.5296E+05 8.78                                                  1049801000452 
 2.5366E+05 8.65                                                  1049801000453 
 2.5436E+05 8.32                                                  1049801000454 
 2.5506E+05 7.92                                                  1049801000455 
 2.5577E+05 7.76                                                  1049801000456 
 2.5648E+05 7.28                                                  1049801000457 
 2.5719E+05 7.20                                                  1049801000458 
 2.5791E+05 6.55                                                  1049801000459 
 2.5863E+05 6.66                                                  1049801000460 
 2.5935E+05 6.53                                                  1049801000461 
 2.6008E+05 5.72                                                  1049801000462 
 2.6080E+05 5.49                                                  1049801000463 
 2.6153E+05 5.43                                                  1049801000464 
 2.6227E+05 5.47                                                  1049801000465 
 2.6301E+05 5.07                                                  1049801000466 
 2.6375E+05 4.32                                                  1049801000467 
 2.6449E+05 4.22                                                  1049801000468 
 2.6524E+05 4.38                                                  1049801000469 
 2.6599E+05 4.04                                                  1049801000470 
 2.6674E+05 3.80                                                  1049801000471 
 2.6749E+05 4.02                                                  1049801000472 
 2.6825E+05 3.80                                                  1049801000473 
 2.6902E+05 3.87                                                  1049801000474 
 2.6978E+05 3.59                                                  1049801000475 
 2.7055E+05 3.25                                                  1049801000476 
 2.7132E+05 3.12                                                  1049801000477 
 2.7210E+05 3.24                                                  1049801000478 
 2.7288E+05 3.33                                                  1049801000479 
 2.7366E+05 2.81                                                  1049801000480 
 2.7445E+05 2.60                                                  1049801000481 
 2.7524E+05 2.70                                                  1049801000482 
 2.7603E+05 2.46                                                  1049801000483 
 2.7682E+05 2.46                                                  1049801000484 
 2.7762E+05 2.12                                                  1049801000485 
 2.7843E+05 2.16                                                  1049801000486 
 2.7923E+05 2.20                                                  1049801000487 
 2.8004E+05 2.27                                                  1049801000488 
 2.8086E+05 1.86                                                  1049801000489 
 2.8167E+05 1.73                                                  1049801000490 
 2.8249E+05 1.54                                                  1049801000491 
 2.8332E+05 1.43                                                  1049801000492 
 2.8414E+05 1.42                                                  1049801000493 
 2.8498E+05 1.26                                                  1049801000494 
 2.8581E+05 1.21                                                  1049801000495 
 2.8665E+05 1.19                                                  1049801000496 
 2.8749E+05 1.16                                                  1049801000497 
 2.8834E+05 1.17                                                  1049801000498 
 2.8919E+05 1.55                                                  1049801000499 
 2.9004E+05 3.29                                                  1049801000500 
 2.9090E+05 5.80                                                  1049801000501 
 2.9176E+05 6.20                                                  1049801000502 
 2.9262E+05 5.81                                                  1049801000503 
 2.9349E+05 4.38                                                  1049801000504 
 2.9437E+05 3.64                                                  1049801000505 
 2.9524E+05 2.94                                                  1049801000506 
 2.9612E+05 2.50                                                  1049801000507 
 2.9701E+05 2.27                                                  1049801000508 
 2.9790E+05 1.83                                                  1049801000509 
 2.9879E+05 1.72                                                  1049801000510 
 2.9969E+05 1.70                                                  1049801000511 
 3.0059E+05 1.51                                                  1049801000512 
 3.0149E+05 1.46                                                  1049801000513 
 3.0240E+05 1.32                                                  1049801000514 
 3.0331E+05 1.35                                                  1049801000515 
 3.0423E+05 1.22                                                  1049801000516 
 3.0515E+05 1.26                                                  1049801000517 
 3.0607E+05 1.15                                                  1049801000518 
 3.0700E+05 1.12                                                  1049801000519 
 3.0794E+05 1.06                                                  1049801000520 
 3.0888E+05 1.08                                                  1049801000521 
 3.0982E+05 1.00                                                  1049801000522 
 3.1076E+05 1.03                                                  1049801000523 
 3.1172E+05 1.03                                                  1049801000524 
 3.1267E+05 1.01                                                  1049801000525 
 3.1363E+05 0.99                                                  1049801000526 
 3.1459E+05 0.98                                                  1049801000527 
 3.1556E+05 1.01                                                  1049801000528 
 3.1654E+05 0.99                                                  1049801000529 
 3.1751E+05 1.09                                                  1049801000530 
 3.1850E+05 1.13                                                  1049801000531 
 3.1948E+05 1.36                                                  1049801000532 
 3.2047E+05 1.54                                                  1049801000533 
 3.2147E+05 1.99                                                  1049801000534 
 3.2247E+05 2.60                                                  1049801000535 
 3.2348E+05 3.14                                                  1049801000536 
 3.2449E+05 3.45                                                  1049801000537 
 3.2550E+05 4.20                                                  1049801000538 
 3.2652E+05 5.85                                                  1049801000539 
 3.2754E+05 7.00                                                  1049801000540 
 3.2857E+05 7.37                                                  1049801000541 
 3.2961E+05 8.10                                                  1049801000542 
 3.3065E+05 8.11                                                  1049801000543 
 3.3169E+05 7.93                                                  1049801000544 
 3.3274E+05 7.80                                                  1049801000545 
 3.3379E+05 7.49                                                  1049801000546 
 3.3485E+05 6.87                                                  1049801000547 
 3.3591E+05 6.61                                                  1049801000548 
 3.3698E+05 6.34                                                  1049801000549 
 3.3806E+05 5.72                                                  1049801000550 
 3.3914E+05 5.29                                                  1049801000551 
 3.4022E+05 4.87                                                  1049801000552 
 3.4131E+05 4.86                                                  1049801000553 
 3.4240E+05 4.43                                                  1049801000554 
 3.4350E+05 4.12                                                  1049801000555 
 3.4461E+05 4.18                                                  1049801000556 
 3.4572E+05 3.50                                                  1049801000557 
 3.4684E+05 3.12                                                  1049801000558 
 3.4796E+05 2.87                                                  1049801000559 
 3.4908E+05 2.77                                                  1049801000560 
 3.5022E+05 2.22                                                  1049801000561 
 3.5135E+05 2.28                                                  1049801000562 
 3.5250E+05 2.59                                                  1049801000563 
 3.5365E+05 3.19                                                  1049801000564 
 3.5480E+05 6.15                                                  1049801000565 
 3.5596E+05 6.29                                                  1049801000566 
 3.5713E+05 4.48                                                  1049801000567 
 3.5830E+05 4.09                                                  1049801000568 
 3.5948E+05 3.60                                                  1049801000569 
 3.6066E+05 3.35                                                  1049801000570 
 3.6185E+05 3.30                                                  1049801000571 
 3.6304E+05 3.21                                                  1049801000572 
 3.6424E+05 2.74                                                  1049801000573 
 3.6545E+05 2.77                                                  1049801000574 
 3.6666E+05 2.67                                                  1049801000575 
 3.6788E+05 2.43                                                  1049801000576 
 3.6911E+05 2.58                                                  1049801000577 
 3.7034E+05 2.57                                                  1049801000578 
 3.7158E+05 2.52                                                  1049801000579 
 3.7282E+05 2.25                                                  1049801000580 
 3.7407E+05 2.13                                                  1049801000581 
 3.7533E+05 2.28                                                  1049801000582 
 3.7659E+05 1.97                                                  1049801000583 
 3.7786E+05 1.87                                                  1049801000584 
 3.7913E+05 2.05                                                  1049801000585 
 3.8041E+05 1.92                                                  1049801000586 
 3.8170E+05 1.98                                                  1049801000587 
 3.8300E+05 1.71                                                  1049801000588 
 3.8430E+05 2.07                                                  1049801000589 
 3.8561E+05 2.20                                                  1049801000590 
 3.8692E+05 2.00                                                  1049801000591 
 3.8824E+05 1.67                                                  1049801000592 
 3.8957E+05 1.66                                                  1049801000593 
 3.9091E+05 1.67                                                  1049801000594 
 3.9225E+05 1.61                                                  1049801000595 
 3.9360E+05 1.60                                                  1049801000596 
 3.9495E+05 1.54                                                  1049801000597 
 3.9632E+05 1.52                                                  1049801000598 
 3.9769E+05 1.45                                                  1049801000599 
 3.9906E+05 1.51                                                  1049801000600 
 4.0045E+05 1.41                                                  1049801000601 
 4.0184E+05 1.50                                                  1049801000602 
 4.0324E+05 1.40                                                  1049801000603 
 4.0464E+05 1.35                                                  1049801000604 
 4.0606E+05 1.30                                                  1049801000605 
 4.0748E+05 1.35                                                  1049801000606 
 4.0891E+05 1.23                                                  1049801000607 
 4.1034E+05 1.27                                                  1049801000608 
 4.1178E+05 1.26                                                  1049801000609 
 4.1324E+05 1.21                                                  1049801000610 
 4.1469E+05 1.27                                                  1049801000611 
 4.1616E+05 1.24                                                  1049801000612 
 4.1763E+05 1.28                                                  1049801000613 
 4.1912E+05 1.14                                                  1049801000614 
 4.2061E+05 1.12                                                  1049801000615 
 4.2210E+05 1.14                                                  1049801000616 
 4.2361E+05 1.21                                                  1049801000617 
 4.2512E+05 1.21                                                  1049801000618 
 4.2665E+05 1.27                                                  1049801000619 
 4.2818E+05 1.22                                                  1049801000620 
 4.2972E+05 1.36                                                  1049801000621 
 4.3126E+05 2.59                                                  1049801000622 
 4.3282E+05 2.55                                                  1049801000623 
 4.3438E+05 3.13                                                  1049801000624 
 4.3595E+05 4.99                                                  1049801000625 
 4.3753E+05 5.52                                                  1049801000626 
 4.3912E+05 6.05                                                  1049801000627 
 4.4072E+05 4.79                                                  1049801000628 
 4.4233E+05 3.97                                                  1049801000629 
 4.4394E+05 3.83                                                  1049801000630 
 4.4557E+05 3.16                                                  1049801000631 
 4.4720E+05 2.67                                                  1049801000632 
 4.4884E+05 2.48                                                  1049801000633 
 4.5049E+05 2.39                                                  1049801000634 
 4.5216E+05 2.16                                                  1049801000635 
 4.5383E+05 1.85                                                  1049801000636 
 4.5550E+05 1.81                                                  1049801000637 
 4.5719E+05 1.75                                                  1049801000638 
 4.5889E+05 1.74                                                  1049801000639 
 4.6060E+05 1.57                                                  1049801000640 
 4.6231E+05 1.46                                                  1049801000641 
 4.6404E+05 1.54                                                  1049801000642 
 4.6578E+05 1.51                                                  1049801000643 
 4.6752E+05 1.56                                                  1049801000644 
 4.6928E+05 1.38                                                  1049801000645 
 4.7104E+05 1.24                                                  1049801000646 
 4.7282E+05 1.25                                                  1049801000647 
 4.7460E+05 1.31                                                  1049801000648 
 4.7640E+05 1.46                                                  1049801000649 
 4.7821E+05 1.28                                                  1049801000650 
 4.8002E+05 1.17                                                  1049801000651 
 4.8185E+05 1.17                                                  1049801000652 
 4.8369E+05 1.16                                                  1049801000653 
 4.8555E+05 1.12                                                  1049801000654 
 4.8739E+05 1.14                                                  1049801000655 
 4.8926E+05 1.15                                                  1049801000656 
 4.9114E+05 1.18                                                  1049801000657 
 4.9303E+05 1.07                                                  1049801000658 
 4.9493E+05 1.11                                                  1049801000659 
 4.9684E+05 1.33                                                  1049801000660 
 4.9877E+05 1.49                                                  1049801000661 
 5.0070E+05 2.42                                                  1049801000662 
 5.0265E+05 3.06                                                  1049801000663 
 5.0461E+05 4.04                                                  1049801000664 
 5.0657E+05 4.23                                                  1049801000665 
 5.0856E+05 3.63                                                  1049801000666 
 5.1055E+05 2.81                                                  1049801000667 
 5.1255E+05 2.56                                                  1049801000668 
 5.1457E+05 2.03                                                  1049801000669 
 5.1659E+05 1.99                                                  1049801000670 
 5.1836E+05 1.50                                                  1049801000671 
 5.2068E+05 1.43                                                  1049801000672 
 5.2275E+05 1.40                                                  1049801000673 
 5.2482E+05 1.34                                                  1049801000674 
 5.2691E+05 1.21                                                  1049801000675 
 5.2901E+05 1.21                                                  1049801000676 
 5.3113E+05 1.11                                                  1049801000677 
 5.3325E+05 1.06                                                  1049801000678 
 5.3539E+05 1.25                                                  1049801000679 
 5.3754E+05 1.11                                                  1049801000680 
 5.3971E+05 1.06                                                  1049801000681 
 5.4189E+05 1.08                                                  1049801000682 
 5.4408E+05 1.01                                                  1049801000683 
 5.4628E+05 1.02                                                  1049801000684 
 5.4850E+05 1.07                                                  1049801000685 
ENDDATA            676          0                                 1049801000686 
ENDSUBENT          685          0                                 1049801099999 
SUBENT        10498011   20040114                             00001049801100001 
BIB                  2          2                                 1049801100002 
REACTION   (20-CA-40(N,EL),,STF)                                  1049801100003 
STATUS     Data taken from reference text.                        1049801100004 
ENDBIB               2          0                                 1049801100005 
COMMON               1          3                                 1049801100006 
MOMENTUM L                                                        1049801100007 
NO-DIM                                                            1049801100008 
 0.                                                               1049801100009 
ENDCOMMON            3          0                                 1049801100010 
DATA                 5          1                                 1049801100011 
EN-MIN     EN-MAX     DATA       +DATA-ERR  -DATA-ERR             1049801100012 
KEV        KEV        NO-DIM     NO-DIM     NO-DIM                1049801100013 
 88.75      501.50       2.97E-04   1.95E-04   1.05E-04           1049801100014 
ENDDATA              3          0                                 1049801100015 
ENDSUBENT           14          0                                 1049801199999 
ENDENTRY            11          0                                 1049899999999 
