ENTRY            10601   20040726                             00001060100000001 
SUBENT        10601001   20040726                             00001060100100001 
BIB                 11         22                                 1060100100002 
INSTITUTE  (1USAORL)                                              1060100100003 
REFERENCE  (R,ORNL-4985,197409)                                   1060100100004 
           (J,NSE,58,331,197511) Experimental details             1060100100005 
AUTHOR     (J.K.Dickens)                                          1060100100006 
TITLE      Gamma-ray production due to neutron interactions with  1060100100007 
           Zn-68 and the level structure of Zn-68.                1060100100008 
FACILITY   (VDG,1USAORL)                                          1060100100009 
DETECTOR   (GELI) Germanium-lithium detector                      1060100100010 
MONITOR    (30-ZN-68(N,INL)30-ZN-68,,SIG,G)                       1060100100011 
CORRECTION Data corrected for background,gamma-ray attenuation,   1060100100012 
           multiple scattering, and gamma-ray production by       1060100100013 
           oxygen in the sample                                   1060100100014 
ERR-ANALYS (DATA-ERR) Data errors given are the result of overall 1060100100015 
            uncertainties in:                                     1060100100016 
            . beam monitoring,                                    1060100100017 
            . detector efficiency calibration,                    1060100100018 
            . corrections for finite geometry,                    1060100100019 
            . corrections for multiple scattering.                1060100100020 
STATUS     (APRVD) Approved by author 1976/6/4.                   1060100100021 
HISTORY    (19760429C)                                            1060100100022 
           (19831017A) Converted to REACTION formalism            1060100100023 
           (20040726A) Converted to new date formats, lower case. 1060100100024 
ENDBIB              22          0                                 1060100100025 
COMMON               3          3                                 1060100100026 
ANG        EN         E-NRM                                       1060100100027 
ADEG       MEV        KEV                                         1060100100028 
 55.        5.4        1077.                                      1060100100029 
ENDCOMMON            3          0                                 1060100100030 
ENDSUBENT           29          0                                 1060100199999 
SUBENT        10601002   20040726                             00001060100200001 
BIB                  3         16                                 1060100200002 
REACTION   (30-ZN-68(N,X)0-G-0,PAR,DA)                            1060100200003 
FLAG       (1.) Wide peak,probably due to two or more gamma-rays  1060100200004 
           (2.) Coincident with background radiation              1060100200005 
           (3.) Coincident with known lines in copper             1060100200006 
           (4.) Coincident with known lines in germanium, due to  1060100200007 
                interactions of neutrons with detector.           1060100200008 
           (5.) Uncertain peak extraction due to odd peak shape   1060100200009 
           (6.) Not clearly resolved from nearby strong peak      1060100200010 
           (7.) Wide group,barely resolved from 2062-keV peak     1060100200011 
           (8.) Underlying broad peak believed associated with    1060100200012 
                n+p capture gamma ray=2.22 MeV.                   1060100200013 
           (9.) Peak much larger for incident neutron energy      1060100200014 
                5.9 MeV.                                          1060100200015 
           (10.)Peak coincident with known 4084 keV double-escape 1060100200016 
                peak, a background line for Pb.                   1060100200017 
HISTORY    (19931227A) REACTION corrected                         1060100200018 
ENDBIB              16          0                                 1060100200019 
NOCOMMON             0          0                                 1060100200020 
DATA                 5        162                                 1060100200021 
E          DATA       DATA-ERR   DATA-MAX   FLAG                  1060100200022 
KEV        MB/SR      MB/SR      MB/SR      NO-DIM                1060100200023 
  413.       1.26       0.35                                      1060100200024 
  418.       0.20       0.12                                      1060100200025 
  443.       0.24       0.12                                      1060100200026 
  483.       0.40       0.18                  1.                  1060100200027 
  493.       0.18       0.10                  2.                  1060100200028 
  500.       0.62       0.20                  2.                  1060100200029 
  542.       0.21       0.11                  2.                  1060100200030 
  570.       0.60       0.25                  2.                  1060100200031 
  579.       4.47       0.88                                      1060100200032 
  622.       0.40       0.15                                      1060100200033 
  630.       0.29       0.12                  1.                  1060100200034 
  634.       0.11       0.07                                      1060100200035 
  671.       0.96       0.18                  3.                  1060100200036 
  735.       0.25       0.11                                      1060100200037 
  747.       0.31       0.13                  1.                  1060100200038 
  807.      12.7        1.9                                       1060100200039 
  837.       1.62       0.28                  2.                  1060100200040 
  865.       3.56       0.76                  2.                  1060100200041 
  874.       0.69       0.35                                      1060100200042 
  880.       0.86       0.30                  2.                  1060100200043 
  937.       0.18       0.10                                      1060100200044 
  955.       0.22       0.12                  1.                  1060100200045 
  964.       1.45       0.30                  3.                  1060100200046 
  969.       0.20       0.12                                      1060100200047 
  978.       0.30       0.17                  1.                  1060100200048 
  992.       0.65       0.20                                      1060100200049 
 1027.       0.20       0.13                                      1060100200050 
 1041.       4.10       1.00                  4.                  1060100200051 
 1063.       0.45       0.23                                      1060100200052 
 1077.     127.                                                   1060100200053 
 1114.       0.60       0.25                  3.                  1060100200054 
 1126.       5.32       0.80                                      1060100200055 
 1158.       0.54       0.24                  1.                  1060100200056 
 1170.       0.81       0.18                                      1060100200057 
 1214.       0.18       0.11                                      1060100200058 
 1220.       0.70       0.17                  1.                  1060100200059 
 1261.      11.7        1.8                                       1060100200060 
 1268.       0.53       0.28                  1.                  1060100200061 
 1276.       0.50       0.28                  1.                  1060100200062 
 1300.       0.52       0.18                  1.                  1060100200063 
 1313.       0.48       0.17                                      1060100200064 
 1340.      26.1        3.9                                       1060100200065 
 1366.       0.35       0.22                  5.                  1060100200066 
 1372.       1.00       0.32                                      1060100200067 
 1387.       0.66       0.23                  1.                  1060100200068 
 1398.       0.80       0.21                                      1060100200069 
 1433.       1.4        0.50                                      1060100200070 
 1438.       0.7        0.40                  2.                  1060100200071 
 1452.       0.23       0.11                  2.                  1060100200072 
 1462.       0.49       0.18                  4.                  1060100200073 
 1479.       1.11       0.20                                      1060100200074 
 1493.       0.35       0.18                                      1060100200075 
 1518.       0.80       0.20                                      1060100200076 
 1542.       0.70       0.25                  6.                  1060100200077 
 1547.       1.63       0.28                                      1060100200078 
 1559.       0.52       0.22                  1.                  1060100200079 
 1598.       0.46       0.22                                      1060100200080 
 1608.       0.20       0.13                                      1060100200081 
 1612.       0.20       0.13                                      1060100200082 
 1617.       0.20       0.13                  5.                  1060100200083 
 1626.       2.26       0.39                  1.                  1060100200084 
 1633.       1.0        0.4                   1.                  1060100200085 
 1673.      16.5        2.5                                       1060100200086 
 1697.       0.35       0.20                                      1060100200087 
 1724.       1.81       0.41                  1.                  1060100200088 
 1745.       5.46       0.82                                      1060100200089 
 1778.       1.03       0.25                  5.                  1060100200090 
 1780.       1.03       0.25                  5.                  1060100200091 
 1883.      26.4        3.9                                       1060100200092 
 1933.       0.94       0.35                  1.                  1060100200093 
 1969.       0.67       0.22                  1.                  1060100200094 
 2027.       0.40       0.18                                      1060100200095 
 2055.       0.75       0.25                  7.                  1060100200096 
 2062.       0.78       0.25                                      1060100200097 
 2081.       0.44       0.18                                      1060100200098 
 2094.       0.20       0.14                  5.                  1060100200099 
 2108.       1.74       0.60                  2.                  1060100200100 
 2122.       0.26       0.15                  5.                  1060100200101 
 2161.       0.25       0.13                                      1060100200102 
 2182.       0.52       0.22                                      1060100200103 
 2212.       2.6        1.4                   8.                  1060100200104 
 2259.       0.62       0.20                  1.                  1060100200105 
 2270.       0.62       0.20                                      1060100200106 
 2300.       0.25       0.20                  5.                  1060100200107 
 2310.       0.60       0.28                  6.                  1060100200108 
 2322.       0.90       0.35                  1.                  1060100200109 
 2339.       0.35       0.14                                      1060100200110 
 2348.       0.97       0.18                  6.                  1060100200111 
 2352.       0.90       0.18                                      1060100200112 
 2374.       0.63       0.16                  1.                  1060100200113 
 2392.       0.58       0.16                                      1060100200114 
 2420.       2.67       0.40                  1.                  1060100200115 
 2428.       0.25       0.15                  5.                  1060100200116 
 2442.       0.27       0.10                                      1060100200117 
 2470.       0.15       0.10                  5.                  1060100200118 
 2508.       0.73       0.20                  1.                  1060100200119 
 2548.       0.86       0.21                                      1060100200120 
 2563.       0.35       0.18                  1.                  1060100200121 
 2591.       1.38       0.23                  1.                  1060100200122 
 2650.       1.00       0.22                  1.                  1060100200123 
 2699.       0.20       0.14                  1.                  1060100200124 
 2735.       3.23       0.48                  9.                  1060100200125 
 2822.       0.56       0.15                  1.                  1060100200126 
 2845.       0.50       0.30                  5.                  1060100200127 
 2852.       0.98       0.33                  6.                  1060100200128 
 2861.       1.64       0.28                                      1060100200129 
 2953.       0.45       0.13                                      1060100200130 
 2985.       2.38       0.50                  1.                  1060100200131 
 3009.       1.34       0.31                  1.                  1060100200132 
 3065.       1.05       0.44                 10.                  1060100200133 
 3140.       0.81       0.14                  1.                  1060100200134 
 3152.       0.35       0.18                  6.                  1060100200135 
 3157.       0.70       0.30                                      1060100200136 
 3183.       0.50       0.33                  6.                  1060100200137 
 3187.       1.07       0.33                                      1060100200138 
 3207.       0.13       0.09                  2.                  1060100200139 
 3286.       0.14       0.10                  5.                  1060100200140 
 3332.       0.15       0.07                                      1060100200141 
 3348.       1.76       0.27                                      1060100200142 
 3360.       0.69       0.12                                      1060100200143 
 3383.       0.18       0.10                  5.                  1060100200144 
 3402.       0.22       0.11                  1.                  1060100200145 
 3427.       0.31       0.14                  1.                  1060100200146 
 3442.       0.43       0.18                                      1060100200147 
 3456.       0.46       0.21                  1.                  1060100200148 
 3511.       1.10       0.18                  1.                  1060100200149 
 3520.                             0.15       9.                  1060100200150 
 3567.       0.67       0.12                  1.                  1060100200151 
 3592.       0.32       0.18                                      1060100200152 
 3626.       0.22       0.10                                      1060100200153 
 3666.       1.22       0.19                  1.                  1060100200154 
 3706.       0.80       0.13                                      1060100200155 
 3718.       1.46       0.21                                      1060100200156 
 3773.       0.80       0.30                  1.                  1060100200157 
 3817.       0.54       0.14                                      1060100200158 
 3832.       0.60       0.21                                      1060100200159 
 3883.       0.44       0.15                                      1060100200160 
 3954.       1.1        0.19                                      1060100200161 
 3989.       0.30       0.15                  1.                  1060100200162 
 4027.       1.14       0.16                                      1060100200163 
 4069.                             0.1        9.                  1060100200164 
 4102.       0.67       0.14                                      1060100200165 
 4282.       0.17       0.17                  5.                  1060100200166 
 4325.       0.39       0.14                                      1060100200167 
 4338.       0.70       0.15                  1.                  1060100200168 
 4414.       0.54       0.14                                      1060100200169 
 4444.       0.98       0.15                  1.                  1060100200170 
 4465.       0.74       0.11                                      1060100200171 
 4496.       0.30       0.12                                      1060100200172 
 4502.       0.30       0.12                                      1060100200173 
 4523.       0.17       0.11                  5.                  1060100200174 
 4578.       0.35       0.10                                      1060100200175 
 4585.       0.31       0.10                                      1060100200176 
 4608.       0.77       0.13                                      1060100200177 
 4639.       0.28       0.12                                      1060100200178 
 4670.       0.20       0.13                  5.                  1060100200179 
 4680.       0.52       0.11                                      1060100200180 
 4718.       0.18       0.09                                      1060100200181 
 4792.       0.45       0.13                  1.                  1060100200182 
 4855.       0.29       0.10                                      1060100200183 
 4982.       0.23       0.07                                      1060100200184 
 4998.       0.23       0.08                                      1060100200185 
ENDDATA            164          0                                 1060100200186 
ENDSUBENT          185          0                                 1060100299999 
ENDENTRY             2          0                                 1060199999999 
