ENTRY            10674   20160804                             142110674  0    1 
SUBENT        10674001   20160804                             142110674  1    1 
BIB                 11         30                                 10674  1    2 
TITLE      Measurement of the Uranium-238 Subthreshold Fission    10674  1    3 
           Cross Section for Incident Neutron Energies Between    10674  1    4 
           0.6 and 100 keV                                        10674  1    5 
AUTHOR     (F.C.Difilippo,R.B.Perez,G.de Saussure,D.K.Olsen,      10674  1    6 
           R.W.Ingle)                                             10674  1    7 
REFERENCE  (J,NSE,63,153,1977)                                    10674  1    8 
INSTITUTE  (1USAORL)                                              10674  1    9 
FACILITY   (LINAC,1USAORL) Orela                                  10674  1   10 
METHOD     (TOF) Time-of-flight over 25 meter flight path.        10674  1   11 
DETECTOR   (FISCH) Two-section fission chamber, one containing    10674  1   12 
           238U and the other containing 235U.                    10674  1   13 
INC-SPECT  Resolution width Delta (eV) as a function of energy E  10674  1   14 
            (eV): Delta**2 = aE + bE**2 + cE**3; a = 4kT/A, where 10674  1   15 
           k Boltzmann constant, T absolute temperature, A        10674  1   16 
           atomic number; b = 2/3 (lm**2 + ld**2))/(L**2), where  10674  1   17 
           ld detector length, lm source moderator thickness,     10674  1   18 
            L flight path length; c = 2/3 (d**2 +                 10674  1   19 
            (delta t)**2 + (delta tc)**2)/(mu**2 L**2), where d   10674  1   20 
           pulse width, delta t channel width, delta tc time      10674  1   21 
           resolution of electronic system, mu = 72.3 (eV)**0.5   10674  1   22 
           micros/m. Numerical values for this experiment are     10674  1   23 
           listed in the article.                                 10674  1   24 
MONITOR    Resonance energies calibrated to U-235 resonances.     10674  1   25 
STATUS     (APRVD) Approved by R.B.Perez, 1977/11/21              10674  1   26 
HISTORY    (19770719C)                                            10674  1   27 
           (19831121U) BIB update.                                10674  1   28 
           (20080830A) Formats updated. BIB updates.              10674  1   29 
           (20131105A) BP: Updated subentries, added resolution   10674  1   30 
           function, digitized  Figs. 5-10 to remove UNOBT status.10674  1   31 
           (20160716U) OS. Minor typing corr. in sub.1.           10674  1   32 
ENDBIB              30          0                                 10674  1   33 
NOCOMMON             0          0                                 10674  1   34 
ENDSUBENT           33          0                                 10674  199999 
SUBENT        10674002   20080830                             13501067400200001 
BIB                  6         15                                 1067400200002 
REACTION  1(92-U-238(N,0),,EN)                                    1067400200003 
          2(92-U-238(N,F),,ARE)                                   1067400200004 
          3(92-U-238(N,F),,WID)                                   1067400200005 
ANALYSIS  2Fission areas determined by Gaussian line fit to data  1067400200006 
          3Fission widths determined from areas under clusters.   1067400200007 
ASSUMED   3(ASSUM,92-U-238(N,G),,WID) Assumed capture width used  1067400200008 
           in calculation of fission widths                       1067400200009 
           Assumed neutron widths and total widths taken from     1067400200010 
           BNL-325, VOL.I(1973).                                  1067400200011 
ERR-ANALYS1(ERR-SYS) Systematic uncertainty in resonance energy.  1067400200012 
          2(ERR-S) Statistical uncertainty in fission areas.      1067400200013 
          3(DATA-ERR) Errors given for fission widths include only1067400200014 
            errors in the measured areas.                         1067400200015 
COMMENT    Unresolved clusters                                    1067400200016 
STATUS     (TABLE) Taken from Tables IV and VIII in reference.    1067400200017 
ENDBIB              15          0                                 1067400200018 
COMMON               2          3                                 1067400200019 
ERR-SYS   1ASSUM     3                                            1067400200020 
PER-CENT   MILLI-EV                                               1067400200021 
 0.15       7.6                                                   1067400200022 
ENDCOMMON            3          0                                 1067400200023 
DATA                 5         26                                 1067400200024 
DATA      1DATA      2ERR-S     2DATA      3DATA-ERR  3           1067400200025 
KEV        B*EV       B*EV       MILLI-EV   MILLI-EV              1067400200026 
  5.715     0.0186     0.0016     0.0299     0.0026               1067400200027 
  7.090     0.0530     0.0027     0.104      0.005                1067400200028 
  7.430     0.1345     0.0059     0.276      0.012                1067400200029 
  7.804     0.1331     0.0056     0.286      0.012                1067400200030 
  9.358     0.0353     0.0031     0.0903     0.0079               1067400200031 
 11.43      0.276      0.028      0.854      0.087                1067400200032 
 14.48      0.0417     0.0037     0.161      0.014                1067400200033 
 15.23      0.2970     0.0080     1.206      0.022                1067400200034 
 15.56      0.2520     0.0070     1.044      0.029                1067400200035 
 18.12      0.0540     0.0030     0.259      0.014                1067400200036 
 23.07      0.0390     0.0040     0.236      0.024                1067400200037 
 25.03      0.0270     0.0040     0.177      0.026                1067400200038 
 26.13      0.0152     0.0030     0.104      0.020                1067400200039 
 27.33      0.0939     0.0080     0.669      0.057                1067400200040 
 28.23      0.258      0.015      1.90       0.11                 1067400200041 
 30.93      0.0113     0.0025     0.091      0.020                1067400200042 
 32.27      0.1291     0.0098     1.08       0.08                 1067400200043 
 35.67      0.0604     0.0062     0.557      0.057                1067400200044 
 45.56      0.207      0.014      2.43       0.16                 1067400200045 
 47.27      0.177      0.014      2.15       0.17                 1067400200046 
 50.53      0.0428     0.0064     0.554      0.082                1067400200047 
 51.03      0.070      0.012      0.91       0.16                 1067400200048 
 52.93      0.103      0.010      1.39       0.13                 1067400200049 
 55.29      0.189      0.014      2.67       0.20                 1067400200050 
 56.40      0.0654     0.0060     0.942      0.087                1067400200051 
 57.40      0.0471     0.0070     0.69       0.10                 1067400200052 
ENDDATA             28          0                                 1067400200053 
ENDSUBENT           52          0                                 1067400299999 
SUBENT        10674003   20080830                             13501067400300001 
BIB                  6         14                                 1067400300002 
REACTION  1(92-U-238(N,0),,EN)                                    1067400300003 
          2(92-U-238(N,F),,ARE)                                   1067400300004 
          3(92-U-238(N,F),,WID)                                   1067400300005 
ANALYSIS  3(AREA) Area analysis used to determine fission widths  1067400300006 
ASSUMED   3(ASSUM,92-U-238(N,G),,WID) Assumed neutron widths and  1067400300007 
            capture widths (where not given) taken from BNL-325,  1067400300008 
            Vol.I (1973).                                         1067400300009 
ERR-ANALYS1(ERR-SYS) Systematic uncertainty in resonance energy.  1067400300010 
          2(ERR-S) Errors on fission areas are statistical        1067400300011 
          3(DATA-ERR) Errors on fission widths are a combination  1067400300012 
            of statistical error and errors of the input partial  1067400300013 
            widths needed to fit the data.                        1067400300014 
FLAG       (1.) Two unresolved levels.                            1067400300015 
STATUS     (TABLE) Data taken from Table V in reference.          1067400300016 
ENDBIB              14          0                                 1067400300017 
NOCOMMON             0          0                                 1067400300018 
DATA                 8          9                                 1067400300019 
DATA      1ERR-SYS   1DATA      2ERR-S     2DATA      3DATA-ERR  31067400300020 
ASSUM     3FLAG                                                   1067400300021 
EV         EV         B*EV       B*EV       NANO-EV    NANO-EV    1067400300022 
MILLI-EV   NO-DIM                                                 1067400300023 
  708.5     0.9        0.0686     0.0047       24.2E+03    3.1E+031067400300024 
                                                                  1067400300025 
  722.1     0.9        0.408      0.012        14.2E+05    0.3E+061067400300026 
  23.                                                             1067400300027 
  730.6     0.9        0.0191     0.0010       11.6E+04    3.2E+041067400300028 
  23.                                                             1067400300029 
  765.7     0.9        0.0096     0.0011      610.0E+01  120.0E+011067400300030 
                                                                  1067400300031 
  845.0     1.0        0.0077     0.0010      110.0E+01   20.0E+011067400300032 
            1.                                                    1067400300033 
 1138.3     1.7        0.0048     0.0008      136.0E+01   28.0E+011067400300034 
                                                                  1067400300035 
 1168.3     1.7        0.0307     0.0030     1110.0E+01  140.0E+011067400300036 
  23.                                                             1067400300037 
 1212.6     1.8        0.2522     0.0136       31.2E+04    2.8E+041067400300038 
                                                                  1067400300039 
 1270.0     1.9        0.0073     0.0009      420.0E+01   70.0E+011067400300040 
                                                                  1067400300041 
ENDDATA             22          0                                 1067400300042 
ENDSUBENT           41          0                                 1067400399999 
SUBENT        10674004   20080830                             13501067400400001 
BIB                  3          3                                 1067400400002 
REACTION   (92-U-238(N,F),,SIG,,AV)                               1067400400003 
ERR-ANALYS (ERR-S) Data errors given are statistical errors only  1067400400004 
STATUS     (TABLE) Data taken from Table VI in reference.         1067400400005 
ENDBIB               3          0                                 1067400400006 
NOCOMMON             0          0                                 1067400400007 
DATA                 4          3                                 1067400400008 
EN-MIN     EN-MAX     DATA       ERR-S                            1067400400009 
KEV        KEV        MICRO-B    MICRO-B                          1067400400010 
  1.65       30.       61.0       1.3                             1067400400011 
 10.         30.       67.7       1.7                             1067400400012 
 30.        100.       37.3       0.6                             1067400400013 
ENDDATA              5          0                                 1067400400014 
ENDSUBENT           13          0                                 1067400499999 
SUBENT        10674005   20131105                             13951067400500001 
BIB                  4          7                                 1067400500002 
REACTION   (92-U-238(N,F),,SIG)                                   1067400500003 
ANALYSIS   The 238U fission cross section was calculated from     1067400500004 
           the background-subtracted count rate in the 238U       1067400500005 
           detector section divided by the neutron spectrum.      1067400500006 
ERR-ANALYS (DATA-ERR) This combined error is based on covariance  1067400500007 
           matrix calculations for 235U.                          1067400500008 
STATUS     (CURVE) Data given in Figs. 5-10 in reference.         1067400500009 
ENDBIB               7          0                                 1067400500010 
COMMON               1          3                                 1067400500011 
DATA-ERR                                                          1067400500012 
PER-CENT                                                          1067400500013 
9.0                                                               1067400500014 
ENDCOMMON            3          0                                 1067400500015 
DATA                 2       1492                                 1067400500016 
EN         DATA                                                   1067400500017 
KEV        MB                                                     1067400500018 
    0.70033      0.564                                            1067400500019 
    0.70096      1.102                                            1067400500020 
    0.70171      0.653                                            1067400500021 
    0.70247      0.653                                            1067400500022 
    0.70284      0.653                                            1067400500023 
     0.7031      1.191                                            1067400500024 
     0.7036      0.653                                            1067400500025 
    0.70435      1.281                                            1067400500026 
     0.7046      1.640                                            1067400500027 
    0.70586      8.274                                            1067400500028 
    0.70624      5.764                                            1067400500029 
    0.70787     11.322                                            1067400500030 
    0.70825     12.129                                            1067400500031 
    0.70838     13.922                                            1067400500032 
    0.70875     11.860                                            1067400500033 
    0.70963     12.488                                            1067400500034 
    0.70963     11.053                                            1067400500035 
    0.71014     13.115                                            1067400500036 
    0.71051     12.846                                            1067400500037 
     0.7114      8.812                                            1067400500038 
    0.71177      7.647                                            1067400500039 
    0.71253      2.715                                            1067400500040 
    0.71303      1.460                                            1067400500041 
    0.71429      0.743                                            1067400500042 
    0.71466      0.922                                            1067400500043 
    0.71492      1.640                                            1067400500044 
    0.71529      0.384                                            1067400500045 
    0.71554      1.371                                            1067400500046 
    0.71605      1.640                                            1067400500047 
    0.71655      1.371                                            1067400500048 
    0.71693      4.240                                            1067400500049 
    0.71756      8.633                                            1067400500050 
    0.71819     14.371                                            1067400500051 
    0.71894     28.536                                            1067400500052 
    0.71932     35.529                                            1067400500053 
    0.72032     55.164                                            1067400500054 
     0.7207     61.708                                            1067400500055 
    0.72095     58.839                                            1067400500056 
     0.7212     60.812                                            1067400500057 
    0.72171     64.936                                            1067400500058 
    0.72221     65.115                                            1067400500059 
    0.72259     68.343                                            1067400500060 
    0.72309     72.736                                            1067400500061 
    0.72334     67.715                                            1067400500062 
    0.72347     64.308                                            1067400500063 
    0.72384     62.963                                            1067400500064 
     0.7241     52.474                                            1067400500065 
     0.7246     45.212                                            1067400500066 
     0.7256     21.095                                            1067400500067 
    0.72598     13.026                                            1067400500068 
    0.72623      7.467                                            1067400500069 
    0.72649      6.033                                            1067400500070 
    0.72699      3.253                                            1067400500071 
    0.72749      2.895                                            1067400500072 
    0.72787      3.522                                            1067400500073 
    0.72812      4.329                                            1067400500074 
    0.72862      4.778                                            1067400500075 
    0.72887      3.522                                            1067400500076 
    0.72975      5.943                                            1067400500077 
    0.73063      6.571                                            1067400500078 
    0.73101      5.047                                            1067400500079 
    0.73227      5.047                                            1067400500080 
    0.73265      4.509                                            1067400500081 
     0.7329      3.522                                            1067400500082 
    0.73353      2.895                                            1067400500083 
    0.73378      2.357                                            1067400500084 
    0.73428      1.729                                            1067400500085 
    0.73478      1.281                                            1067400500086 
    0.73491      0.743                                            1067400500087 
    0.73579      0.743                                            1067400500088 
    0.73604      1.012                                            1067400500089 
    0.73642      0.922                                            1067400500090 
    0.73692      0.653                                            1067400500091 
    0.73755      0.922                                            1067400500092 
    0.73843      1.012                                            1067400500093 
    0.73881      1.998                                            1067400500094 
    0.73919      1.102                                            1067400500095 
    0.73944      1.998                                            1067400500096 
    0.74007      1.012                                            1067400500097 
    0.74107      0.922                                            1067400500098 
     0.7417      0.922                                            1067400500099 
     0.7422      0.833                                            1067400500100 
    0.74296      0.743                                            1067400500101 
    0.74359      0.922                                            1067400500102 
    0.74422      1.191                                            1067400500103 
    0.74459      0.743                                            1067400500104 
     0.7451      0.474                                            1067400500105 
    0.74572      0.922                                            1067400500106 
     0.7461      0.653                                            1067400500107 
     0.7466      1.102                                            1067400500108 
    0.74711      0.743                                            1067400500109 
    0.74749      1.102                                            1067400500110 
    0.74799      0.743                                            1067400500111 
    0.74874      0.743                                            1067400500112 
    0.74925      0.922                                            1067400500113 
    0.74962      1.281                                            1067400500114 
       0.75      0.922                                            1067400500115 
    0.75038      0.833                                            1067400500116 
    0.75113      1.012                                            1067400500117 
    0.75189      1.102                                            1067400500118 
    0.75201      0.743                                            1067400500119 
    0.75264      0.833                                            1067400500120 
     0.7534      1.012                                            1067400500121 
     0.7539      0.564                                            1067400500122 
    0.75428      0.922                                            1067400500123 
    0.75478      0.833                                            1067400500124 
    0.75528      0.833                                            1067400500125 
    0.75604      0.833                                            1067400500126 
    0.75666      0.743                                            1067400500127 
    0.75692      1.640                                            1067400500128 
    0.75717      0.743                                            1067400500129 
    0.75767      0.653                                            1067400500130 
     0.7583      0.743                                            1067400500131 
     0.7588      1.102                                            1067400500132 
    0.75918      0.833                                            1067400500133 
    0.75993      0.833                                            1067400500134 
    0.76044      1.012                                            1067400500135 
    0.76094      0.922                                            1067400500136 
    0.76132      1.191                                            1067400500137 
    0.76195      1.371                                            1067400500138 
    0.76257      1.550                                            1067400500139 
    0.76308      1.729                                            1067400500140 
     0.7632      2.178                                            1067400500141 
    0.76346      1.371                                            1067400500142 
    0.76383      1.729                                            1067400500143 
    0.76408      2.088                                            1067400500144 
    0.76459      2.447                                            1067400500145 
    0.76496      1.998                                            1067400500146 
    0.76547      2.805                                            1067400500147 
    0.76547      2.267                                            1067400500148 
     0.7661      3.164                                            1067400500149 
     0.7661      2.447                                            1067400500150 
     0.7666      1.550                                            1067400500151 
    0.76672      2.357                                            1067400500152 
    0.76723      2.088                                            1067400500153 
    0.76748      2.447                                            1067400500154 
    0.76773      1.998                                            1067400500155 
    0.76811      1.729                                            1067400500156 
    0.76836      2.267                                            1067400500157 
    0.76861      1.012                                            1067400500158 
    0.76874      1.550                                            1067400500159 
    0.76924      1.281                                            1067400500160 
    0.76974      1.102                                            1067400500161 
    0.77037      0.833                                            1067400500162 
    0.77113      0.833                                            1067400500163 
    0.77175      0.653                                            1067400500164 
    0.77238      0.743                                            1067400500165 
    0.77289      1.191                                            1067400500166 
    0.77351      1.819                                            1067400500167 
    0.77389      0.295                                            1067400500168 
    0.77427      1.281                                            1067400500169 
    0.77477      0.922                                            1067400500170 
    0.77515      1.371                                            1067400500171 
    0.77565      1.012                                            1067400500172 
    0.77628      0.653                                            1067400500173 
    0.77691      0.833                                            1067400500174 
    0.77766      1.281                                            1067400500175 
    0.77829      0.743                                            1067400500176 
    0.77867      0.922                                            1067400500177 
    0.77917      1.371                                            1067400500178 
    0.78018      1.371                                            1067400500179 
    0.78056      1.102                                            1067400500180 
    0.78106      1.012                                            1067400500181 
    0.78156      1.281                                            1067400500182 
    0.78207      1.012                                            1067400500183 
    0.78269      0.833                                            1067400500184 
    0.78307      1.012                                            1067400500185 
     0.7837      0.743                                            1067400500186 
     0.7842      1.012                                            1067400500187 
    0.78471      0.922                                            1067400500188 
    0.78496      0.474                                            1067400500189 
    0.78534      0.205                                            1067400500190 
    0.78546      0.833                                            1067400500191 
    0.78584      1.012                                            1067400500192 
    0.78647      0.384                                            1067400500193 
    0.78684      0.833                                            1067400500194 
     0.7876      1.281                                            1067400500195 
    0.78798      0.474                                            1067400500196 
    0.78823      1.102                                            1067400500197 
    0.78873      0.743                                            1067400500198 
    0.78898      1.460                                            1067400500199 
    0.79011      0.384                                            1067400500200 
    0.79062      1.460                                            1067400500201 
    0.79125      1.102                                            1067400500202 
    0.79187      0.833                                            1067400500203 
     0.7925      0.743                                            1067400500204 
    0.79288      1.640                                            1067400500205 
    0.79326      1.012                                            1067400500206 
    0.79376      0.564                                            1067400500207 
    0.79414      1.102                                            1067400500208 
    0.79439      1.371                                            1067400500209 
    0.79477      0.922                                            1067400500210 
    0.79527      0.384                                            1067400500211 
    0.79565      1.281                                            1067400500212 
    0.79615      1.102                                            1067400500213 
    0.79678      1.191                                            1067400500214 
    0.79728      0.474                                            1067400500215 
    0.79778      0.833                                            1067400500216 
    0.79841      1.102                                            1067400500217 
    0.79904      1.102                                            1067400500218 
    0.79967      1.102                                            1067400500219 
     0.8003      1.012                                            1067400500220 
    0.80118      0.474                                            1067400500221 
     0.8013      1.102                                            1067400500222 
    0.80168      1.012                                            1067400500223 
    0.80206      0.743                                            1067400500224 
    0.80256      1.102                                            1067400500225 
    0.80332      1.102                                            1067400500226 
    0.80395      0.922                                            1067400500227 
     0.8042      1.460                                            1067400500228 
    0.80634      1.012                                            1067400500229 
    0.80684      1.281                                            1067400500230 
    0.80722      0.922                                            1067400500231 
    0.80772      1.281                                            1067400500232 
    0.80797      0.743                                            1067400500233 
    0.80923      0.743                                            1067400500234 
    0.81023      0.833                                            1067400500235 
    0.81111      0.653                                            1067400500236 
    0.81137      1.371                                            1067400500237 
    0.81237      0.653                                            1067400500238 
    0.81287      0.833                                            1067400500239 
    0.81363      0.743                                            1067400500240 
    0.81451      0.743                                            1067400500241 
    0.81501      0.833                                            1067400500242 
    0.81564      0.564                                            1067400500243 
    0.81602      0.922                                            1067400500244 
     0.8164      1.371                                            1067400500245 
    0.81677      1.012                                            1067400500246 
    0.81715      0.564                                            1067400500247 
     0.8179      0.833                                            1067400500248 
    0.81841      1.281                                            1067400500249 
    0.81916      1.012                                            1067400500250 
    0.81916      1.012                                            1067400500251 
    0.81916      1.012                                            1067400500252 
    0.81992      1.371                                            1067400500253 
    0.82092      1.729                                            1067400500254 
    0.82155      1.550                                            1067400500255 
    0.82205      1.819                                            1067400500256 
    0.82243      1.012                                            1067400500257 
    0.82281      1.729                                            1067400500258 
    0.82319      1.012                                            1067400500259 
    0.82381      1.102                                            1067400500260 
    0.82407      1.550                                            1067400500261 
    0.82457      1.012                                            1067400500262 
    0.82495      0.833                                            1067400500263 
    0.82532      1.191                                            1067400500264 
    0.82583      1.012                                            1067400500265 
    0.82633      0.743                                            1067400500266 
    0.82683      1.012                                            1067400500267 
    0.82721      1.102                                            1067400500268 
    0.82784      0.564                                            1067400500269 
    0.82809      1.191                                            1067400500270 
    0.82859      0.922                                            1067400500271 
    0.82922      0.922                                            1067400500272 
    0.82985      0.833                                            1067400500273 
    0.83048      1.012                                            1067400500274 
    0.83111      0.653                                            1067400500275 
    0.83136      1.191                                            1067400500276 
    0.83174      0.743                                            1067400500277 
    0.83237      1.281                                            1067400500278 
    0.83287      1.281                                            1067400500279 
    0.83325      0.833                                            1067400500280 
    0.83387      0.833                                            1067400500281 
    0.83475      0.743                                            1067400500282 
    0.83538      0.653                                            1067400500283 
    0.83626      0.564                                            1067400500284 
    0.83677      0.922                                            1067400500285 
    0.83765      0.833                                            1067400500286 
    0.83815      0.922                                            1067400500287 
     0.8384      0.474                                            1067400500288 
     0.8389      1.281                                            1067400500289 
    0.83928      0.474                                            1067400500290 
    0.83991      0.474                                            1067400500291 
    0.84079      1.012                                            1067400500292 
    0.84117      0.295                                            1067400500293 
    0.84192      0.653                                            1067400500294 
    0.84255      1.102                                            1067400500295 
    0.84318      0.384                                            1067400500296 
    0.84368      0.653                                            1067400500297 
    0.84419      0.833                                            1067400500298 
    0.84507      0.743                                            1067400500299 
    0.84582      0.922                                            1067400500300 
    0.84683      0.833                                            1067400500301 
    0.84746      1.012                                            1067400500302 
    0.84783      0.564                                            1067400500303 
    0.84834      1.102                                            1067400500304 
    0.84859      1.729                                            1067400500305 
    0.84922      0.833                                            1067400500306 
    0.84947      2.088                                            1067400500307 
     0.8511      1.729                                            1067400500308 
    0.85148      2.357                                            1067400500309 
    0.85223      1.550                                            1067400500310 
    0.85286      2.447                                            1067400500311 
    0.85337      1.102                                            1067400500312 
    0.85374      2.267                                            1067400500313 
    0.85412      1.909                                            1067400500314 
    0.85462      1.909                                            1067400500315 
    0.85487      1.191                                            1067400500316 
    0.85538      0.564                                            1067400500317 
    0.85588      1.729                                            1067400500318 
    0.85626      2.357                                            1067400500319 
    0.85663      1.640                                            1067400500320 
    0.85714      1.909                                            1067400500321 
    0.85726      1.102                                            1067400500322 
    0.85814      1.012                                            1067400500323 
     0.8584      1.729                                            1067400500324 
    0.85928      1.191                                            1067400500325 
    0.86003      0.922                                            1067400500326 
    0.86066      0.205                                            1067400500327 
    0.86129      0.743                                            1067400500328 
    0.86242      0.833                                            1067400500329 
    0.86305      1.102                                            1067400500330 
    0.86368      0.653                                            1067400500331 
    0.86393      1.102                                            1067400500332 
    0.86468      1.191                                            1067400500333 
    0.86493      0.384                                            1067400500334 
    0.86531      0.743                                            1067400500335 
    0.86581      0.474                                            1067400500336 
    0.86632      0.833                                            1067400500337 
    0.86669      0.295                                            1067400500338 
     0.8672      0.743                                            1067400500339 
     1.1067      0.119                                            1067400500340 
     1.1105      0.273                                            1067400500341 
     1.1105      0.010                                            1067400500342 
     1.1115      0.124                                            1067400500343 
     1.1136      0.351                                            1067400500344 
     1.1156      0.165                                            1067400500345 
     1.1181      0.018                                            1067400500346 
     1.1199      0.057                                            1067400500347 
     1.1204      0.170                                            1067400500348 
     1.1229      0.322                                            1067400500349 
     1.1239      0.211                                            1067400500350 
     1.1257      0.025                                            1067400500351 
     1.1269      0.064                                            1067400500352 
      1.131      0.217                                            1067400500353 
     1.1327      0.519                                            1067400500354 
     1.1338      0.295                                            1067400500355 
     1.1345      0.033                                            1067400500356 
     1.1348      0.596                                            1067400500357 
      1.136      0.260                                            1067400500358 
     1.1365      0.785                                            1067400500359 
     1.1375      0.261                                            1067400500360 
     1.1391      0.375                                            1067400500361 
     1.1395      0.600                                            1067400500362 
       1.14      1.013                                            1067400500363 
     1.1416      0.715                                            1067400500364 
     1.1421      0.453                                            1067400500365 
     1.1436      0.679                                            1067400500366 
     1.1438      0.529                                            1067400500367 
     1.1446      0.418                                            1067400500368 
     1.1479      0.421                                            1067400500369 
     1.1479      0.121                                            1067400500370 
     1.1497      0.123                                            1067400500371 
      1.153      0.014                                            1067400500372 
     1.1555      0.128                                            1067400500373 
     1.1565      0.317                                            1067400500374 
     1.1575      0.093                                            1067400500375 
     1.1585      0.244                                            1067400500376 
     1.1595      0.057                                            1067400500377 
     1.1608      0.621                                            1067400500378 
     1.1615      1.221                                            1067400500379 
     1.1628      0.360                                            1067400500380 
      1.163      1.447                                            1067400500381 
      1.164      1.898                                            1067400500382 
     1.1662      3.174                                            1067400500383 
     1.1662      2.911                                            1067400500384 
     1.1677      2.913                                            1067400500385 
     1.1684      4.187                                            1067400500386 
     1.1695      3.851                                            1067400500387 
     1.1708      2.316                                            1067400500388 
     1.1715      2.767                                            1067400500389 
     1.1718      1.718                                            1067400500390 
     1.1726      1.007                                            1067400500391 
     1.1747      0.147                                            1067400500392 
     1.1757      0.223                                            1067400500393 
     1.1767      0.036                                            1067400500394 
     1.1785      0.338                                            1067400500395 
     1.1802      0.002                                            1067400500396 
     1.1807      0.377                                            1067400500397 
     1.1817      0.154                                            1067400500398 
     1.1835      0.268                                            1067400500399 
     1.1845      0.044                                            1067400500400 
     1.1855      0.007                                            1067400500401 
      1.186      0.308                                            1067400500402 
     1.1875      0.384                                            1067400500403 
     1.1876      0.084                                            1067400500404 
     1.1888      0.048                                            1067400500405 
     1.1898      0.761                                            1067400500406 
     1.1908      0.462                                            1067400500407 
     1.1916      0.200                                            1067400500408 
     1.1926      0.426                                            1067400500409 
     1.1946      0.278                                            1067400500410 
     1.1954      0.242                                            1067400500411 
     1.1964      0.243                                            1067400500412 
     1.1976      0.618                                            1067400500413 
     1.1989      0.470                                            1067400500414 
     1.1999      0.658                                            1067400500415 
     1.1999      0.246                                            1067400500416 
     1.2024      0.511                                            1067400500417 
     1.2026      1.485                                            1067400500418 
     1.2037      1.149                                            1067400500419 
     1.2056      8.719                                            1067400500420 
     1.2064     13.403                                            1067400500421 
     1.2071     20.223                                            1067400500422 
     1.2073     17.113                                            1067400500423 
     1.2102     25.546                                            1067400500424 
     1.2114     21.651                                            1067400500425 
     1.2122     26.148                                            1067400500426 
     1.2142     20.792                                            1067400500427 
      1.215     18.807                                            1067400500428 
     1.2166     12.589                                            1067400500429 
     1.2166     11.502                                            1067400500430 
     1.2176      6.557                                            1067400500431 
     1.2187      3.748                                            1067400500432 
     1.2191      1.276                                            1067400500433 
     1.2193      0.639                                            1067400500434 
     1.2209      0.341                                            1067400500435 
     1.2216      0.192                                            1067400500436 
     1.2226      0.305                                            1067400500437 
     1.2239      0.007                                            1067400500438 
     1.2247      0.382                                            1067400500439 
     1.2259      0.233                                            1067400500440 
     1.2269      0.047                                            1067400500441 
     1.2287      0.124                                            1067400500442 
     1.2315      0.239                                            1067400500443 
     1.2325      0.052                                            1067400500444 
     1.2327      0.277                                            1067400500445 
     1.2345      0.129                                            1067400500446 
     1.2358      0.243                                            1067400500447 
     1.2376      0.057                                            1067400500448 
     1.2398      0.546                                            1067400500449 
     1.2418      0.473                                            1067400500450 
     1.2428      0.287                                            1067400500451 
     1.2449      0.027                                            1067400500452 
     1.2456      0.477                                            1067400500453 
     1.2476      0.442                                            1067400500454 
     1.2504      0.144                                            1067400500455 
     1.2517      0.221                                            1067400500456 
     1.2537      0.035                                            1067400500457 
     1.2567      0.638                                            1067400500458 
     1.2598      0.453                                            1067400500459 
     1.2605      0.154                                            1067400500460 
      1.262      0.455                                            1067400500461 
     1.2638      0.232                                            1067400500462 
     1.2651      0.496                                            1067400500463 
     1.2651      0.196                                            1067400500464 
     1.2658      1.171                                            1067400500465 
     1.2668      0.460                                            1067400500466 
     1.2681      0.574                                            1067400500467 
     1.2696      0.313                                            1067400500468 
     1.2709      0.764                                            1067400500469 
     1.2716      0.689                                            1067400500470 
     1.2729      0.166                                            1067400500471 
     1.2759      0.693                                            1067400500472 
     1.2767      0.469                                            1067400500473 
      1.278      0.096                                            1067400500474 
     1.2787      0.584                                            1067400500475 
     1.2792      0.060                                            1067400500476 
     1.2817      0.025                                            1067400500477 
      1.283      0.288                                            1067400500478 
      1.284      0.589                                            1067400500479 
     1.2896      0.257                                            1067400500480 
     1.2908      0.108                                            1067400500481 
     1.2928      0.335                                            1067400500482 
     1.2949      0.262                                            1067400500483 
     1.2956      0.113                                            1067400500484 
     1.2969      0.526                                            1067400500485 
     1.2987      0.191                                            1067400500486 
      5.522      0.014                                            1067400500487 
      5.529      0.048                                            1067400500488 
      5.536      0.080                                            1067400500489 
      5.608      0.079                                            1067400500490 
      5.618      0.040                                            1067400500491 
      5.619      0.169                                            1067400500492 
      5.638      0.016                                            1067400500493 
      5.646      0.113                                            1067400500494 
      5.654      0.200                                            1067400500495 
      5.665      0.015                                            1067400500496 
      5.672      0.050                                            1067400500497 
      5.681      0.144                                            1067400500498 
      5.686      0.015                                            1067400500499 
      5.692      0.266                                            1067400500500 
      5.699      0.228                                            1067400500501 
      5.702      0.196                                            1067400500502 
      5.706      0.259                                            1067400500503 
      5.720      0.294                                            1067400500504 
      5.722      0.447                                            1067400500505 
      5.736      0.231                                            1067400500506 
      5.741      0.346                                            1067400500507 
      5.742      0.440                                            1067400500508 
      5.744      0.060                                            1067400500509 
      5.768      0.049                                            1067400500510 
      5.785      0.038                                            1067400500511 
      5.797      0.132                                            1067400500512 
      5.799      0.076                                            1067400500513 
      5.812      0.017                                            1067400500514 
      5.820      0.111                                            1067400500515 
      5.826      0.006                                            1067400500516 
      5.827      0.079                                            1067400500517 
      5.845      0.135                                            1067400500518 
      5.854      0.103                                            1067400500519 
      5.861      0.069                                            1067400500520 
      5.874      0.047                                            1067400500521 
      5.893      0.208                                            1067400500522 
      5.895      0.065                                            1067400500523 
      5.902      0.078                                            1067400500524 
      5.903      0.138                                            1067400500525 
      5.915      0.029                                            1067400500526 
      5.917      0.207                                            1067400500527 
      5.926      0.113                                            1067400500528 
      5.929      0.050                                            1067400500529 
      5.937      0.176                                            1067400500530 
      5.939      0.015                                            1067400500531 
      5.950      0.106                                            1067400500532 
      5.957      0.074                                            1067400500533 
      5.964      0.133                                            1067400500534 
      5.984      0.098                                            1067400500535 
      5.997      0.011                                            1067400500536 
      6.017      0.018                                            1067400500537 
      6.021      0.042                                            1067400500538 
      6.031      0.042                                            1067400500539 
      6.083      0.073                                            1067400500540 
      6.094      0.125                                            1067400500541 
      6.100      0.076                                            1067400500542 
      6.108      0.187                                            1067400500543 
      6.134      0.013                                            1067400500544 
      6.134      0.068                                            1067400500545 
      6.158      0.072                                            1067400500546 
      6.194      0.158                                            1067400500547 
      6.207      0.123                                            1067400500548 
      6.244      0.074                                            1067400500549 
      6.260      0.039                                            1067400500550 
      6.269      0.154                                            1067400500551 
      6.274      0.046                                            1067400500552 
      6.287      0.011                                            1067400500553 
      6.309      0.097                                            1067400500554 
      6.309      0.097                                            1067400500555 
      6.346      0.038                                            1067400500556 
      6.347      0.149                                            1067400500557 
      6.373      0.016                                            1067400500558 
      6.374      0.065                                            1067400500559 
      6.380      0.016                                            1067400500560 
      6.381      0.103                                            1067400500561 
      6.385      0.177                                            1067400500562 
      6.394      0.068                                            1067400500563 
      6.414      0.044                                            1067400500564 
      6.458      0.012                                            1067400500565 
      6.469      0.008                                            1067400500566 
      6.483      0.043                                            1067400500567 
      6.483      0.099                                            1067400500568 
      6.507      0.043                                            1067400500569 
      6.520      0.007                                            1067400500570 
      6.540      0.007                                            1067400500571 
      6.548      0.035                                            1067400500572 
      6.552      0.094                                            1067400500573 
      6.589      0.090                                            1067400500574 
      6.607      0.118                                            1067400500575 
      6.616      0.062                                            1067400500576 
      6.627      0.065                                            1067400500577 
      6.630      0.044                                            1067400500578 
      6.668      0.093                                            1067400500579 
      6.670      0.016                                            1067400500580 
      6.679      0.117                                            1067400500581 
      6.692      0.065                                            1067400500582 
      6.712      0.040                                            1067400500583 
      6.726      0.064                                            1067400500584 
      6.736      0.095                                            1067400500585 
      6.757      0.116                                            1067400500586 
      6.764      0.088                                            1067400500587 
      6.780      0.060                                            1067400500588 
      6.794      0.011                                            1067400500589 
      6.797      0.042                                            1067400500590 
      6.801      0.091                                            1067400500591 
      6.805      0.147                                            1067400500592 
      6.813      0.171                                            1067400500593 
      6.819      0.147                                            1067400500594 
      6.831      0.038                                            1067400500595 
      6.845      0.017                                            1067400500596 
      6.852      0.062                                            1067400500597 
      6.862      0.034                                            1067400500598 
      6.885      0.205                                            1067400500599 
      6.886      0.013                                            1067400500600 
      6.893      0.037                                            1067400500601 
      6.907      0.041                                            1067400500602 
      6.929      0.142                                            1067400500603 
      6.941      0.012                                            1067400500604 
      6.951      0.040                                            1067400500605 
      6.965      0.040                                            1067400500606 
      6.995      0.008                                            1067400500607 
      7.004      0.175                                            1067400500608 
      7.016      0.011                                            1067400500609 
      7.024      0.112                                            1067400500610 
      7.053      0.018                                            1067400500611 
      7.057      0.063                                            1067400500612 
      7.062      0.168                                            1067400500613 
      7.075      0.346                                            1067400500614 
      7.075      0.632                                            1067400500615 
      7.080      0.478                                            1067400500616 
      7.087      0.788                                            1067400500617 
      7.091      0.834                                            1067400500618 
      7.100      0.977                                            1067400500619 
      7.127      0.934                                            1067400500620 
      7.127      0.425                                            1067400500621 
      7.127      0.729                                            1067400500622 
      7.134      0.191                                            1067400500623 
      7.157      0.083                                            1067400500624 
      7.173      0.041                                            1067400500625 
      7.180      0.006                                            1067400500626 
      7.197      0.040                                            1067400500627 
      7.229      0.106                                            1067400500628 
      7.238      0.036                                            1067400500629 
      7.241      0.008                                            1067400500630 
      7.263      0.060                                            1067400500631 
      7.273      0.036                                            1067400500632 
      7.290      0.039                                            1067400500633 
      7.290      0.057                                            1067400500634 
      7.311      0.084                                            1067400500635 
      7.315      0.140                                            1067400500636 
      7.337      0.007                                            1067400500637 
      7.339      0.157                                            1067400500638 
      7.345      0.059                                            1067400500639 
      7.355      0.035                                            1067400500640 
      7.365      0.084                                            1067400500641 
      7.370      0.178                                            1067400500642 
      7.375      0.310                                            1067400500643 
      7.379      0.087                                            1067400500644 
      7.394      0.212                                            1067400500645 
      7.397      0.411                                            1067400500646 
      7.415      1.262                                            1067400500647 
      7.425      1.558                                            1067400500648 
      7.436      1.904                                            1067400500649 
      7.450      2.158                                            1067400500650 
      7.457      1.875                                            1067400500651 
      7.470      1.345                                            1067400500652 
      7.476      0.951                                            1067400500653 
      7.477      0.483                                            1067400500654 
      7.495      0.036                                            1067400500655 
      7.501      0.012                                            1067400500656 
      7.534      0.182                                            1067400500657 
      7.546      0.011                                            1067400500658 
      7.567      0.032                                            1067400500659 
      7.573      0.011                                            1067400500660 
      7.587      0.060                                            1067400500661 
      7.626      0.108                                            1067400500662 
      7.638      0.028                                            1067400500663 
      7.662      0.031                                            1067400500664 
      7.663      0.087                                            1067400500665 
      7.688      0.156                                            1067400500666 
      7.688      0.180                                            1067400500667 
      7.689      0.229                                            1067400500668 
      7.696      0.030                                            1067400500669 
      7.706      0.006                                            1067400500670 
      7.711      0.131                                            1067400500671 
      7.721      0.086                                            1067400500672 
      7.737      0.236                                            1067400500673 
      7.748      0.037                                            1067400500674 
      7.750      0.204                                            1067400500675 
      7.762      0.368                                            1067400500676 
      7.770      0.682                                            1067400500677 
      7.777      0.992                                            1067400500678 
      7.783      1.428                                            1067400500679 
      7.790      1.738                                            1067400500680 
      7.803      1.665                                            1067400500681 
      7.803      1.982                                            1067400500682 
      7.812      1.857                                            1067400500683 
      7.817      2.021                                            1067400500684 
      7.837      1.399                                            1067400500685 
      7.840      1.672                                            1067400500686 
      7.846      1.040                                            1067400500687 
      7.849      0.726                                            1067400500688 
      7.850      0.293                                            1067400500689 
      7.854      0.084                                            1067400500690 
      7.905      0.038                                            1067400500691 
      7.919      0.076                                            1067400500692 
      7.929      0.010                                            1067400500693 
      7.968      0.131                                            1067400500694 
      7.978      0.103                                            1067400500695 
      8.003      0.197                                            1067400500696 
      8.007      0.005                                            1067400500697 
      8.021      0.026                                            1067400500698 
      8.053      0.078                                            1067400500699 
      8.055      0.012                                            1067400500700 
      8.076      0.036                                            1067400500701 
      8.096      0.015                                            1067400500702 
      8.107      0.049                                            1067400500703 
      8.121      0.101                                            1067400500704 
      8.125      0.147                                            1067400500705 
      8.168      0.010                                            1067400500706 
      8.172      0.034                                            1067400500707 
      8.185      0.034                                            1067400500708 
      8.219      0.236                                            1067400500709 
      8.227      0.079                                            1067400500710 
      8.258      0.100                                            1067400500711 
      8.271      0.079                                            1067400500712 
      8.277      0.012                                            1067400500713 
      8.298      0.008                                            1067400500714 
      8.305      0.050                                            1067400500715 
      8.334      0.130                                            1067400500716 
      8.387      0.032                                            1067400500717 
      8.405      0.059                                            1067400500718 
      8.418      0.059                                            1067400500719 
      8.425      0.031                                            1067400500720 
      8.436      0.076                                            1067400500721 
      8.440      0.146                                            1067400500722 
      8.456      0.034                                            1067400500723 
      8.501      0.082                                            1067400500724 
      8.535      0.113                                            1067400500725 
      8.551      0.029                                            1067400500726 
      8.592      0.032                                            1067400500727 
      8.595      0.004                                            1067400500728 
      8.613      0.011                                            1067400500729 
      8.643      0.011                                            1067400500730 
      8.660      0.014                                            1067400500731 
      8.666      0.192                                            1067400500732 
      8.668      0.056                                            1067400500733 
      8.681      0.014                                            1067400500734 
      8.682      0.118                                            1067400500735 
      8.715      0.013                                            1067400500736 
      8.767      0.055                                            1067400500737 
      8.777      0.023                                            1067400500738 
      8.787      0.009                                            1067400500739 
      8.812      0.117                                            1067400500740 
      8.815      0.078                                            1067400500741 
      8.825      0.057                                            1067400500742 
      8.842      0.012                                            1067400500743 
      8.890      0.077                                            1067400500744 
      8.900      0.011                                            1067400500745 
      8.911      0.049                                            1067400500746 
      8.941      0.031                                            1067400500747 
      8.945      0.101                                            1067400500748 
      8.952      0.052                                            1067400500749 
      8.959      0.076                                            1067400500750 
      8.979      0.076                                            1067400500751 
      8.982      0.006                                            1067400500752 
      8.993      0.052                                            1067400500753 
      9.030      0.037                                            1067400500754 
      9.038      0.121                                            1067400500755 
      9.057      0.012                                            1067400500756 
      9.058      0.120                                            1067400500757 
      9.081      0.015                                            1067400500758 
      9.091      0.008                                            1067400500759 
      9.098      0.026                                            1067400500760 
      9.112      0.008                                            1067400500761 
      9.123      0.050                                            1067400500762 
      9.132      0.011                                            1067400500763 
      9.141      0.179                                            1067400500764 
      9.167      0.046                                            1067400500765 
      9.178      0.077                                            1067400500766 
      9.187      0.011                                            1067400500767 
      9.198      0.070                                            1067400500768 
      9.206      0.139                                            1067400500769 
      9.222      0.076                                            1067400500770 
      9.280      0.104                                            1067400500771 
      9.290      0.016                                            1067400500772 
      9.334      0.263                                            1067400500773 
      9.358      0.319                                            1067400500774 
      9.373      0.378                                            1067400500775 
      9.389      0.263                                            1067400500776 
      9.396      0.018                                            1067400500777 
      9.444      0.049                                            1067400500778 
      9.468      0.028                                            1067400500779 
      9.468      0.098                                            1067400500780 
      9.485      0.069                                            1067400500781 
      9.488      0.048                                            1067400500782 
      9.503      0.097                                            1067400500783 
      9.512      0.055                                            1067400500784 
      9.522      0.027                                            1067400500785 
      9.530      0.090                                            1067400500786 
      9.543      0.013                                            1067400500787 
      9.577      0.012                                            1067400500788 
      9.581      0.051                                            1067400500789 
      9.601      0.050                                            1067400500790 
      9.629      0.095                                            1067400500791 
      9.683      0.004                                            1067400500792 
      9.714      0.045                                            1067400500793 
      9.727      0.007                                            1067400500794 
      9.735      0.098                                            1067400500795 
      9.759      0.108                                            1067400500796 
      9.782      0.006                                            1067400500797 
      9.800      0.051                                            1067400500798 
      9.805      0.194                                            1067400500799 
      9.844      0.012                                            1067400500800 
      9.861      0.019                                            1067400500801 
      9.882      0.057                                            1067400500802 
      9.893      0.134                                            1067400500803 
      9.905      0.036                                            1067400500804 
      9.909      0.092                                            1067400500805 
      9.988      0.087                                            1067400500806 
     10.088      0.056                                            1067400500807 
     10.130      0.056                                            1067400500808 
     10.180      0.004                                            1067400500809 
     10.189      0.035                                            1067400500810 
     10.239      0.014                                            1067400500811 
     10.290      0.003                                            1067400500812 
     10.307      0.029                                            1067400500813 
     10.334      0.096                                            1067400500814 
     10.349      0.003                                            1067400500815 
     10.367      0.044                                            1067400500816 
     10.385      0.095                                            1067400500817 
     10.400      0.007                                            1067400500818 
     10.452      0.053                                            1067400500819 
     10.476      0.012                                            1067400500820 
     10.594      0.006                                            1067400500821 
     10.596      0.078                                            1067400500822 
     10.621      0.042                                            1067400500823 
     10.629      0.068                                            1067400500824 
     10.647      0.088                                            1067400500825 
     10.654      0.005                                            1067400500826 
     10.664      0.114                                            1067400500827 
     10.671      0.016                                            1067400500828 
     10.704      0.005                                            1067400500829 
     10.706      0.067                                            1067400500830 
     10.724      0.155                                            1067400500831 
     10.756      0.030                                            1067400500832 
     10.773      0.051                                            1067400500833 
     10.781      0.010                                            1067400500834 
     10.817      0.113                                            1067400500835 
     10.823      0.004                                            1067400500836 
     10.882      0.014                                            1067400500837 
     10.900      0.050                                            1067400500838 
     10.917      0.076                                            1067400500839 
     10.933      0.034                                            1067400500840 
     10.960      0.080                                            1067400500841 
     10.993      0.039                                            1067400500842 
     11.044      0.044                                            1067400500843 
     11.068      0.012                                            1067400500844 
     11.102      0.017                                            1067400500845 
     11.137      0.074                                            1067400500846 
     11.145      0.038                                            1067400500847 
     11.161      0.017                                            1067400500848 
     11.197      0.120                                            1067400500849 
     11.229      0.011                                            1067400500850 
     11.281      0.052                                            1067400500851 
     11.299      0.104                                            1067400500852 
     11.341      0.088                                            1067400500853 
     11.357      0.052                                            1067400500854 
     11.359      0.160                                            1067400500855 
     11.397      1.157                                            1067400500856 
     11.437      1.890                                            1067400500857 
     11.438      2.324                                            1067400500858 
     11.442      2.117                                            1067400500859 
     11.465      2.840                                            1067400500860 
     11.471      2.680                                            1067400500861 
     11.497      2.308                                            1067400500862 
     11.503      0.960                                            1067400500863 
     11.505      1.889                                            1067400500864 
     11.531      0.272                                            1067400500865 
     11.542      0.024                                            1067400500866 
     11.594      0.076                                            1067400500867 
     11.627      0.013                                            1067400500868 
     11.645      0.080                                            1067400500869 
     11.670      0.049                                            1067400500870 
     11.670      0.075                                            1067400500871 
     11.703      0.008                                            1067400500872 
     11.713      0.085                                            1067400500873 
     11.745      0.023                                            1067400500874 
     11.763      0.069                                            1067400500875 
     11.788      0.059                                            1067400500876 
     11.805      0.022                                            1067400500877 
     11.831      0.089                                            1067400500878 
     11.856      0.068                                            1067400500879 
     11.906      0.016                                            1067400500880 
     11.932      0.063                                            1067400500881 
     11.933      0.094                                            1067400500882 
     11.965      0.011                                            1067400500883 
     12.058      0.020                                            1067400500884 
     12.059      0.046                                            1067400500885 
     12.092      0.005                                            1067400500886 
     12.093      0.067                                            1067400500887 
     12.120      0.118                                            1067400500888 
     12.135      0.035                                            1067400500889 
     12.135      0.056                                            1067400500890 
     12.194      0.030                                            1067400500891 
     12.253      0.014                                            1067400500892 
     12.262      0.034                                            1067400500893 
     12.297      0.111                                            1067400500894 
     12.312      0.013                                            1067400500895 
     12.354      0.013                                            1067400500896 
     12.389      0.038                                            1067400500897 
     12.405      0.007                                            1067400500898 
     12.407      0.116                                            1067400500899 
     12.423      0.048                                            1067400500900 
     12.439      0.033                                            1067400500901 
     12.475      0.105                                            1067400500902 
     12.490      0.043                                            1067400500903 
     12.508      0.074                                            1067400500904 
     12.526      0.125                                            1067400500905 
     12.549      0.022                                            1067400500906 
     12.559      0.084                                            1067400500907 
     12.618      0.062                                            1067400500908 
     12.677      0.077                                            1067400500909 
     12.703      0.119                                            1067400500910 
     12.779      0.108                                            1067400500911 
     12.795      0.040                                            1067400500912 
     12.821      0.097                                            1067400500913 
     12.830      0.118                                            1067400500914 
     12.837      0.025                                            1067400500915 
     12.872      0.086                                            1067400500916 
     12.922      0.060                                            1067400500917 
     12.964      0.065                                            1067400500918 
     12.981      0.034                                            1067400500919 
     13.040      0.039                                            1067400500920 
     13.065      0.012                                            1067400500921 
     13.117      0.064                                            1067400500922 
     13.133      0.048                                            1067400500923 
     13.184      0.022                                            1067400500924 
     13.209      0.037                                            1067400500925 
     13.218      0.063                                            1067400500926 
     13.244      0.089                                            1067400500927 
     13.251      0.011                                            1067400500928 
     13.277      0.026                                            1067400500929 
     13.286      0.047                                            1067400500930 
     13.320      0.083                                            1067400500931 
     13.327      0.016                                            1067400500932 
     13.370      0.036                                            1067400500933 
     13.396      0.072                                            1067400500934 
     13.420      0.010                                            1067400500935 
     13.447      0.082                                            1067400500936 
     13.505      0.009                                            1067400500937 
     13.532      0.092                                            1067400500938 
     13.557      0.071                                            1067400500939 
     13.583      0.112                                            1067400500940 
     13.589      0.008                                            1067400500941 
     13.624      0.044                                            1067400500942 
     13.626      0.148                                            1067400500943 
     13.670      0.235                                            1067400500944 
     13.675      0.039                                            1067400500945 
     13.701      0.080                                            1067400500946 
     13.767      0.002                                            1067400500947 
     13.768      0.038                                            1067400500948 
     13.810      0.027                                            1067400500949 
     13.819      0.074                                            1067400500950 
     13.852      0.037                                            1067400500951 
     13.879      0.104                                            1067400500952 
     13.911      0.011                                            1067400500953 
     13.929      0.052                                            1067400500954 
     13.987      0.005                                            1067400500955 
     14.022      0.041                                            1067400500956 
     14.049      0.134                                            1067400500957 
     14.056      0.077                                            1067400500958 
     14.115      0.061                                            1067400500959 
     14.140      0.035                                            1067400500960 
     14.165      0.004                                            1067400500961 
     14.224      0.009                                            1067400500962 
     14.275      0.024                                            1067400500963 
     14.326      0.049                                            1067400500964 
     14.342      0.003                                            1067400500965 
     14.360      0.033                                            1067400500966 
     14.379      0.131                                            1067400500967 
     14.428      0.048                                            1067400500968 
     14.464      0.162                                            1067400500969 
     14.471      0.110                                            1067400500970 
     14.487      0.456                                            1067400500971 
     14.495      0.430                                            1067400500972 
     14.512      0.456                                            1067400500973 
     14.551      0.270                                            1067400500974 
     14.576      0.249                                            1067400500975 
     14.639      0.057                                            1067400500976 
     14.681      0.005                                            1067400500977 
     14.690      0.057                                            1067400500978 
     14.716      0.057                                            1067400500979 
     14.732      0.010                                            1067400500980 
     14.774      0.010                                            1067400500981 
     14.791      0.030                                            1067400500982 
     14.793      0.108                                            1067400500983 
     14.850      0.019                                            1067400500984 
     14.868      0.081                                            1067400500985 
     14.886      0.133                                            1067400500986 
     14.994      0.023                                            1067400500987 
     15.019      0.003                                            1067400500988 
     15.045      0.023                                            1067400500989 
     15.063      0.090                                            1067400500990 
     15.079      0.054                                            1067400500991 
     15.098      0.147                                            1067400500992 
     15.127      0.306                                            1067400500993 
     15.130      0.064                                            1067400500994 
     15.160      0.270                                            1067400500995 
     15.180      0.404                                            1067400500996 
     15.197      0.817                                            1067400500997 
     15.224      1.328                                            1067400500998 
     15.261      1.855                                            1067400500999 
     15.270      1.891                                            1067400501000 
     15.319      1.818                                            1067400501001 
     15.323      1.999                                            1067400501002 
     15.332      1.209                                            1067400501003 
     15.334      1.312                                            1067400501004 
     15.349      0.424                                            1067400501005 
     15.367      0.475                                            1067400501006 
     15.405      0.237                                            1067400501007 
     15.432      0.320                                            1067400501008 
     15.438      0.221                                            1067400501009 
     15.455      0.614                                            1067400501010 
     15.490      0.696                                            1067400501011 
     15.494      0.877                                            1067400501012 
     15.518      0.810                                            1067400501013 
     15.531      1.042                                            1067400501014 
     15.572      0.985                                            1067400501015 
     15.592      1.134                                            1067400501016 
     15.621      0.881                                            1067400501017 
     15.635      1.144                                            1067400501018 
     15.641      1.015                                            1067400501019 
     15.665      0.984                                            1067400501020 
     15.694      0.328                                            1067400501021 
     15.731      0.074                                            1067400501022 
     15.736      0.307                                            1067400501023 
     15.765      0.054                                            1067400501024 
     15.772      0.002                                            1067400501025 
     15.798      0.033                                            1067400501026 
     15.816      0.069                                            1067400501027 
     15.841      0.053                                            1067400501028 
     15.865      0.022                                            1067400501029 
     15.917      0.047                                            1067400501030 
     15.934      0.078                                            1067400501031 
     15.976      0.026                                            1067400501032 
     16.027      0.083                                            1067400501033 
     16.077      0.046                                            1067400501034 
     16.104      0.113                                            1067400501035 
     16.136      0.020                                            1067400501036 
     16.154      0.061                                            1067400501037 
     16.187      0.004                                            1067400501038 
     16.196      0.030                                            1067400501039 
     16.221      0.045                                            1067400501040 
     16.297      0.013                                            1067400501041 
     16.324      0.080                                            1067400501042 
     16.356      0.028                                            1067400501043 
     16.391      0.064                                            1067400501044 
     16.415      0.018                                            1067400501045 
     16.442      0.105                                            1067400501046 
     16.458      0.053                                            1067400501047 
     16.475      0.022                                            1067400501048 
     16.510      0.079                                            1067400501049 
     16.544      0.089                                            1067400501050 
     16.551      0.016                                            1067400501051 
     16.551      0.058                                            1067400501052 
     16.601      0.001                                            1067400501053 
     16.652      0.005                                            1067400501054 
     16.687      0.046                                            1067400501055 
     16.694      0.000                                            1067400501056 
     16.781      0.108                                            1067400501057 
     16.799      0.164                                            1067400501058 
     16.832      0.133                                            1067400501059 
     16.840      0.102                                            1067400501060 
     16.863      0.009                                            1067400501061 
     16.876      0.190                                            1067400501062 
     16.909      0.169                                            1067400501063 
     16.916      0.091                                            1067400501064 
     16.966      0.049                                            1067400501065 
     16.968      0.137                                            1067400501066 
     17.016      0.018                                            1067400501067 
     17.058      0.018                                            1067400501068 
     17.067      0.043                                            1067400501069 
     17.109      0.022                                            1067400501070 
     17.187      0.084                                            1067400501071 
     17.194      0.027                                            1067400501072 
     17.245      0.063                                            1067400501073 
     17.304      0.021                                            1067400501074 
     17.312      0.011                                            1067400501075 
     17.372      0.036                                            1067400501076 
     17.405      0.015                                            1067400501077 
     17.515      0.014                                            1067400501078 
     17.676      0.049                                            1067400501079 
     17.726      0.007                                            1067400501080 
     17.794      0.007                                            1067400501081 
     17.853      0.006                                            1067400501082 
     17.922      0.068                                            1067400501083 
     17.930      0.052                                            1067400501084 
     17.998      0.047                                            1067400501085 
     18.025      0.108                                            1067400501086 
     18.035      0.212                                            1067400501087 
     18.059      0.144                                            1067400501088 
     18.096      0.283                                            1067400501089 
     18.114      0.345                                            1067400501090 
     18.173      0.319                                            1067400501091 
     18.186      0.117                                            1067400501092 
     18.212      0.190                                            1067400501093 
     18.227      0.055                                            1067400501094 
     18.268      0.019                                            1067400501095 
     18.352      0.008                                            1067400501096 
     18.412      0.028                                            1067400501097 
     18.473      0.105                                            1067400501098 
     18.547      0.011                                            1067400501099 
     18.565      0.047                                            1067400501100 
     18.640      0.000                                            1067400501101 
     18.734      0.031                                            1067400501102 
     18.810      0.045                                            1067400501103 
     18.869      0.030                                            1067400501104 
     18.920      0.045                                            1067400501105 
     18.963      0.060                                            1067400501106 
     18.970      0.029                                            1067400501107 
     19.031      0.095                                            1067400501108 
     19.082      0.126                                            1067400501109 
     19.100      0.152                                            1067400501110 
     19.124      0.074                                            1067400501111 
     19.140      0.033                                            1067400501112 
     19.173      0.001                                            1067400501113 
     19.192      0.089                                            1067400501114 
     19.207      0.017                                            1067400501115 
     19.242      0.063                                            1067400501116 
     19.588      0.045                                            1067400501117 
     19.613      0.013                                            1067400501118 
     19.698      0.023                                            1067400501119 
     19.732      0.049                                            1067400501120 
     19.783      0.022                                            1067400501121 
     19.817      0.069                                            1067400501122 
     19.850      0.032                                            1067400501123 
     19.961      0.052                                            1067400501124 
     19.986      0.021                                            1067400501125 
     20.119      0.024                                            1067400501126 
     20.259      0.055                                            1067400501127 
     20.259      0.024                                            1067400501128 
     20.439      0.037                                            1067400501129 
     20.519      0.021                                            1067400501130 
     20.619      0.009                                            1067400501131 
     20.698      0.110                                            1067400501132 
     20.759      0.009                                            1067400501133 
     20.858      0.031                                            1067400501134 
     20.978      0.006                                            1067400501135 
     20.998      0.022                                            1067400501136 
     21.038      0.018                                            1067400501137 
     21.178      0.031                                            1067400501138 
     21.318      0.034                                            1067400501139 
     21.338      0.058                                            1067400501140 
     21.418      0.006                                            1067400501141 
     21.438      0.043                                            1067400501142 
     21.478      0.028                                            1067400501143 
     21.598      0.006                                            1067400501144 
     21.638      0.019                                            1067400501145 
     21.757      0.061                                            1067400501146 
     21.778      0.009                                            1067400501147 
     21.797      0.031                                            1067400501148 
     21.977      0.003                                            1067400501149 
     22.037      0.025                                            1067400501150 
     22.077      0.074                                            1067400501151 
     22.137      0.064                                            1067400501152 
     22.197      0.034                                            1067400501153 
     22.277      0.009                                            1067400501154 
     22.337      0.034                                            1067400501155 
     22.357      0.052                                            1067400501156 
     22.436      0.067                                            1067400501157 
     22.457      0.003                                            1067400501158 
     22.517      0.025                                            1067400501159 
     22.537      0.049                                            1067400501160 
     22.557      0.010                                            1067400501161 
     22.616      0.064                                            1067400501162 
     22.696      0.028                                            1067400501163 
     22.716      0.083                                            1067400501164 
     22.737      0.000                                            1067400501165 
     22.857      0.000                                            1067400501166 
     22.876      0.028                                            1067400501167 
     22.896      0.003                                            1067400501168 
     22.955      0.165                                            1067400501169 
     23.036      0.028                                            1067400501170 
     23.075      0.254                                            1067400501171 
     23.155      0.193                                            1067400501172 
     23.195      0.147                                            1067400501173 
     23.216      0.040                                            1067400501174 
     23.236      0.013                                            1067400501175 
     23.436      0.055                                            1067400501176 
     23.496      0.010                                            1067400501177 
     23.735      0.043                                            1067400501178 
     23.756      0.001                                            1067400501179 
     23.855      0.104                                            1067400501180 
     24.075      0.037                                            1067400501181 
     24.135      0.025                                            1067400501182 
     24.255      0.040                                            1067400501183 
     24.335      0.019                                            1067400501184 
     24.575      0.025                                            1067400501185 
     24.694      0.056                                            1067400501186 
     24.734      0.037                                            1067400501187 
     24.814      0.022                                            1067400501188 
     24.834      0.010                                            1067400501189 
     24.914      0.056                                            1067400501190 
     24.953      0.184                                            1067400501191 
     24.953      0.162                                            1067400501192 
     25.073      0.147                                            1067400501193 
     25.154      0.065                                            1067400501194 
     25.214      0.031                                            1067400501195 
     25.234      0.007                                            1067400501196 
     25.394      0.034                                            1067400501197 
     25.473      0.068                                            1067400501198 
     25.494      0.025                                            1067400501199 
     25.634      0.025                                            1067400501200 
     25.693      0.050                                            1067400501201 
     25.713      0.028                                            1067400501202 
     25.853      0.004                                            1067400501203 
     25.973      0.019                                            1067400501204 
     26.053      0.044                                            1067400501205 
     26.113      0.092                                            1067400501206 
     26.132      0.114                                            1067400501207 
     26.213      0.096                                            1067400501208 
     26.213      0.068                                            1067400501209 
     26.253      0.001                                            1067400501210 
     26.613      0.001                                            1067400501211 
     26.653      0.013                                            1067400501212 
     26.713      0.001                                            1067400501213 
     26.792      0.028                                            1067400501214 
     26.892      0.013                                            1067400501215 
     27.012      0.044                                            1067400501216 
     27.052      0.032                                            1067400501217 
     27.152      0.032                                            1067400501218 
     27.231      0.129                                            1067400501219 
     27.232      0.065                                            1067400501220 
     27.290      0.242                                            1067400501221 
     27.309      0.422                                            1067400501222 
     27.369      0.428                                            1067400501223 
     27.390      0.334                                            1067400501224 
     27.470      0.361                                            1067400501225 
     27.511      0.206                                            1067400501226 
     27.531      0.120                                            1067400501227 
     27.552      0.038                                            1067400501228 
     27.652      0.016                                            1067400501229 
     27.732      0.007                                            1067400501230 
     27.831      0.050                                            1067400501231 
     27.871      0.020                                            1067400501232 
     27.951      0.053                                            1067400501233 
     27.991      0.087                                            1067400501234 
     28.030      0.227                                            1067400501235 
     28.088      0.456                                            1067400501236 
     28.147      0.715                                            1067400501237 
     28.225      0.944                                            1067400501238 
     28.304      1.127                                            1067400501239 
     28.344      1.002                                            1067400501240 
     28.367      0.590                                            1067400501241 
     28.386      0.703                                            1067400501242 
     28.389      0.328                                            1067400501243 
     28.470      0.132                                            1067400501244 
     28.511      0.035                                            1067400501245 
     28.750      0.081                                            1067400501246 
     28.870      0.081                                            1067400501247 
     29.030      0.017                                            1067400501248 
     29.170      0.004                                            1067400501249 
     29.310      0.004                                            1067400501250 
     29.490      0.001                                            1067400501251 
     29.569      0.056                                            1067400501252 
     29.809      0.020                                            1067400501253 
     30.149      0.014                                            1067400501254 
     30.309      0.014                                            1067400501255 
     30.349      0.053                                            1067400501256 
     30.549      0.032                                            1067400501257 
     30.748      0.029                                            1067400501258 
     30.828      0.038                                            1067400501259 
     30.888      0.069                                            1067400501260 
     30.908      0.023                                            1067400501261 
     30.967      0.182                                            1067400501262 
     31.028      0.032                                            1067400501263 
     31.108      0.047                                            1067400501264 
     31.148      0.035                                            1067400501265 
     31.148      0.005                                            1067400501266 
     31.288      0.041                                            1067400501267 
     31.328      0.072                                            1067400501268 
     31.388      0.026                                            1067400501269 
     31.428      0.017                                            1067400501270 
     31.468      0.044                                            1067400501271 
     31.568      0.023                                            1067400501272 
     31.568      0.002                                            1067400501273 
     31.628      0.023                                            1067400501274 
     31.787      0.023                                            1067400501275 
     31.907      0.035                                            1067400501276 
     31.927      0.008                                            1067400501277 
     32.047      0.075                                            1067400501278 
     32.106      0.136                                            1067400501279 
     32.225      0.374                                            1067400501280 
     32.364      0.398                                            1067400501281 
     32.365      0.362                                            1067400501282 
     32.405      0.322                                            1067400501283 
     32.445      0.234                                            1067400501284 
     32.506      0.063                                            1067400501285 
     32.607      0.005                                            1067400501286 
     32.706      0.035                                            1067400501287 
     32.986      0.008                                            1067400501288 
     33.086      0.011                                            1067400501289 
     33.106      0.042                                            1067400501290 
     33.306      0.039                                            1067400501291 
     33.326      0.075                                            1067400501292 
     33.445      0.069                                            1067400501293 
     33.466      0.033                                            1067400501294 
     33.506      0.014                                            1067400501295 
     33.606      0.030                                            1067400501296 
     33.745      0.091                                            1067400501297 
     33.785      0.033                                            1067400501298 
     33.905      0.008                                            1067400501299 
     34.065      0.036                                            1067400501300 
     34.225      0.036                                            1067400501301 
     34.285      0.002                                            1067400501302 
     34.525      0.033                                            1067400501303 
     34.624      0.039                                            1067400501304 
     34.685      0.005                                            1067400501305 
     34.924      0.011                                            1067400501306 
     35.024      0.027                                            1067400501307 
     35.084      0.069                                            1067400501308 
     35.124      0.094                                            1067400501309 
     35.204      0.005                                            1067400501310 
     35.224      0.051                                            1067400501311 
     35.304      0.018                                            1067400501312 
     35.404      0.027                                            1067400501313 
     35.523      0.127                                            1067400501314 
     35.583      0.143                                            1067400501315 
     35.622      0.320                                            1067400501316 
     35.763      0.127                                            1067400501317 
     35.803      0.042                                            1067400501318 
     35.883      0.063                                            1067400501319 
     36.043      0.045                                            1067400501320 
     36.083      0.015                                            1067400501321 
     36.263      0.027                                            1067400501322 
     36.323      0.060                                            1067400501323 
     36.403      0.057                                            1067400501324 
     36.483      0.009                                            1067400501325 
     36.702      0.036                                            1067400501326 
     36.762      0.018                                            1067400501327 
     36.802      0.042                                            1067400501328 
     36.902      0.070                                            1067400501329 
     37.162      0.058                                            1067400501330 
     37.302      0.018                                            1067400501331 
     37.422      0.048                                            1067400501332 
     37.482      0.012                                            1067400501333 
     37.541      0.082                                            1067400501334 
     37.582      0.042                                            1067400501335 
     37.662      0.006                                            1067400501336 
     37.762      0.006                                            1067400501337 
     37.801      0.039                                            1067400501338 
     37.841      0.070                                            1067400501339 
     37.901      0.052                                            1067400501340 
     38.001      0.049                                            1067400501341 
     38.061      0.015                                            1067400501342 
     38.141      0.061                                            1067400501343 
     38.201      0.012                                            1067400501344 
     38.261      0.024                                            1067400501345 
     38.660      0.033                                            1067400501346 
     38.780      0.030                                            1067400501347 
     38.860      0.039                                            1067400501348 
     38.900      0.000                                            1067400501349 
     39.140      0.018                                            1067400501350 
     39.220      0.018                                            1067400501351 
     39.300      0.037                                            1067400501352 
     39.360      0.021                                            1067400501353 
     39.420      0.052                                            1067400501354 
     39.500      0.037                                            1067400501355 
     39.559      0.049                                            1067400501356 
     39.679      0.049                                            1067400501357 
     39.819      0.009                                            1067400501358 
     40.865      0.005                                            1067400501359 
     41.005      0.038                                            1067400501360 
     41.094      0.014                                            1067400501361 
     41.235      0.014                                            1067400501362 
     41.306      0.062                                            1067400501363 
     41.359      0.014                                            1067400501364 
     41.589      0.012                                            1067400501365 
     41.713      0.000                                            1067400501366 
     41.819      0.011                                            1067400501367 
     41.960      0.028                                            1067400501368 
     42.190      0.006                                            1067400501369 
     42.260      0.014                                            1067400501370 
     42.331      0.006                                            1067400501371 
     42.419      0.045                                            1067400501372 
     42.560      0.035                                            1067400501373 
     42.649      0.011                                            1067400501374 
     42.667      0.006                                            1067400501375 
     42.737      0.003                                            1067400501376 
     42.773      0.014                                            1067400501377 
     42.843      0.000                                            1067400501378 
     43.250      0.012                                            1067400501379 
     43.479      0.034                                            1067400501380 
     43.567      0.026                                            1067400501381 
     43.797      0.012                                            1067400501382 
     43.886      0.011                                            1067400501383 
     43.956      0.006                                            1067400501384 
     44.204      0.018                                            1067400501385 
     44.345      0.034                                            1067400501386 
     44.433      0.018                                            1067400501387 
     44.522      0.010                                            1067400501388 
     44.610      0.004                                            1067400501389 
     44.769      0.011                                            1067400501390 
     44.857      0.019                                            1067400501391 
     44.928      0.025                                            1067400501392 
     45.016      0.019                                            1067400501393 
     45.175      0.047                                            1067400501394 
     45.385      0.205                                            1067400501395 
     45.438      0.257                                            1067400501396 
     45.647      0.506                                            1067400501397 
     45.718      0.419                                            1067400501398 
     45.791      0.284                                            1067400501399 
     45.792      0.177                                            1067400501400 
     45.917      0.033                                            1067400501401 
     46.111      0.056                                            1067400501402 
     46.200      0.000                                            1067400501403 
     46.288      0.046                                            1067400501404 
     46.376      0.119                                            1067400501405 
     46.464      0.088                                            1067400501406 
     46.518      0.037                                            1067400501407 
     46.641      0.096                                            1067400501408 
     46.730      0.009                                            1067400501409 
     46.818      0.025                                            1067400501410 
     46.977      0.097                                            1067400501411 
     47.065      0.066                                            1067400501412 
     47.152      0.214                                            1067400501413 
     47.257      0.311                                            1067400501414 
     47.344      0.365                                            1067400501415 
     47.468      0.384                                            1067400501416 
     47.523      0.199                                            1067400501417 
     47.629      0.189                                            1067400501418 
     47.683      0.100                                            1067400501419 
     47.755      0.003                                            1067400501420 
     47.949      0.033                                            1067400501421 
     48.036      0.107                                            1067400501422 
     48.125      0.058                                            1067400501423 
     48.232      0.038                                            1067400501424 
     48.320      0.070                                            1067400501425 
     48.408      0.045                                            1067400501426 
     48.496      0.073                                            1067400501427 
     48.585      0.045                                            1067400501428 
     48.779      0.025                                            1067400501429 
     48.974      0.018                                            1067400501430 
     49.062      0.023                                            1067400501431 
     49.168      0.015                                            1067400501432 
     49.256      0.085                                            1067400501433 
     49.327      0.064                                            1067400501434 
     49.433      0.022                                            1067400501435 
     49.539      0.022                                            1067400501436 
     49.910      0.015                                            1067400501437 
     50.193      0.037                                            1067400501438 
     50.299      0.057                                            1067400501439 
     50.404      0.081                                            1067400501440 
     50.493      0.054                                            1067400501441 
     50.598      0.095                                            1067400501442 
     50.705      0.049                                            1067400501443 
     50.758      0.087                                            1067400501444 
     50.864      0.071                                            1067400501445 
     50.986      0.169                                            1067400501446 
     51.058      0.108                                            1067400501447 
     51.198      0.188                                            1067400501448 
     51.287      0.112                                            1067400501449 
     51.359      0.030                                            1067400501450 
     51.465      0.041                                            1067400501451 
     51.589      0.010                                            1067400501452 
     51.783      0.022                                            1067400501453 
     51.854      0.010                                            1067400501454 
     52.066      0.021                                            1067400501455 
     52.207      0.033                                            1067400501456 
     52.313      0.055                                            1067400501457 
     52.613      0.053                                            1067400501458 
     52.719      0.099                                            1067400501459 
     52.824      0.174                                            1067400501460 
     52.930      0.118                                            1067400501461 
     53.035      0.219                                            1067400501462 
     53.124      0.139                                            1067400501463 
     53.213      0.084                                            1067400501464 
     53.320      0.035                                            1067400501465 
     53.426      0.004                                            1067400501466 
     53.532      0.004                                            1067400501467 
     53.621      0.021                                            1067400501468 
     53.744      0.033                                            1067400501469 
     53.850      0.043                                            1067400501470 
     54.062      0.040                                            1067400501471 
     54.203      0.053                                            1067400501472 
     54.308      0.129                                            1067400501473 
     54.380      0.079                                            1067400501474 
     54.521      0.036                                            1067400501475 
     54.592      0.016                                            1067400501476 
     54.716      0.008                                            1067400501477 
     54.839      0.057                                            1067400501478 
     54.962      0.114                                            1067400501479 
     55.067      0.235                                            1067400501480 
     55.190      0.244                                            1067400501481 
     55.278      0.347                                            1067400501482 
     55.349      0.306                                            1067400501483 
     55.403      0.213                                            1067400501484 
     55.616      0.090                                            1067400501485 
     55.740      0.068                                            1067400501486 
     55.864      0.015                                            1067400501487 
     55.899      0.047                                            1067400501488 
     56.058      0.070                                            1067400501489 
     56.164      0.039                                            1067400501490 
     56.411      0.129                                            1067400501491 
     56.500      0.076                                            1067400501492 
     56.659      0.072                                            1067400501493 
     56.748      0.028                                            1067400501494 
     56.836      0.040                                            1067400501495 
     57.084      0.011                                            1067400501496 
     57.260      0.052                                            1067400501497 
     57.329      0.144                                            1067400501498 
     57.471      0.087                                            1067400501499 
     57.595      0.099                                            1067400501500 
     57.949      0.033                                            1067400501501 
     58.055      0.051                                            1067400501502 
     58.108      0.008                                            1067400501503 
     58.302      0.051                                            1067400501504 
     58.391      0.000                                            1067400501505 
     58.532      0.003                                            1067400501506 
     58.638      0.003                                            1067400501507 
     58.886      0.003                                            1067400501508 
     59.133      0.004                                            1067400501509 
     59.274      0.011                                            1067400501510 
ENDDATA           1494          0                                 1067400501511 
ENDSUBENT         1510          0                                 1067400599999 
ENDENTRY             5          0                                 1067499999999 
