ENTRY            10689   20080929                             13501068900000001 
SUBENT        10689001   20080929                             13501068900100001 
BIB                 12         26                                 1068900100002 
INSTITUTE  (1USALRL)                                              1068900100003 
REFERENCE  (J,PR/C,16,97,197707)                                  1068900100004 
AUTHOR     (R.C.Haight,S.M.Grimes,J.D.Anderson)                   1068900100005 
TITLE      Measurement of the proton spectrum from the 2H(n,p)2n  1068900100006 
            reaction at 13.98 MeV and the neutron-neutron         1068900100007 
            scattering length                                     1068900100008 
FACILITY   (ACCEL,1USALRL) Rotating Target Neutron Source         1068900100009 
INC-SOURCE (D-T) 400-keV deuterons on rotating tritiated titanium 1068900100010 
            target.                                               1068900100011 
SAMPLE     1.5 mg/cm**2 foil of C2H2.                             1068900100012 
DETECTOR   (TELES) Delta E/E detector made of two silicon surface 1068900100013 
            barrier detectors.                                    1068900100014 
MONITOR    (1-H-1(N,EL)1-H-1,,DA) To verify resolution for target.1068900100015 
ERR-ANALYS (ERR-S) Statistical uncertainty includes               1068900100016 
            statistics in the foreground and background spectra   1068900100017 
            and in normalizing spectra from the thick sample.     1068900100018 
           (DATA-ERR) Overall normalization uncertainty due to    1068900100019 
            the following:                                        1068900100020 
            .uncertainty in sample thickness (7%),                1068900100021 
            .normalization of stopping powers (3%),               1068900100022 
            .uncertainty in standard cross section (1.6%).        1068900100023 
STATUS     (APRVD) Approved by S.M.Grimes, 1977/11/7              1068900100024 
HISTORY    (19770824C)                                            1068900100025 
           (19831229A) BIB, COMMON data-heading corrections.      1068900100026 
           (20080929A) Formats updated; BIB updates.              1068900100027 
                       Error heading updated.                     1068900100028 
ENDBIB              26          0                                 1068900100029 
COMMON               2          3                                 1068900100030 
EN         DATA-ERR                                               1068900100031 
MEV        PER-CENT                                               1068900100032 
 13.95      8.                                                    1068900100033 
ENDCOMMON            3          0                                 1068900100034 
ENDSUBENT           33          0                                 1068900199999 
SUBENT        10689002   20080929                             13501068900200001 
BIB                  2          2                                 1068900200002 
REACTION   (1-H-2(N,2N)1-H-1,,DA/DE,P)                            1068900200003 
STATUS     (TABLE) Data taken from Table II in reference.         1068900200004 
ENDBIB               2          0                                 1068900200005 
COMMON               1          3                                 1068900200006 
ANG                                                               1068900200007 
ADEG                                                              1068900200008 
 1.6                                                              1068900200009 
ENDCOMMON            3          0                                 1068900200010 
DATA                 3         70                                 1068900200011 
E          DATA       ERR-S                                       1068900200012 
MEV        MB/SR/MEV  MB/SR/MEV                                   1068900200013 
  6.14      14.20       5.57                                      1068900200014 
  6.22       8.22       3.52                                      1068900200015 
  6.31      18.30       4.56                                      1068900200016 
  6.40       8.50       3.85                                      1068900200017 
  6.49       8.26       3.34                                      1068900200018 
  6.58      10.20       2.94                                      1068900200019 
  6.67       5.36       1.60                                      1068900200020 
  6.76      11.70       2.60                                      1068900200021 
  6.85       5.69       2.58                                      1068900200022 
  6.94      12.00       2.29                                      1068900200023 
  7.02       6.70       2.19                                      1068900200024 
  7.11       8.95       1.81                                      1068900200025 
  7.20       7.84       1.78                                      1068900200026 
  7.29       8.00       1.76                                      1068900200027 
  7.38       8.33       1.65                                      1068900200028 
  7.47      10.30       1.51                                      1068900200029 
  7.56      11.30       1.69                                      1068900200030 
  7.65       6.64       1.33                                      1068900200031 
  7.73       6.36       1.26                                      1068900200032 
  7.82       8.53       1.34                                      1068900200033 
  7.91       8.84       1.41                                      1068900200034 
  8.00       7.04       1.26                                      1068900200035 
  8.09       8.45       1.26                                      1068900200036 
  8.18       7.37       1.18                                      1068900200037 
  8.27       7.15       1.13                                      1068900200038 
  8.36       5.38       1.05                                      1068900200039 
  8.44       7.31       1.08                                      1068900200040 
  8.53       4.88       0.94                                      1068900200041 
  8.62       6.32       1.03                                      1068900200042 
  8.71       8.41       1.07                                      1068900200043 
  8.80       7.09       1.03                                      1068900200044 
  8.89       7.90       1.04                                      1068900200045 
  8.98       4.10       0.95                                      1068900200046 
  9.07       7.48       0.97                                      1068900200047 
  9.16       7.57       0.90                                      1068900200048 
  9.24       6.07       0.82                                      1068900200049 
  9.33       5.29       0.88                                      1068900200050 
  9.42       8.58       0.96                                      1068900200051 
  9.51       5.24       0.90                                      1068900200052 
  9.60       7.75       0.92                                      1068900200053 
  9.69       7.93       0.89                                      1068900200054 
  9.78       6.27       0.86                                      1068900200055 
  9.87       6.28       0.86                                      1068900200056 
  9.95       7.70       0.87                                      1068900200057 
 10.04       5.46       0.80                                      1068900200058 
 10.13       6.87       0.82                                      1068900200059 
 10.22       8.42       0.89                                      1068900200060 
 10.31       7.40       0.90                                      1068900200061 
 10.40       7.58       0.84                                      1068900200062 
 10.49       8.55       0.93                                      1068900200063 
 10.58      10.90       0.96                                      1068900200064 
 10.66      11.00       1.00                                      1068900200065 
 10.75       9.44       0.96                                      1068900200066 
 10.84      12.70       1.06                                      1068900200067 
 10.93      12.60       1.01                                      1068900200068 
 11.02      14.60       1.20                                      1068900200069 
 11.11      14.90       1.20                                      1068900200070 
 11.20      18.60       1.34                                      1068900200071 
 11.29      21.20       1.39                                      1068900200072 
 11.38      23.60       1.52                                      1068900200073 
 11.46      26.60       1.64                                      1068900200074 
 11.55      27.30       1.63                                      1068900200075 
 11.64      16.70       1.31                                      1068900200076 
 11.73       7.46       0.93                                      1068900200077 
 11.82       1.70       0.62                                      1068900200078 
 11.91       1.61       0.57                                      1068900200079 
 12.00       1.11       0.45                                      1068900200080 
 12.09       1.01       0.53                                      1068900200081 
 12.17       1.30       0.74                                      1068900200082 
 12.26      -0.23       0.63                                      1068900200083 
ENDDATA             72          0                                 1068900200084 
ENDSUBENT           83          0                                 1068900299999 
ENDENTRY             2          0                                 1068999999999 
