ENTRY            10692   20080929                             13501069200000001 
SUBENT        10692001   20080929                             13501069200100001 
BIB                 11         19                                 1069200100002 
INSTITUTE  (1USAORL)                                              1069200100003 
REFERENCE  (J,NSE,63,101,197705)                                  1069200100004 
AUTHOR     (J.K.Dickens)                                          1069200100005 
TITLE      Neutron-Induced Gamma-Ray Production in Lead-208 for   1069200100006 
            Incident-Neutron Energies between 4.9 and 8.0 MeV and 1069200100007 
            in Bismuth-209 for an Incident-Neutron Energy of      1069200100008 
            5.4 MeV                                               1069200100009 
FACILITY   (VDG,1USAORL) Pulsed Van-de-Graaff                     1069200100010 
INC-SOURCE (D-D)                                                  1069200100011 
DETECTOR   (GELI) Germanium-lithium detector 48-cm**3             1069200100012 
MONITOR    No information given                                   1069200100013 
ERR-ANALYS (DATA-ERR) Data errors given are absolute errors with  1069200100014 
            a minimum value of 12%. Errors related to overall     1069200100015 
            uncertainties in beam monitoring, detector efficiency 1069200100016 
            calibration, and corrections for finite geometry and  1069200100017 
            multiple scattering.                                  1069200100018 
STATUS     (APRVD) Approved by J.K.Dickens, 1977/12/19            1069200100019 
HISTORY    (19770830C)                                            1069200100020 
           (20080929A) Formats updated; BIB updates.              1069200100021 
ENDBIB              19          0                                 1069200100022 
NOCOMMON             0          0                                 1069200100023 
ENDSUBENT           22          0                                 1069200199999 
SUBENT        10692002   20080929                             13501069200200001 
BIB                  6         11                                 1069200200002 
REACTION   (82-PB-208(N,X)0-G-0,PAR,DA)                           1069200200003 
SAMPLE     Metallic lead cylinder, enriched to >99% 208Pb.        1069200200004 
FLAG       (1.) Peak is wide and may be due to more than one      1069200200005 
           gamma-ray                                              1069200200006 
           (2.) An additional unresolved transition of about      1069200200007 
           1220 keV is included in these data.                    1069200200008 
ERR-ANALYS Gamma-ray energy uncertainties are 0.5 keV for those   1069200200009 
           energies known to one decimal place, and the greater   1069200200010 
           of 1.keV or (0.0005*gamma energy) for other entries.   1069200200011 
STATUS     (TABLE) Data taken from Table I in reference.          1069200200012 
HISTORY    (19831229A) Data heading corrected.                    1069200200013 
ENDBIB              11          0                                 1069200200014 
COMMON               1          3                                 1069200200015 
ANG                                                               1069200200016 
ADEG                                                              1069200200017 
 125.                                                             1069200200018 
ENDCOMMON            3          0                                 1069200200019 
DATA                 6        226                                 1069200200020 
E          EN         EN-RSL     DATA       DATA-ERR   FLAG       1069200200021 
KEV        MEV        MEV        MB/SR      MB/SR      NO-DIM     1069200200022 
  553.      4.9        0.2         1.3        0.6       1.        1069200200023 
  582.9     4.9        0.2        90.        11.                  1069200200024 
  582.9     6.45       0.15       91.        11.                  1069200200025 
  582.9     6.95       0.15       91.        11.                  1069200200026 
  582.9     7.45       0.12       92.        12.                  1069200200027 
  582.9     8.00       0.12       91.        11.                  1069200200028 
  721.9     4.9        0.2         1.7        0.5                 1069200200029 
  721.9     6.45       0.15        1.8        0.5                 1069200200030 
  721.9     6.95       0.15        2.4        0.5                 1069200200031 
  721.9     7.45       0.12        3.7        0.6                 1069200200032 
  721.9     8.00       0.12        3.5        0.6                 1069200200033 
  748.5     4.9        0.2         5.5        0.8                 1069200200034 
  748.5     6.45       0.15        3.0        0.5                 1069200200035 
  748.5     6.95       0.15        3.0        0.5                 1069200200036 
  748.5     7.45       0.12        2.3        0.4                 1069200200037 
  748.5     8.00       0.12        3.1        0.5                 1069200200038 
  762.6     4.9        0.2         4.8        0.7                 1069200200039 
  762.6     6.45       0.15        5.3        0.8                 1069200200040 
  762.6     6.95       0.15        5.3        0.8                 1069200200041 
  762.6     7.45       0.12        4.9        0.8                 1069200200042 
  762.6     8.00       0.12        5.1        0.8                 1069200200043 
  770.      6.45       0.15        0.57       0.27                1069200200044 
  770.      6.95       0.15        1.05       0.33                1069200200045 
  770.      7.45       0.12        1.7        0.4                 1069200200046 
  770.      8.00       0.12        1.11       0.31                1069200200047 
  786.8     4.9        0.2         1.8        0.8                 1069200200048 
  786.8     6.45       0.15        1.14       0.27                1069200200049 
  786.8     6.95       0.15        1.06       0.26                1069200200050 
  786.8     7.45       0.12        1.31       0.41                1069200200051 
  798.0     4.9        0.2         1.7        0.8                 1069200200052 
  798.0     6.45       0.15        1.30       0.27                1069200200053 
  798.0     6.95       0.15        0.82       0.32                1069200200054 
  798.0     7.45       0.12        1.33       0.41                1069200200055 
  821.6     4.9        0.2         0.90       0.45                1069200200056 
  821.6     6.45       0.15        1.17       0.26                1069200200057 
  821.6     6.95       0.15        0.84       0.32                1069200200058 
  821.6     7.45       0.12        0.93       0.36                1069200200059 
  821.6     8.00       0.12        0.96       0.37                1069200200060 
  860.5     4.9        0.2        14.5        1.9                 1069200200061 
  860.5     6.45       0.15        9.2        1.1                 1069200200062 
  860.5     6.95       0.15        8.7        1.1                 1069200200063 
  860.5     7.45       0.12        7.2        1.0                 1069200200064 
  860.5     8.00       0.12        9.1        1.1                 1069200200065 
  883.4     4.9        0.2         2.8        0.5                 1069200200066 
  883.4     6.45       0.15        2.7        0.5                 1069200200067 
  883.4     6.95       0.15        2.4        0.5                 1069200200068 
  883.4     7.45       0.12        2.3        0.4                 1069200200069 
  883.4     8.00       0.12        2.1        0.4                 1069200200070 
  927.4     4.9        0.2         4.1        0.6                 1069200200071 
  927.4     6.45       0.15        3.2        0.6                 1069200200072 
  927.4     6.95       0.15        2.9        0.6                 1069200200073 
  927.4     7.45       0.12        2.4        0.5                 1069200200074 
  927.4     8.00       0.12        2.1        0.4                 1069200200075 
  982.3     4.9        0.2         4.8        0.7                 1069200200076 
  982.3     6.45       0.15        3.9        0.7                 1069200200077 
  982.3     6.95       0.15        3.3        0.6                 1069200200078 
  982.3     7.45       0.12        2.7        0.5                 1069200200079 
  982.3     8.00       0.12        2.5        0.5                 1069200200080 
 1008.      4.9        0.2         2.8        0.7       1.        1069200200081 
 1008.      6.45       0.15        2.8        0.5       1.        1069200200082 
 1008.      6.95       0.15        2.6        0.5       1.        1069200200083 
 1008.      7.45       0.12        2.4        0.5       1.        1069200200084 
 1008.      8.00       0.12        2.5        1.0       1.        1069200200085 
 1093.3     6.45       0.15        0.82       0.55                1069200200086 
 1093.3     6.95       0.15        0.98       0.39                1069200200087 
 1093.3     7.45       0.12        0.49       0.30                1069200200088 
 1125.8     4.9        0.2         3.1        0.5                 1069200200089 
 1125.8     6.45       0.15        7.3        1.0                 1069200200090 
 1125.8     6.95       0.15        7.4        1.0                 1069200200091 
 1125.8     7.45       0.12        7.1        0.9                 1069200200092 
 1125.8     8.00       0.12        5.7        0.8                 1069200200093 
 1184.7     4.9        0.2         2.3        0.4                 1069200200094 
 1184.7     6.45       0.15        2.1        0.4                 1069200200095 
 1184.7     6.95       0.15        2.2        0.5       1.        1069200200096 
 1184.7     7.45       0.12        2.5        0.6       1.        1069200200097 
 1184.7     8.00       0.12        3.1        0.6       1.        1069200200098 
 1225.      4.9        0.2         2.3        0.4                 1069200200099 
 1225.      6.45       0.15        7.4        0.9       1.        1069200200100 
 1225.      6.95       0.15        8.4        1.0       1.        1069200200101 
 1225.      7.45       0.12        9.3        1.2       2.        1069200200102 
 1225.      8.00       0.12        8.7        1.1       2.        1069200200103 
 1284.      4.9        0.2         1.6        0.4                 1069200200104 
 1284.      6.45       0.15        2.4        0.8       1.        1069200200105 
 1284.      6.95       0.15        1.6        0.5       1.        1069200200106 
 1284.      7.45       0.12        2.4        0.8       1.        1069200200107 
 1284.      8.00       0.15        2.0        0.6       1.        1069200200108 
 1380.1     4.9        0.2         6.2        0.8                 1069200200109 
 1380.1     6.45       0.15        3.9        0.5                 1069200200110 
 1380.1     6.95       0.15        3.5        0.5                 1069200200111 
 1380.1     7.45       0.12        4.2        0.6       1.        1069200200112 
 1380.1     8.00       0.12        4.2        0.7       1.        1069200200113 
 1386.      6.95       0.15        0.43       0.24                1069200200114 
 1386.      7.45       0.12        0.39       0.22                1069200200115 
 1386.      8.00       0.12        0.50       0.25                1069200200116 
 1412.4     6.45       0.15        2.2        0.5                 1069200200117 
 1412.4     6.95       0.15        4.1        0.6                 1069200200118 
 1412.4     7.45       0.12        5.7        0.8                 1069200200119 
 1412.4     8.00       0.12        5.6        0.8                 1069200200120 
 1436.0     4.9        0.2         7.2        0.9                 1069200200121 
 1436.0     6.45       0.15        4.6        0.7                 1069200200122 
 1436.0     6.95       0.15        3.6        0.5                 1069200200123 
 1436.0     7.45       0.12        3.1        0.5                 1069200200124 
 1436.0     8.00       0.12        3.1        0.5                 1069200200125 
 1614.8     4.9        0.2         5.1        0.8                 1069200200126 
 1614.8     6.45       0.15        3.8        0.6                 1069200200127 
 1614.8     6.95       0.15        2.9        0.5                 1069200200128 
 1614.8     7.45       0.12        1.9        0.4                 1069200200129 
 1614.8     8.00       0.12        2.4        0.5                 1069200200130 
 1639.      4.9        0.2         7.0        1.0       1.        1069200200131 
 1639.      6.45       0.15        4.5        0.7       1.        1069200200132 
 1639.      6.95       0.15        3.6        0.5       1.        1069200200133 
 1639.      7.45       0.12        2.5        0.5       1.        1069200200134 
 1639.      8.00       0.12        2.8        0.5       1.        1069200200135 
 1647.9     4.9        0.2         3.2        0.5                 1069200200136 
 1647.9     6.45       0.15        1.23       0.39                1069200200137 
 1647.9     6.95       0.15        1.44       0.47                1069200200138 
 1647.9     7.45       0.12        0.72       0.34                1069200200139 
 1647.9     8.00       0.12        2.2        1.0       1.        1069200200140 
 1764.      6.45       0.15        0.83       0.39                1069200200141 
 1764.      6.95       0.15        0.40       0.20      1.        1069200200142 
 1764.      7.45       0.12        0.76       0.38      1.        1069200200143 
 1777.      6.45       0.15        0.52       0.26      1.        1069200200144 
 1777.      6.95       0.15        0.72       0.35      1.        1069200200145 
 2015.1     6.45       0.15        1.31       0.40                1069200200146 
 2015.1     6.95       0.15        1.07       0.33                1069200200147 
 2015.1     7.45       0.12        1.58       0.49                1069200200148 
 2015.1     8.00       0.12        1.85       0.51                1069200200149 
 2295.5     6.45       0.15        1.32       0.40                1069200200150 
 2295.5     6.95       0.15        0.85       0.42                1069200200151 
 2295.5     7.45       0.12        2.1        0.6                 1069200200152 
 2295.5     8.00       0.12        1.10       0.40                1069200200153 
 2321.5     6.45       0.15        1.01       0.37                1069200200154 
 2321.5     6.95       0.15        0.99       0.37                1069200200155 
 2321.5     7.45       0.12        0.99       0.39                1069200200156 
 2337.0     6.45       0.15        1.42       0.46                1069200200157 
 2337.0     6.95       0.15        1.40       0.44                1069200200158 
 2337.0     7.45       0.12        0.85       0.39                1069200200159 
 2422.5     6.45       0.15        1.16       0.33                1069200200160 
 2422.5     6.95       0.15        2.2        0.5                 1069200200161 
 2422.5     7.45       0.12        1.03       0.32                1069200200162 
 2511.      6.45       0.15        1.11       0.47                1069200200163 
 2511.      6.95       0.15        0.62       0.41                1069200200164 
 2511.      7.45       0.12        0.74       0.45                1069200200165 
 2511.      8.00       0.12        0.35       0.25                1069200200166 
 2614.5     4.9        0.2       162.        20.                  1069200200167 
 2614.5     6.45       0.15      145.        18.                  1069200200168 
 2614.5     6.95       0.15      140.        18.                  1069200200169 
 2614.5     7.45       0.12      147.        18.                  1069200200170 
 2614.5     8.00       0.12      153.        19.                  1069200200171 
 2627.      6.45       0.15        1.95       0.95      1.        1069200200172 
 2627.      6.95       0.15        2.3        0.9       1.        1069200200173 
 2627.      7.45       0.12        1.92       0.95      1.        1069200200174 
 2627.      8.00       0.12        1.33       0.68      1.        1069200200175 
 2672.3     6.45       0.15        1.05       0.41                1069200200176 
 2672.3     6.95       0.15        0.50       0.26                1069200200177 
 2672.3     7.45       0.12        0.65       0.31                1069200200178 
 2672.3     8.00       0.12        0.80       0.38                1069200200179 
 2733.3     6.45       0.15        0.75       0.37                1069200200180 
 2733.3     6.95       0.15        0.91       0.39                1069200200181 
 2733.3     7.45       0.12        0.89       0.39                1069200200182 
 2733.3     8.00       0.12        0.85       0.38                1069200200183 
 2768.9     6.45       0.15        1.04       0.36                1069200200184 
 2768.9     6.95       0.15        1.32       0.41                1069200200185 
 2768.9     7.45       0.12        1.50       0.43                1069200200186 
 2768.9     8.00       0.12        1.51       0.43                1069200200187 
 2902.3     6.95       0.15        0.65       0.33                1069200200188 
 2902.3     7.45       0.12        0.62       0.31                1069200200189 
 2902.3     8.00       0.12        0.63       0.34                1069200200190 
 2934.      6.45       0.15        0.51       0.26                1069200200191 
 2934.      6.95       0.15        0.62       0.31                1069200200192 
 2934.      7.45       0.12        0.47       0.21                1069200200193 
 2948.      6.45       0.15        1.10       0.36                1069200200194 
 2948.      6.95       0.15        1.23       0.38                1069200200195 
 2948.      7.45       0.12        1.15       0.36                1069200200196 
 2948.      8.00       0.12        0.73       0.34                1069200200197 
 3076.      6.45       0.15        0.38       0.22                1069200200198 
 3076.      6.95       0.15        0.40       0.21                1069200200199 
 3076.      7.45       0.12        0.56       0.27                1069200200200 
 3076.      8.00       0.12        0.43       0.19                1069200200201 
 3272.      6.45       0.15        0.39       0.22                1069200200202 
 3272.      6.95       0.15        0.65       0.29                1069200200203 
 3272.      7.45       0.12        0.61       0.28                1069200200204 
 3272.      8.00       0.12        0.65       0.31                1069200200205 
 4000.      6.95       0.15        0.46       0.24                1069200200206 
 4000.      7.45       0.12        0.62       0.27                1069200200207 
 4000.      8.00       0.12        0.62       0.34                1069200200208 
 4084.7     4.9        0.2         6.4        1.5                 1069200200209 
 4084.7     6.45       0.15        5.8        1.4                 1069200200210 
 4084.7     6.95       0.15        4.8        1.3                 1069200200211 
 4084.7     7.45       0.12        4.4        1.3                 1069200200212 
 4084.7     8.00       0.12        3.9        1.2                 1069200200213 
 4229.3     4.9        0.2         0.90       0.22                1069200200214 
 4229.3     6.45       0.15        0.74       0.31                1069200200215 
 4229.3     6.95       0.15        0.55       0.27                1069200200216 
 4229.3     7.45       0.12        0.75       0.31                1069200200217 
 4229.3     8.00       0.12        0.42       0.24                1069200200218 
 4841.      6.45       0.15        1.01       0.32                1069200200219 
 4841.      6.95       0.15        1.23       0.41                1069200200220 
 4841.      7.45       0.12        0.78       0.31                1069200200221 
 4841.      8.00       0.12        0.56       0.26                1069200200222 
 5293.      6.45       0.15        0.73       0.31                1069200200223 
 5293.      6.95       0.15        1.08       0.40                1069200200224 
 5293.      7.45       0.12        0.73       0.31                1069200200225 
 5293.      8.00       0.12        0.98       0.39                1069200200226 
 5314.      6.45       0.15        0.42       0.22                1069200200227 
 5314.      6.95       0.15        0.28       0.15                1069200200228 
 5314.      7.45       0.12        0.34       0.20                1069200200229 
 5314.      8.00       0.12        0.23       0.13                1069200200230 
 5338.      6.45       0.15        0.40       0.25      1.        1069200200231 
 5338.      6.95       0.15        0.42       0.24      1.        1069200200232 
 5338.      7.45       0.12        0.50       0.25      1.        1069200200233 
 5338.      8.00       0.12        0.52       0.22      1.        1069200200234 
 5508.      6.45       0.15        0.71       0.18      1.        1069200200235 
 5508.      6.95       0.15        0.62       0.17      1.        1069200200236 
 5508.      7.45       0.12        0.80       0.19      1.        1069200200237 
 5508.      8.00       0.12        0.55       0.22      1.        1069200200238 
 5638.      6.45       0.15        0.81       0.19                1069200200239 
 5638.      6.95       0.15        0.81       0.19                1069200200240 
 5638.      7.45       0.12        0.54       0.16                1069200200241 
 5638.      8.00       0.12        0.52       0.16                1069200200242 
 5712.      6.45       0.15        0.29       0.13                1069200200243 
 5712.      6.95       0.15        0.28       0.15                1069200200244 
 5712.      7.45       0.12        0.30       0.17                1069200200245 
 6259.      6.95       0.15        0.59       0.16                1069200200246 
 6259.      7.45       0.12        0.56       0.16                1069200200247 
 6259.      8.00       0.12        0.54       0.30                1069200200248 
ENDDATA            228          0                                 1069200200249 
ENDSUBENT          248          0                                 1069200299999 
SUBENT        10692003   20080929                             13501069200300001 
BIB                  5          6                                 1069200300002 
REACTION   (82-PB-208(N,X)0-G-0,PAR,DA)                           1069200300003 
SAMPLE     Metallic lead cylinder, enriched to >99% 208Pb.        1069200300004 
FLAG       (1.) Peak is wide and may be due to more than one      1069200300005 
           gamma ray.                                             1069200300006 
STATUS     (TABLE) Data taken from Table I in reference.          1069200300007 
HISTORY    (19831229A) Data heading corrected.                    1069200300008 
ENDBIB               6          0                                 1069200300009 
COMMON               3          3                                 1069200300010 
ANG        EN         EN-RSL                                      1069200300011 
ADEG       MEV        MEV                                         1069200300012 
 55.        5.4        0.2                                        1069200300013 
ENDCOMMON            3          0                                 1069200300014 
DATA                 4         34                                 1069200300015 
E          DATA       DATA-ERR   FLAG                             1069200300016 
KEV        MB/SR      MB/SR      NO-DIM                           1069200300017 
  553.       1.1        0.6       1.                              1069200300018 
  582.9     80.        10.                                        1069200300019 
  721.9      1.9        0.5                                       1069200300020 
  748.5      4.6        0.7                                       1069200300021 
  762.6      5.4        0.8                                       1069200300022 
  770.       0.63       0.37                                      1069200300023 
  786.8      0.90       0.42                                      1069200300024 
  798.0      1.33       0.37                                      1069200300025 
  821.6      0.81       0.40                                      1069200300026 
  860.5     14.4        1.9                                       1069200300027 
  883.4      3.1        0.5                                       1069200300028 
  927.4      3.9        0.6                                       1069200300029 
  982.3      5.5        0.8                                       1069200300030 
 1008.       2.0        0.5       1.                              1069200300031 
 1093.3      1.24       0.55                                      1069200300032 
 1125.8      4.9        0.7                                       1069200300033 
 1184.7      1.4        0.5                                       1069200300034 
 1225.       3.5        0.7       1.                              1069200300035 
 1284.       2.1        0.5                                       1069200300036 
 1380.1      5.3        0.8                                       1069200300037 
 1412.4      0.78       0.38                                      1069200300038 
 1436.0      7.2        0.9                                       1069200300039 
 1614.8      5.6        0.8                                       1069200300040 
 1639.       8.7        1.1       1.                              1069200300041 
 1647.9      2.2        0.4                                       1069200300042 
 1777.       1.0        0.5       1.                              1069200300043 
 2321.5      2.0        0.5                                       1069200300044 
 2422.5      0.66       0.31                                      1069200300045 
 2511.       0.74       0.34                                      1069200300046 
 2614.5    170.        21.                                        1069200300047 
 2627.       0.50       0.25      1.                              1069200300048 
 4084.7      6.1        1.5                                       1069200300049 
 4229.3      1.51       0.39                                      1069200300050 
 4841.       1.74       0.44                                      1069200300051 
ENDDATA             36          0                                 1069200300052 
ENDSUBENT           51          0                                 1069200399999 
SUBENT        10692004   20080929                             13501069200400001 
BIB                  6         11                                 1069200400002 
REACTION   (83-BI-209(N,X)0-G-0,PAR,DA)                           1069200400003 
SAMPLE     44.7 g bismuth cylinder.                               1069200400004 
ERR-ANALYS Gamma energy resolution = 0.5+-(0.0008*gamma energy)   1069200400005 
FLAG       (1.) Uncertain gamma-ray energy assignment             1069200400006 
           (2.) Gamma energy coincident with background radiation 1069200400007 
                or escape peaks                                   1069200400008 
           (3.) Incompletely resolved                             1069200400009 
           (4.) Peak is wide, may be due to more than one         1069200400010 
                transition                                        1069200400011 
STATUS     (TABLE) Data taken from Table II in reference.         1069200400012 
HISTORY    (19831229A) Data heading corrected.                    1069200400013 
ENDBIB              11          0                                 1069200400014 
COMMON               3          3                                 1069200400015 
ANG        EN         EN-RSL                                      1069200400016 
ADEG       MEV        MEV                                         1069200400017 
 55.        5.4        0.2                                        1069200400018 
ENDCOMMON            3          0                                 1069200400019 
DATA                 4         53                                 1069200400020 
E          DATA       DATA-ERR   FLAG                             1069200400021 
KEV        MB/SR      MB/SR      NO-DIM                           1069200400022 
  413.0      1.77       0.65                                      1069200400023 
  607.5      1.3        0.6       2.                              1069200400024 
  896.6     43.8        6.6                                       1069200400025 
 1132.5      9.7        1.5                                       1069200400026 
 1523.5      3.4        0.9       3.                              1069200400027 
 1526.0      6.7        1.3       3.                              1069200400028 
 1546.0      5.5        0.9                                       1069200400029 
 1558.       5.0        0.9       4.                              1069200400030 
 1609.0     69.3        9.9                                       1069200400031 
 1644.0      1.0        0.4       1.                              1069200400032 
 1687.0      2.46       0.44                                      1069200400033 
 1722.       2.5        0.7       2.                              1069200400034 
 1786.       1.0        0.4       1.                              1069200400035 
 1798.       1.0        0.4       1.                              1069200400036 
 2143.       1.3        0.6                                       1069200400037 
 2417.       1.0        0.4                                       1069200400038 
 2493.5     14.6        2.2                                       1069200400039 
 2557.       1.1        0.4       1.                              1069200400040 
 2565.       4.2        0.9       4.                              1069200400041 
 2585.       2.4        1.3       4.                              1069200400042 
 2602.       8.5        1.7       2.                              1069200400043 
 2619.       0.7        0.3       1.                              1069200400044 
 2678.       1.4        0.8       1.                              1069200400045 
 2741.5     14.6        2.2                                       1069200400046 
 2828.       3.14       0.59                                      1069200400047 
 2907.       1.18       0.59                                      1069200400048 
 2986.       2.09       0.81                                      1069200400049 
 3091.5      3.90       0.73                                      1069200400050 
 3135.       3.67       0.72                                      1069200400051 
 3155.       2.96       0.68                                      1069200400052 
 3207.       1.7        0.9                                       1069200400053 
 3264.       1.6        0.9       1.                              1069200400054 
 3314.       1.1        0.5       1.                              1069200400055 
 3331.       2.2        0.9       4.                              1069200400056 
 3380.       2.5        0.9       4.                              1069200400057 
 3465.       1.6        0.9       2.                              1069200400058 
 3474.       0.7        0.5       1.                              1069200400059 
 3556.       1.18       0.53                                      1069200400060 
 3604.5      2.2        1.5       2.                              1069200400061 
 3694.       1.54       0.34      3.                              1069200400062 
 3704.       1.58       0.36      3.                              1069200400063 
 3984.       1.74       0.38                                      1069200400064 
 4096.       1.65       0.68      4.                              1069200400065 
 4154.       1.73       0.85      3.                              1069200400066 
 4166.       1.73       0.85      3.                              1069200400067 
 4288.       0.75       0.38                                      1069200400068 
 4352.       0.80       0.36                                      1069200400069 
 4452.       1.30       0.54      3.                              1069200400070 
 4470.       1.08       0.54      3.                              1069200400071 
 4505.       0.84       0.34                                      1069200400072 
 4525.       0.75       0.36                                      1069200400073 
 4547.       0.45       0.28                                      1069200400074 
 4805.       0.6        0.3       2.                              1069200400075 
ENDDATA             55          0                                 1069200400076 
ENDSUBENT           75          0                                 1069200499999 
SUBENT        10692005   20080929                             13501069200500001 
BIB                  4          7                                 1069200500002 
REACTION   (82-PB-208(N,INL)82-PB-208,,SIG)                       1069200500003 
SAMPLE     Metallic lead cylinder, enriched to >99% 208Pb.        1069200500004 
STATUS     (DEP,10692002)                                         1069200500005 
           (DEP,10692003)                                         1069200500006 
           (TABLE) Data taken from Table III in reference.        1069200500007 
HISTORY    (19781009C)                                            1069200500008 
           (19790515A) REACTION corrected                         1069200500009 
ENDBIB               7          0                                 1069200500010 
NOCOMMON             0          0                                 1069200500011 
DATA                 2          5                                 1069200500012 
EN         DATA                                                   1069200500013 
MEV        B                                                      1069200500014 
 5.0        2.56                                                  1069200500015 
 5.5        2.55                                                  1069200500016 
 6.0        2.52                                                  1069200500017 
 7.0        2.68                                                  1069200500018 
 8.0        2.52                                                  1069200500019 
ENDDATA              7          0                                 1069200500020 
ENDSUBENT           19          0                                 1069200599999 
ENDENTRY             5          0                                 1069299999999 
