ENTRY            10738   20110731                             13741073800000001 
SUBENT        10738001   20110731                             13741073800100001 
BIB                  9         25                                 1073800100002 
INSTITUTE  (1USABNL,1USASTB,2FR ILL)                              1073800100003 
REFERENCE  (J,PR/C,21,65,198001)                                  1073800100004 
           (C,72BUD,,216(D3),197208)                              1073800100005 
AUTHOR     (R.F.Casten,G.J.Smith,M.R.Macphail,D.Breitig,W.R.Kane, 1073800100006 
           M.L.Stelts,S.F.Mughabghab,J.A.Cizewski,                1073800100007 
           H.G.Boerner,W.F.Davidson,K.Schreckenbach)              1073800100008 
TITLE      109Pd: Difficulties in particle-rotor models for       1073800100009 
            unique-parity states and revision of spectroscopic    1073800100010 
            factors.                                              1073800100011 
METHOD     (COINC) Gamma-ray angular distribution                 1073800100012 
ANALYSIS   Spin determined from resonance neutron capture gamma   1073800100013 
           ray measurement                                        1073800100014 
STATUS     (APRVD) Approved by S.F.Mughabghab, 1978/6/30.         1073800100015 
ADD-RES    Results of the average resonance capture experiments   1073800100016 
           are presented at 2 and 24 keV. Data are given as       1073800100017 
           relative reduced intensities.                          1073800100018 
HISTORY    (19780609C)                                            1073800100019 
           (19800310A) BIB corrections.                           1073800100020 
           (20101107A) VM:Updated to new date formats,lower case. 1073800100021 
                       Subentries 3-7 added.                      1073800100022 
           (20110731A) SD: FACILITY deleted from Subent 001,      1073800100023 
            it is described in Subents 003-007.BIB updated.       1073800100024 
            Subent 007 deleted (data are the same as in given 006 1073800100025 
            with flag=1.). Subent 008 added; Subent 002 deleted - 1073800100026 
            contained ENSDF information.                          1073800100027 
ENDBIB              25          0                                 1073800100028 
NOCOMMON             0          0                                 1073800100029 
ENDSUBENT           28          0                                 1073800199999 
NOSUBENT      10738002   20110731                             13741073800200001 
SUBENT        10738003   20110731                             13741073800300001 
BIB                 14         42                                 1073800300002 
REACTION   (46-PD-108(N,G)46-PD-109,,SPC)                         1073800300003 
               Absolute intensities at 90. degr. in the           1073800300004 
                                               compact geometry   1073800300005 
             (primary gamma-ray transitions)                      1073800300006 
FACILITY   (REAC,1USABNL) High Flux Beam Reactor neutron          1073800300007 
            monochromator facility.                               1073800300008 
REL-REF    (I,,W.R.Kane+,C,69STUDSVIK,,105,1969) - Description of 1073800300009 
           HFBR                                                   1073800300010 
METHOD     (EXTB,FNB) The HFBR neutron monochromator facility     1073800300011 
           provided the resonance energy neutrons via Bragg       1073800300012 
           diffraction from a large Be crystal.                   1073800300013 
DETECTOR   (GELI) Germanium-lithium detectors of various sizes;   1073800300014 
           typical resolutions were 7 keV at 6 MeV.               1073800300015 
           (SPEC) Three crystal pair spectrometer for additional  1073800300016 
                  experiment (see ANALYSIS)                       1073800300017 
SAMPLE     The target consisted of 5.52 grams enriched to 98.11%  1073800300018 
           in 108Pd and formed into a rectangle approximately     1073800300019 
                                             2.54 cm x 2.86 cm.   1073800300020 
           For additional experiment a target of 7.7 g enriched to1073800300021 
           98.11% in 108Pd was used (see ANALYSIS).               1073800300022 
INC-SPECT  The thermal flux on target was approximately           1073800300023 
                                  7 x 10**7(n/cm2)/sec.           1073800300024 
DECAY-MON  (46-PD-109-G,13.46HR,DG,309.1,0.000049,                1073800300025 
                           DG,311.4,0.000319,DG,647.3,0.000244)   1073800300026 
MONITOR     * To determine the absolute intensities of primary    1073800300027 
           gamma-rays, measurements of known decay gamma-rays were1073800300028 
           performed after the neutron irradiations. For the 109Pd1073800300029 
           case, it was considered the 309.1. 311.4, and 647.3 keV1073800300030 
           decay gamma-rays (HL= 13.46 h), whose intensities are  1073800300031 
           4.9, 31.9, and 24.4 gamma-rays/10000 109Pd decays.     1073800300032 
MONIT-REF  (,F.E.Bertrand+,J,NDS,23,229,1978) - decay data        1073800300033 
            used for normalization                                1073800300034 
ANALYSIS    * To verify several weak E2 primary transitions       1073800300035 
           following thermal capture, a separate study of primary 1073800300036 
           transitions employing a three crystal pair spectrometer1073800300037 
           was performed on a K filtered beam line.               1073800300038 
ERR-ANALYS (DATA-ERR) Relative uncertainties.                     1073800300039 
           (ERR-1) Uncertainty in absolute intensity scale is     1073800300040 
                      given only for one energy                   1073800300041 
STATUS     (TABLE) Data taken from Table III in PR/C,21,65,1980.  1073800300042 
HISTORY    (20101112C) Compiled by S.H.                           1073800300043 
           (20110731A) SD: MONIT deleted. BIB updated.            1073800300044 
ENDBIB              42          0                                 1073800300045 
COMMON               1          3                                 1073800300046 
EN                                                                1073800300047 
EV                                                                1073800300048 
 2.96                                                             1073800300049 
ENDCOMMON            3          0                                 1073800300050 
DATA                 5         28                                 1073800300051 
E          E-ERR      DATA       DATA-ERR   ERR-1                 1073800300052 
KEV        KEV        PC/REAC    PC/REAC    PER-CENT              1073800300053 
6154.0      4.0        0.06       0.02                            1073800300054 
6040.5      1.5        3.36                    24.                1073800300055 
5862.7      1.5        0.75       0.08                            1073800300056 
5827.2      1.5        0.65       0.07                            1073800300057 
5815.0      1.5        0.21       0.02                            1073800300058 
5720.3      1.5        0.47       0.05                            1073800300059 
5662.3      1.5        0.44       0.05                            1073800300060 
5612.6      1.5        0.17       0.04                            1073800300061 
5530.0      3.0        1.28       0.13                            1073800300062 
5508.0      1.5        0.10       0.04                            1073800300063 
5480.6      1.5        0.47       0.06                            1073800300064 
5362.6      1.5        1.31       0.13                            1073800300065 
5307.0      4.0        0.13       0.06                            1073800300066 
5242.7      1.5        2.82       0.23                            1073800300067 
5209.1      1.5        1.61       0.16                            1073800300068 
5199.7      1.5        1.78       0.18                            1073800300069 
5172.2      1.5        2.95       0.28                            1073800300070 
5100.0      1.5        0.91       0.013                           1073800300071 
5063.0      1.5        1.57       0.013                           1073800300072 
4884.2      1.5        0.51       0.06                            1073800300073 
4825.6      1.5        0.44       0.05                            1073800300074 
4795.5      1.5        0.44       0.013                           1073800300075 
4782.9      1.5        0.72       0.06                            1073800300076 
4754.8      1.5        0.06       0.02                            1073800300077 
4676.4      1.5        0.51       0.05                            1073800300078 
4613.7      1.5        1.21       0.01                            1073800300079 
4530.1      1.5        0.91       0.01                            1073800300080 
4506.2      1.5        0.63       0.01                            1073800300081 
ENDDATA             30          0                                 1073800300082 
ENDSUBENT           81          0                                 1073800399999 
SUBENT        10738004   20110731                             13741073800400001 
BIB                  9         23                                 1073800400002 
REACTION   ((46-PD-108(N,G)46-PD-109,PAR,DA)//                    1073800400003 
           (46-PD-108(N,G)46-PD-109,PAR,DA))                      1073800400004 
            Quantity gives the fully corrected ratio of primary   1073800400005 
            intensities obtained from the runs at 90. and         1073800400006 
            135. degr. with Ge(Li) counter more distant from the  1073800400007 
            target.                                               1073800400008 
             (primary gamma-ray transitions)                      1073800400009 
FACILITY   (REAC,1USABNL) High Flux Beam Reactor neutron          1073800400010 
            monochromator facility.                               1073800400011 
METHOD     (EXTB,FNB) The HFBR neutron monochromator facility     1073800400012 
           provided the resonance energy neutrons via Bragg       1073800400013 
           diffraction from a large Be crystal.                   1073800400014 
SAMPLE     The target consisted of 5.52 grams enriched to 98.11%  1073800400015 
           in 108Pd and formed into a rectangle approximately     1073800400016 
                                             2.54 cm x 2.86 cm.   1073800400017 
INC-SPECT  The thermal flux on target was approximately 7 x       1073800400018 
           10**7(n/cm2)/sec.                                      1073800400019 
DETECTOR   (GELI) Germanium-lithium detectors of various sizes;   1073800400020 
           typical resolutions were 7 keV at 6 MeV.               1073800400021 
ERR-ANALYS (DATA-ERR) Relative uncertainties.                     1073800400022 
STATUS     (TABLE) Data taken from Table III in PR/C,21,65,1980.  1073800400023 
HISTORY    (20101112C) Compiled by S.H.                           1073800400024 
           (20110731A) SD: BIB updated.                           1073800400025 
ENDBIB              23          0                                 1073800400026 
COMMON               3          3                                 1073800400027 
EN         ANG-NM     ANG-DN                                      1073800400028 
EV         ADEG       ADEG                                        1073800400029 
 2.96        90.0       135.0                                     1073800400030 
ENDCOMMON            3          0                                 1073800400031 
DATA                 4         15                                 1073800400032 
E          E-ERR      DATA       DATA-ERR                         1073800400033 
KEV        KEV        NO-DIM     NO-DIM                           1073800400034 
6040.5      1.5        1.42       0.06                            1073800400035 
5862.7      1.5        0.73       0.07                            1073800400036 
5827.2      1.5        0.81       0.20                            1073800400037 
5720.3      1.5        0.80       0.15                            1073800400038 
5530.0      3.0        0.87       0.09                            1073800400039 
5362.6      1.5        1.04       0.07                            1073800400040 
5242.7      1.5        1.08       0.04                            1073800400041 
5209.1      1.5        0.77       0.06                            1073800400042 
5199.7      1.5        1.19       0.08                            1073800400043 
5172.2      1.5        1.09       0.06                            1073800400044 
5100.0      1.5        0.99       0.20                            1073800400045 
5063.0      1.5        1.00       0.05                            1073800400046 
4825.6      1.5        0.43       0.25                            1073800400047 
4782.9      1.5        1.03       0.15                            1073800400048 
4613.7      1.5        0.82       0.07                            1073800400049 
ENDDATA             17          0                                 1073800400050 
ENDSUBENT           49          0                                 1073800499999 
SUBENT        10738005   20110731                             13741073800500001 
BIB                 15         53                                 1073800500002 
REACTION   (46-PD-108(N,G)46-PD-109,,SPC)                         1073800500003 
             (primary gamma-ray transitions)                      1073800500004 
FACILITY   (REAC,1USABNL) High Flux Beam Reactor neutron          1073800500005 
            monochromator facility.                               1073800500006 
REL-REF    (I,,W.R.Kane+,C,69STUDSVIK,,105,1969) - Description of 1073800500007 
                                                     HFBR         1073800500008 
           (D,,N.C.Rasmussen+,J,ND/B,3,626,1967) -                1073800500009 
            For thermal capture, the absolute intensity of the    1073800500010 
            strongest primary gamma-ray in 109Pd (Eg=4794.0 keV)  1073800500011 
            was determined to be 68.3 +- 7.8 photons/1000 neutron 1073800500012 
            captures, which is in disagrement with value of       1073800500013 
            30.0 photons/1000 neutron captures derived from       1073800500014 
            measurements of Rasmussen+ based on thermal capture   1073800500015 
            cross section of 6.1 +-0.4 and 8.3 +-0.8 b (from      1073800500016 
            private comm. with J.E.Rambak and E.Steinnes)         1073800500017 
            respectively, for Pd and 108Pd.                       1073800500018 
DECAY-MON  (46-PD-109-G,13.46HR,DG,309.1,0.000049,                1073800500019 
                           DG,311.4,0.000319,DG,647.3,0.000244)   1073800500020 
MONITOR     * To determine the absolute intensities of primary    1073800500021 
           gamma-rays, measurements of known decay gamma-rays were1073800500022 
           performed after the neutron irradiations. For the 109Pd1073800500023 
           case, it was considered the 309.1. 311.4, and 647.3 keV1073800500024 
           decay gamma-rays (HL= 13.46 h), whose intensities are  1073800500025 
           4.9, 31.9, and 24.4 gamma-rays/10000 109Pd decays.     1073800500026 
MONIT-REF  (,F.E.Bertrand+,J,NDS,23,229,1978) - decay data        1073800500027 
            used for normalization                                1073800500028 
METHOD     (EXTB,FNB) The HFBR neutron monochromator facility     1073800500029 
           provided the resonance energy neutrons via Bragg       1073800500030 
           diffraction from a large Be crystal.                   1073800500031 
DETECTOR   (GELI) Germanium-lithium detectors of various sizes;   1073800500032 
           typical resolutions were 7 keV at 6 MeV.               1073800500033 
           (SPEC) Three crystal pair spectrometer for additional  1073800500034 
                  experiment                                      1073800500035 
SAMPLE     The target consisted of 5.52 grams enriched to 98.11%  1073800500036 
           in 108Pd and formed into a rectangle approximately     1073800500037 
                                             2.54 cm x 2.86 cm.   1073800500038 
           For additional experiment a target of 7.7 g enriched to1073800500039 
           98.11% in 108Pd was used (see ANALYSIS).               1073800500040 
INC-SPECT  The thermal flux on target was approximately           1073800500041 
                                      7 x 10**7 (n/cm2)/sec.      1073800500042 
FLAG       (1.) Observed only in the thermal measurement with     1073800500043 
                the three crystal spectrometer; below sensitivity 1073800500044 
                limit in the other thermal measurement            1073800500045 
ANALYSIS    * To verify several weak E2 primary transitions       1073800500046 
           following thermal capture, a separate study of primary 1073800500047 
           transitions employing a three crystal pair spectrometer1073800500048 
           was performed on a K filtered beam line.               1073800500049 
ERR-ANALYS (DATA-ERR) Relative uncertainties.                     1073800500050 
           (ERR-1) uncertainty in absolute intensity scale is     1073800500051 
                      given only for one energy                   1073800500052 
STATUS     (TABLE) Data taken from Table IV in PR/C,21,65,1980.   1073800500053 
HISTORY    (20101112C) Compiled by S.H.                           1073800500054 
           (20110731A) SD: MONIT deleted. BIB updated.            1073800500055 
ENDBIB              53          0                                 1073800500056 
COMMON               1          3                                 1073800500057 
EN                                                                1073800500058 
EV                                                                1073800500059 
 0.0253                                                           1073800500060 
ENDCOMMON            3          0                                 1073800500061 
DATA                 6         28                                 1073800500062 
E          E-ERR      DATA       DATA-ERR   ERR-1      FLAG       1073800500063 
KEV        KEV        PC/REAC    PC/REAC    PER-CENT   NO-DIM     1073800500064 
  6152.9    0.8        0.11       0.02                            1073800500065 
  5887.5    0.8        0.75       0.14                            1073800500066 
  5828.6    0.8        1.91       0.20                            1073800500067 
  5720.3    0.8        2.12       0.20                            1073800500068 
  5661.9    0.8        0.18       0.13                            1073800500069 
  5612.9    0.8        0.09       0.04                            1073800500070 
  5480.3    0.8        1.29       0.14                            1073800500071 
  5431.7    0.8        1.17       0.14                            1073800500072 
  5211.8    0.8        2.74       0.28                            1073800500073 
  5171.6    0.8        0.30       0.12                            1073800500074 
  5099.7    0.8        0.75       0.06                            1073800500075 
  5041.6    0.8        0.25       0.11                            1073800500076 
  5018.9    0.8        0.58       0.06                            1073800500077 
  5006.1    0.8        0.64       0.06                            1073800500078 
  4920.3    0.8        1.78       0.20                            1073800500079 
  4909.5    0.8        0.43       0.15                            1073800500080 
  4885.3    1.1        0.07       0.04                    1.      1073800500081 
  4794.0    0.8        6.82                    12.                1073800500082 
  4775.7    0.8        1.17       0.42                            1073800500083 
  4755.4    0.8        1.57       0.41                            1073800500084 
  4674.1    0.8        0.66       0.15                            1073800500085 
  4668.5    0.8        0.21       0.04                    1.      1073800500086 
  4616.5    0.8        0.51       0.25                            1073800500087 
  4552.1    0.8        0.60       0.15                            1073800500088 
  4538.0    0.8        0.65       0.19                            1073800500089 
  4509.2    0.8        1.09       0.41                            1073800500090 
  4469.9    0.8        0.42       0.17                            1073800500091 
  4443.7    0.8        0.75       0.28                            1073800500092 
ENDDATA             30          0                                 1073800500093 
ENDSUBENT           92          0                                 1073800599999 
SUBENT        10738006   20110731                             13741073800600001 
BIB                 11         47                                 1073800600002 
REACTION   (46-PD-108(N,G)46-PD-109,,SPC)                         1073800600003 
             (secondary gamma-ray transitions)                    1073800600004 
FACILITY   (REAC,1USABNL) High Flux Beam Reactor neutron          1073800600005 
            monochromator facility.                               1073800600006 
           (REAC,2FR ILL) High Flux Beam Reactor                  1073800600007 
INC-SPECT  At BNL the thermal flux on target was approximately    1073800600008 
                                  7 x 10**7(n/cm2)/sec.           1073800600009 
           At ILL the thermal flux on target was                  1073800600010 
                                          5.5 x 10**14 n/cm2/sec  1073800600011 
SAMPLE     At BNL the target consisted of 5.52 grams enriched to  1073800600012 
           98.11% in 108Pd and formed into a rectangle            1073800600013 
                        approximately 2.54 cm x 2.86 cm.          1073800600014 
           At ILL the target was an in-pile laminar sample of     1073800600015 
           ~70 mg of enriched 108Pd                               1073800600016 
REL-REF    (I,,H.Boerner+,C,74PETTEN,,691,1974) -                 1073800600017 
                                           description of GAMS    1073800600018 
MONITOR    The GAMS data were energy calibrated internally by     1073800600019 
           demanding that a line have the same energy in all      1073800600020 
           orders of reflection in which it is observed. Absolute 1073800600021 
           energy calibration is performed by reference to the    1073800600022 
           88.034 keV 109Ag line.                                 1073800600023 
           Since the GAMS target is viewed end on by the          1073800600024 
           spectrometers, the self-absorption corrections can be  1073800600025 
           large. For this reason the adopted intensities for the 1073800600026 
           low energy gamma-rays were obtained by plotting the    1073800600027 
           ratio of Ge(Li) intensities to those measured by the   1073800600028 
           GAMS spectrometers, and by using the values for strong 1073800600029 
           transitions to define a relative effective GAMS        1073800600030 
           efficiency curve (including automatically the          1073800600031 
           self-absorption correction) and by using this curve to 1073800600032 
           normalize all GAMS intensities to the Ge(Li) intensity 1073800600033 
           scale.                                                 1073800600034 
           The observed gamma-ray energies are obtained from the  1073800600035 
           curved-crystal spectrometer experiments.               1073800600036 
MONIT-REF  (,R.G.Helmer+,J,NIM,155,189,1975) - reference to the   1073800600037 
                                      88.034 keV 109Ag line.      1073800600038 
DETECTOR   (GELI) Germanium-lithium detector, yields determined   1073800600039 
                  using Ge(Li) detector at BNL                    1073800600040 
           (SPEC)  extremely high energy precision (typically     1073800600041 
            2-25eV) and resolution GAMS1 and GAMS2/3 curved       1073800600042 
            crystal spectrometers at ILL                          1073800600043 
ERR-ANALYS (DATA-ERR) Relative uncertainties.                     1073800600044 
           (ERR-1) Absolute intensity scale uncertainty           1073800600045 
STATUS     (TABLE) Data taken from Table V in PR/C,21,65,1980.    1073800600046 
HISTORY    (20101112C) Compiled by S.H.                           1073800600047 
           (20110731A) SD: MONIT deleted. BIB updated. A few      1073800600048 
           values in DATA and DATA-ERR corrected.                 1073800600049 
ENDBIB              47          0                                 1073800600050 
COMMON               2          3                                 1073800600051 
EN-DUMMY   ERR-1                                                  1073800600052 
EV         PER-CENT                                               1073800600053 
 0.0253      15.                                                  1073800600054 
ENDCOMMON            3          0                                 1073800600055 
DATA                 4        143                                 1073800600056 
E          E-ERR      DATA       DATA-ERR                         1073800600057 
KEV        KEV        PC/REAC    PC/REAC                          1073800600058 
     94.450      0.001       3.47       0.35                      1073800600059 
     98.258      0.003       1.65       0.17                      1073800600060 
    106.694      0.003       0.10       0.02                      1073800600061 
    108.280      0.001       0.49       0.06                      1073800600062 
    113.401      0.002       29.7        3.0                      1073800600063 
    149.854      0.003       0.10       0.01                      1073800600064 
    152.942      0.001       9.52       0.95                      1073800600065 
    166.306      0.004       0.22       0.04                      1073800600066 
    170.561      0.001       0.24       0.02                      1073800600067 
    178.034      0.001       7.20       0.72                      1073800600068 
    187.115      0.004       0.10       0.01                      1073800600069 
    188.990      0.001       1.65       0.17                      1073800600070 
    189.920      0.003       0.28       0.04                      1073800600071 
    197.333      0.008       0.06       0.01                      1073800600072 
    200.153      0.004       1.20       0.12                      1073800600073 
    202.971      0.013       0.03       0.01                      1073800600074 
    207.697      0.003       0.03       0.01                      1073800600075 
    211.884      0.003       3.36       0.34                      1073800600076 
    213.806      0.004       0.18       0.03                      1073800600077 
    215.390      0.002       0.67       0.07                      1073800600078 
    216.487      0.009       0.05       0.01                      1073800600079 
    222.922      0.006       0.06       0.01                      1073800600080 
    224.717      0.007       0.06       0.01                      1073800600081 
    228.194      0.004       0.07       0.01                      1073800600082 
    230.453      0.002       0.28       0.03                      1073800600083 
    245.080      0.002       15.4        1.5                      1073800600084 
    249.238      0.011       1.94       0.19                      1073800600085 
    263.403      0.006       0.20       0.04                      1073800600086 
    264.378      0.011       0.14       0.04                      1073800600087 
    264.980      0.003       1.34       0.13                      1073800600088 
    266.346      0.003       2.75       0.28                      1073800600089 
    267.610      0.005       0.22       0.04                      1073800600090 
    274.328      0.007       0.06       0.01                      1073800600091 
    276.296      0.005       3.26       0.33                      1073800600092 
    288.480      0.005       0.22       0.03                      1073800600093 
    291.430      0.004       6.03       0.60                      1073800600094 
    295.597      0.003       0.14       0.03                      1073800600095 
    298.197      0.005       1.26       0.13                      1073800600096 
    299.119      0.005       0.19       0.03                      1073800600097 
    317.255      0.006       0.18       0.04                      1073800600098 
    320.164      0.005       2.78       0.28                      1073800600099 
    321.082      0.015       0.09       0.05                      1073800600100 
    325.284      0.004      12.20       0.12                      1073800600101 
    326.868      0.004       4.89       0.49                      1073800600102 
    332.050      0.005       0.32       0.06                      1073800600103 
    333.964      0.003       6.41       0.64                      1073800600104 
    336.584      0.003       2.10       0.21                      1073800600105 
    337.828      0.005       0.12       0.03                      1073800600106 
    339.528      0.004      11.40       0.11                      1073800600107 
    343.869      0.009       0.19       0.04                      1073800600108 
    346.622      0.006       0.06       0.01                      1073800600109 
    347.192      0.006       0.18       0.03                      1073800600110 
    355.694      0.006       0.15       0.05                      1073800600111 
    357.148      0.009       0.06       0.01                      1073800600112 
    358.697      0.010       0.85       0.11                      1073800600113 
    359.426      0.006       6.87       0.69                      1073800600114 
    365.295      0.007       0.06       0.03                      1073800600115 
    371.125      0.010       0.24       0.04                      1073800600116 
    377.004      0.013       0.18       0.03                      1073800600117 
    378.191      0.005       2.43       0.24                      1073800600118 
    386.752      0.040       0.11       0.03                      1073800600119 
    392.395      0.025       0.04       0.01                      1073800600120 
    395.171      0.017       0.29       0.04                      1073800600121 
    396.758      0.011       1.02       0.10                      1073800600122 
    407.124      0.010       0.15       0.04                      1073800600123 
    414.342      0.007       0.60       0.06                      1073800600124 
    416.738      0.020       0.04       0.01                      1073800600125 
    418.298      0.007       0.18       0.03                      1073800600126 
    421.049      0.011       0.15       0.03                      1073800600127 
    426.135      0.004       1.17       0.12                      1073800600128 
    428.396      0.003       1.90       0.19                      1073800600129 
    433.552      0.004       5.89       0.59                      1073800600130 
    436.185      0.011       0.06       0.01                      1073800600131 
    438.160      0.012       0.14       0.03                      1073800600132 
    441.839      0.009       0.23       0.05                      1073800600133 
    452.524      0.016       0.08       0.01                      1073800600134 
    455.702      0.005       0.77       0.08                      1073800600135 
    461.194      0.007       1.31       0.13                      1073800600136 
    464.541      0.009       0.16       0.03                      1073800600137 
    466.511      0.010       0.22       0.05                      1073800600138 
    467.333      0.012       0.10       0.05                      1073800600139 
    485.311      0.007       0.51       0.06                      1073800600140 
    491.575      0.010       0.96       0.10                      1073800600141 
    515.128      0.013       0.57       0.08                      1073800600142 
    520.597      0.010       0.43       0.06                      1073800600143 
    525.078      0.016       0.14       0.03                      1073800600144 
    526.411      0.021       0.05       0.01                      1073800600145 
    530.202      0.010       0.26       0.04                      1073800600146 
    539.345      0.031       0.06       0.03                      1073800600147 
    540.697      0.010       0.31       0.07                      1073800600148 
    554.589      0.044       0.08       0.03                      1073800600149 
    555.614      0.013       0.18       0.03                      1073800600150 
    566.672      0.020       0.04       0.03                      1073800600151 
    579.896      0.030       0.08       0.03                      1073800600152 
    584.505      0.051       0.05       0.02                      1073800600153 
    585.908      0.015       0.15       0.03                      1073800600154 
    601.575      0.006       1.56       0.18                      1073800600155 
    604.530      0.006       0.55       0.07                      1073800600156 
    608.672      0.009       0.18       0.04                      1073800600157 
    612.047      0.012       0.21       0.04                      1073800600158 
    619.939      0.028       0.54       0.09                      1073800600159 
    620.441      0.016       0.52       0.08                      1073800600160 
    623.468      0.016       0.62       0.10                      1073800600161 
    628.887      0.018       0.27       0.04                      1073800600162 
    632.363      0.018       0.16       0.03                      1073800600163 
    634.907      0.023       0.29       0.05                      1073800600164 
    645.963      0.044       0.08       0.03                      1073800600165 
    649.650      0.029       0.05       0.02                      1073800600166 
    653.504      0.036       0.08       0.03                      1073800600167 
    654.892      0.016       0.19       0.04                      1073800600168 
    655.501      0.016       0.31       0.05                      1073800600169 
    657.569      0.029       0.44       0.05                      1073800600170 
    660.128      0.031       0.06       0.03                      1073800600171 
    670.089      0.058       0.07       0.04                      1073800600172 
    673.607      0.040       0.10       0.03                      1073800600173 
    674.725      0.030       0.30       0.04                      1073800600174 
    678.040      0.035       0.16       0.03                      1073800600175 
    678.673      0.041       0.12       0.03                      1073800600176 
    680.968      0.033       0.18       0.03                      1073800600177 
    685.909      0.024       2.28       0.23                      1073800600178 
    690.300      0.026       0.44       0.05                      1073800600179 
    695.949      0.032       0.22       0.03                      1073800600180 
    705.433      0.047       0.08       0.03                      1073800600181 
    711.400      0.056       0.13       0.04                      1073800600182 
    713.389      0.020       0.38       0.05                      1073800600183 
    722.025      0.027       1.40       0.14                      1073800600184 
    726.740      0.024       0.55       0.06                      1073800600185 
    754.908      0.022       2.67       0.27                      1073800600186 
    772.096      0.020       0.44       0.06                      1073800600187 
    787.314      0.034       0.23       0.05                      1073800600188 
    791.429      0.031       0.35       0.05                      1073800600189 
    793.570      0.023       0.34       0.05                      1073800600190 
    799.265      0.051       0.51       0.06                      1073800600191 
    810.547      0.013       1.45       0.22                      1073800600192 
    815.228      0.024       0.36       0.08                      1073800600193 
    820.242      0.025       0.33       0.07                      1073800600194 
    831.571      0.015       1.17       0.18                      1073800600195 
    840.759      0.027       0.46       0.14                      1073800600196 
    846.328      0.013       1.11       0.28                      1073800600197 
    902.981      0.038       0.34       0.05                      1073800600198 
    911.283      0.024       0.40       0.07                      1073800600199 
    966.439      0.024       0.78       0.08                      1073800600200 
   1019.868      0.027       1.25       0.13                      1073800600201 
ENDDATA            145          0                                 1073800600202 
ENDSUBENT          201          0                                 1073800699999 
NOSUBENT      10738007   20110731                             13741073800700001 
SUBENT        10738008   20110731                             13741073800800001 
BIB                 11         45                                 1073800800002 
REACTION   (46-PD-108(N,G)46-PD-109,,SPC)                         1073800800003 
             (secondary gamma-ray transitions)                    1073800800004 
FACILITY   (REAC,1USABNL) High Flux Beam Reactor neutron          1073800800005 
            monochromator facility.                               1073800800006 
           (REAC,2FR ILL) High Flux Beam Reactor                  1073800800007 
INC-SPECT  At BNL the thermal flux on target was approximately    1073800800008 
                                  7 x 10**7(n/cm2)/sec.           1073800800009 
           At ILL the thermal flux on target was                  1073800800010 
                                          5.5 x 10**14 n/cm2/sec  1073800800011 
SAMPLE     At BNL the target consisted of 5.52 grams enriched to  1073800800012 
           98.11% in 108Pd and formed into a rectangle            1073800800013 
                        approximately 2.54 cm x 2.86 cm.          1073800800014 
           At ILL the target was an in-pile laminar sample of     1073800800015 
           ~70 mg of enriched 108Pd                               1073800800016 
REL-REF    (I,,H.Boerner+,C,74PETTEN,,691,1974) -                 1073800800017 
                                           description of GAMS    1073800800018 
MONITOR    The GAMS data were energy calibrated internally by     1073800800019 
           demanding that a line have the same energy in all      1073800800020 
           orders of reflection in which it is observed. Absolute 1073800800021 
           energy calibration is performed by reference to the    1073800800022 
           88.034 keV 109Ag line.                                 1073800800023 
           Since the GAMS target is viewed end on by the          1073800800024 
           spectrometers, the self-absorption corrections can be  1073800800025 
           large. For this reason the adopted intensities for the 1073800800026 
           low energy gamma-rays were obtained by plotting the    1073800800027 
           ratio of Ge(Li) intensities to those measured by the   1073800800028 
           GAMS spectrometers, and by using the values for strong 1073800800029 
           transitions to define a relative effective GAMS        1073800800030 
           efficiency curve (including automatically the          1073800800031 
           self-absorption correction) and by using this curve to 1073800800032 
           normalize all GAMS intensities to the Ge(Li) intensity 1073800800033 
           scale.                                                 1073800800034 
           The observed gamma-ray energies are obtained from the  1073800800035 
           curved-crystal spectrometer experiments.               1073800800036 
MONIT-REF  (,R.G.Helmer+,J,NIM,155,189,1975) - reference to the   1073800800037 
                                      88.034 keV 109Ag line.      1073800800038 
DETECTOR   (GELI) Germanium-lithium detector, yields determined   1073800800039 
                  using Ge(Li) detector at BNL                    1073800800040 
           (SPEC)  extremely high energy precision (typically     1073800800041 
            2-25eV) and resolution GAMS1 and GAMS2/3 curved       1073800800042 
            crystal spectrometers at ILL                          1073800800043 
ERR-ANALYS (DATA-ERR) Relative uncertainties.                     1073800800044 
           (ERR-1) Absolute intensity scale uncertainty           1073800800045 
STATUS     (TABLE) Data taken from Table V in PR/C,21,65,1980.    1073800800046 
HISTORY    (20110731C) SD                                         1073800800047 
ENDBIB              45          0                                 1073800800048 
COMMON               2          3                                 1073800800049 
EN         ERR-1                                                  1073800800050 
EV         PER-CENT                                               1073800800051 
 2.96         25.                                                 1073800800052 
ENDCOMMON            3          0                                 1073800800053 
DATA                 6        115                                 1073800800054 
E          E-ERR      E          E-ERR      DATA       DATA-ERR   1073800800055 
KEV        KEV        KEV        KEV        PC/REAC    PC/REAC    1073800800056 
     94.450      0.001                             1.54       0.151073800800057 
     98.258      0.003                             2.18       0.221073800800058 
    106.694      0.003                             0.08       0.031073800800059 
    108.280      0.001                             0.21       0.031073800800060 
    113.401      0.002                             18.7        1.91073800800061 
    149.854      0.003                             0.18       0.021073800800062 
    152.942      0.001                             4.19       0.421073800800063 
    166.306      0.004                             0.19       0.041073800800064 
    170.561      0.001                             0.29       0.061073800800065 
    178.034      0.001                             6.10       0.611073800800066 
    188.990      0.001                             1.92       0.191073800800067 
    189.920      0.003                             0.26       0.041073800800068 
    197.333      0.008                             0.06       0.031073800800069 
    200.153      0.004                             0.98       0.101073800800070 
    202.971      0.013                             0.07       0.021073800800071 
    207.697      0.003                             0.07       0.021073800800072 
    211.884      0.003                             1.77       0.181073800800073 
    213.806      0.004                             0.14       0.021073800800074 
    215.390      0.002                             0.59       0.061073800800075 
    216.487      0.009                             0.03       0.021073800800076 
    222.922      0.006                             0.08       0.031073800800077 
    228.194      0.004                             0.17       0.021073800800078 
    230.453      0.002                             0.14       0.021073800800079 
    245.080      0.002                             8.27       0.831073800800080 
    249.238      0.011                             1.78       0.181073800800081 
    263.403      0.006                             0.06       0.041073800800082 
    264.378      0.011                             0.09       0.081073800800083 
    264.980      0.003                             0.56       0.061073800800084 
    266.346      0.003                             1.29       0.131073800800085 
    274.328      0.007                             0.07       0.021073800800086 
    276.296      0.005                             6.96       0.701073800800087 
    288.480      0.005                             0.13       0.031073800800088 
    291.430      0.004                             4.99       0.501073800800089 
    295.597      0.003                             0.08       0.021073800800090 
    298.197      0.005    299.119      0.005       1.06       0.111073800800091 
    317.255      0.006                             0.11       0.031073800800092 
    320.164      0.005                             1.72       0.171073800800093 
    325.284      0.004                             7.05       0.711073800800094 
    326.868      0.004                             4.05       0.411073800800095 
    332.050      0.005                             0.32       0.041073800800096 
    333.964      0.003                             2.46       0.251073800800097 
    336.584      0.003                             0.60       0.061073800800098 
    337.828      0.005                             0.09       0.051073800800099 
    339.528      0.004                             5.00       0.501073800800100 
    343.869      0.009                             0.15       0.031073800800101 
    346.622      0.006    347.192      0.006       0.10       0.021073800800102 
    358.697      0.010    359.426      0.006       3.19       0.321073800800103 
    365.295      0.007                             0.08       0.021073800800104 
    371.125      0.010                             0.14       0.031073800800105 
    377.004      0.013                             0.06       0.031073800800106 
    378.191      0.005                             1.77       0.181073800800107 
    395.171      0.017                             0.18       0.031073800800108 
    396.758      0.011                             0.51       0.051073800800109 
    407.124      0.010                             0.16       0.031073800800110 
    414.342      0.007                             0.40       0.041073800800111 
    416.738      0.020                             0.14       0.031073800800112 
    418.298      0.007                             0.35       0.041073800800113 
    421.049      0.011                             0.32       0.031073800800114 
    426.135      0.004                             2.71       0.271073800800115 
    428.396      0.003                             0.71       0.071073800800116 
    433.552      0.004                             3.24       0.321073800800117 
    441.839      0.009                             0.32       0.051073800800118 
    455.702      0.005                             0.42       0.041073800800119 
    461.194      0.007                             0.40       0.041073800800120 
    464.541      0.009                             0.25       0.041073800800121 
    466.511      0.010    467.333      0.012       0.32       0.041073800800122 
    485.311      0.007                             0.30       0.041073800800123 
    491.575      0.010                             0.70       0.071073800800124 
    515.128      0.013                             0.71       0.071073800800125 
    520.597      0.010                             0.67       0.071073800800126 
    525.078      0.016                             0.26       0.061073800800127 
    526.411      0.021                             0.17       0.061073800800128 
    530.202      0.010                             0.09       0.061073800800129 
    539.345      0.031                             0.17       0.151073800800130 
    540.697      0.010                             0.26       0.141073800800131 
    554.589      0.044    555.614      0.013       0.46       0.051073800800132 
    579.896      0.030                             0.13       0.031073800800133 
    584.505      0.051    585.908      0.015       0.27       0.041073800800134 
    601.575      0.006                             0.39       0.041073800800135 
    604.530      0.006                             0.26       0.041073800800136 
    608.672      0.009                             0.17       0.031073800800137 
    612.047      0.012                             0.12       0.031073800800138 
    619.939      0.028    620.441      0.016       0.89       0.091073800800139 
    623.468      0.016                             0.50       0.051073800800140 
    628.887      0.018                             0.30       0.041073800800141 
    632.363      0.018                             0.11       0.031073800800142 
    634.907      0.023                             0.82       0.081073800800143 
    645.963      0.044                             0.14       0.041073800800144 
    653.504      0.036    655.501      0.016       0.55       0.061073800800145 
    657.569      0.029                             0.64       0.061073800800146 
    673.607      0.040    674.725      0.030       0.13       0.031073800800147 
    678.040      0.035    678.673      0.041       0.41       0.041073800800148 
    680.968      0.033                             0.20       0.031073800800149 
    685.909      0.024                             0.34       0.031073800800150 
    690.300      0.026                             1.53       0.151073800800151 
    695.949      0.032                             0.08       0.031073800800152 
    705.433      0.047                             0.25       0.041073800800153 
    713.389      0.020                             0.41       0.041073800800154 
    722.025      0.027                             0.68       0.071073800800155 
    726.740      0.024                             0.51       0.061073800800156 
    754.908      0.022                             0.32       0.041073800800157 
    772.096      0.020                             0.13       0.031073800800158 
    787.314      0.034                             0.15       0.031073800800159 
    791.429      0.031                             0.48       0.051073800800160 
    793.570      0.023                             0.18       0.031073800800161 
    799.265      0.051                             0.41       0.041073800800162 
    810.547      0.013                             0.74       0.071073800800163 
    815.228      0.024                             0.28       0.031073800800164 
    820.242      0.025                             0.18       0.031073800800165 
    831.571      0.015                             1.82       0.181073800800166 
    840.759      0.027                             0.57       0.061073800800167 
    846.328      0.013                             1.58       0.161073800800168 
    911.283      0.024                             1.44       0.141073800800169 
    966.439      0.024                             0.19       0.041073800800170 
   1019.868      0.027                             0.17       0.031073800800171 
ENDDATA            117          0                                 1073800800172 
ENDSUBENT          171          0                                 1073800899999 
ENDENTRY             8          0                                 1073899999999 
