ENTRY            10810   20110112                             13691081000000001 
SUBENT        10810001   20110112                             13691081000100001 
BIB                 14         41                                 1081000100002 
INSTITUTE  (1USALTI)                                              1081000100003 
REFERENCE  (J,NSE,91,187,198510)                                  1081000100004 
           (C,79KNOX,,685(FC4),197910)                            1081000100005 
           (J,BAP,23,637(KL14),197804)                            1081000100006 
AUTHOR     (J.H.Dave,J.J.Egan,G.P.Couchell,G.H.R.Kegel,A.Mittler, 1081000100007 
           D.J.Pullen,W.A.Schier,E.Sheldon)                       1081000100008 
TITLE      Cross sections, transition schemes, and branching      1081000100009 
            ratios for 232Th from the 232Th(n,n'gamma) reaction   1081000100010 
FACILITY   (VDG,1USALTI)                                          1081000100011 
INC-SOURCE (P-T) Protons on tritium                               1081000100012 
SAMPLE     Disk shaped samples                                    1081000100013 
DETECTOR   (GELI) 40-Cubic cm germanium-lithium detector          1081000100014 
           (NAICR) sodium iodide annular ring to reduce compton   1081000100015 
            effects                                               1081000100016 
           (LONGC) Long counter flux monitor                      1081000100017 
           (FISCH) Fission chamber flux monitor                   1081000100018 
           (SCIN) Plastic scintillator used as auxilliary time of 1081000100019 
            flight system                                         1081000100020 
MONITOR    No information                                         1081000100021 
METHOD     (TOF) Pulsed time of flight.                           1081000100022 
CORRECTION Corrected for:                                         1081000100023 
            -neutron attenuation in sample                        1081000100024 
            -gamma attenuation in sample                          1081000100025 
            -neutron multiple scattering                          1081000100026 
            -internal conversion                                  1081000100027 
            -variation of incident fluence over sample            1081000100028 
ERR-ANALYS (DATA-ERR) Errors contributed by:                      1081000100029 
            . statistics (up to 40%),                             1081000100030 
            . yield extraction uncertainties (1-20%),             1081000100031 
            . incident neutron fluence uncertainty (5%),          1081000100032 
            . Ge(Li) detector efficiency uncertainty (4-6%).      1081000100033 
STATUS     (APRVD) Approved by J.J.Egan, 1981/7/14.               1081000100034 
           (TABLE) Data from private comm., J.Egan, 1980/9,       1081000100035 
            and revised in private comm., J.Egan, 1986/6.         1081000100036 
HISTORY    (19801015C)                                            1081000100037 
           (19810722U) Status added                               1081000100038 
           (19820108A) Corrected reference.                       1081000100039 
           (19860129U) BIB update.                                1081000100040 
           (19860623A) Revised as per private communication.      1081000100041 
           (20110112A) VM:Updated to new date formats,lower case. 1081000100042 
                       BIB updates. Updates to subentry 003.      1081000100043 
ENDBIB              41          0                                 1081000100044 
NOCOMMON             0          0                                 1081000100045 
ENDSUBENT           44          0                                 1081000199999 
SUBENT        10810002   19860623                             00001081000200001 
BIB                  1          1                                 1081000200002 
REACTION   (90-TH-232(N,INL)90-TH-232,PAR,DA,G)                   1081000200003 
ENDBIB               1          0                                 1081000200004 
COMMON               1          3                                 1081000200005 
ANG                                                               1081000200006 
ADEG                                                              1081000200007 
 125.                                                             1081000200008 
ENDCOMMON            3          0                                 1081000200009 
DATA                 4        998                                 1081000200010 
EN         E          DATA       DATA-ERR                         1081000200011 
KEV        KEV        MB/SR      MB/SR                            1081000200012 
  766.6      664.83     5.62      0.67                            1081000200013 
  766.6      680.90     1.26      0.32                            1081000200014 
  766.6      714.24     0.83      0.22                            1081000200015 
  817.9      611.81     1.75      0.45                            1081000200016 
  817.9      664.83     9.44      1.17                            1081000200017 
  817.9      680.90     3.60      0.69                            1081000200018 
  817.9      714.24     2.33      0.37                            1081000200019 
  817.9      724.62     0.66      0.27                            1081000200020 
  817.9      774.09     2.73      0.54                            1081000200021 
  817.9      785.21     0.43      0.38                            1081000200022 
  836.5      611.81     3.60      0.56                            1081000200023 
  836.5      664.83    12.41      1.37                            1081000200024 
  836.5      680.90     3.79      0.55                            1081000200025 
  836.5      714.24     2.95      0.49                            1081000200026 
  836.5      724.62     1.01      0.25                            1081000200027 
  836.5      727.52     0.41      0.40                            1081000200028 
  836.5      735.92     3.90      0.57                            1081000200029 
  836.5      774.09     1.42      0.23                            1081000200030 
  836.5      780.12     0.94      0.24                            1081000200031 
  836.5      785.21     1.69      0.38                            1081000200032 
  867.9      611.81     5.29      0.68                            1081000200033 
  867.9      664.83    13.57      1.55                            1081000200034 
  867.9      680.90     4.77      0.41                            1081000200035 
  867.9      714.24     2.16      0.33                            1081000200036 
  867.9      724.62     0.74      0.20                            1081000200037 
  867.9      727.52     0.71      0.31                            1081000200038 
  867.9      735.92     6.30      0.75                            1081000200039 
  867.9      774.09     3.72      0.68                            1081000200040 
  867.9      780.12     1.12      0.27                            1081000200041 
  867.9      785.21     5.36      0.48                            1081000200042 
  944.1      611.81    10.07      1.10                            1081000200043 
  944.1      664.83    15.94      1.60                            1081000200044 
  944.1      667.49     0.66      0.16                            1081000200045 
  944.1      680.90     5.10      0.58                            1081000200046 
  944.1      714.24     3.02      0.40                            1081000200047 
  944.1      724.62     1.66      0.50                            1081000200048 
  944.1      727.52     0.81      0.42                            1081000200049 
  944.1      735.92     9.03      0.94                            1081000200050 
  944.1      774.09     6.33      0.65                            1081000200051 
  944.1      780.12     4.58      0.50                            1081000200052 
  944.1      785.21     5.57      0.62                            1081000200053 
  967.7      611.81    12.55      1.52                            1081000200054 
  967.7      664.83    17.28      2.01                            1081000200055 
  967.7      680.90     5.38      0.67                            1081000200056 
  967.7      714.24     3.41      0.46                            1081000200057 
  967.7      724.62     1.74      0.29                            1081000200058 
  967.7      727.52     0.95      0.43                            1081000200059 
  967.7      735.92     9.10      1.05                            1081000200060 
  967.7      774.09     8.36      0.96                            1081000200061 
  967.7      785.21     5.53      0.67                            1081000200062 
  967.7      823.36     0.78      0.20                            1081000200063 
 1043.4      611.81    10.76      1.35                            1081000200064 
 1043.4      664.83    15.72      1.60                            1081000200065 
 1043.4      667.49     1.53      0.24                            1081000200066 
 1043.4      680.90     5.24      0.58                            1081000200067 
 1043.4      714.24     2.92      0.38                            1081000200068 
 1043.4      724.62     2.04      0.29                            1081000200069 
 1043.4      727.52     1.83      0.30                            1081000200070 
 1043.4      735.92     9.57      1.06                            1081000200071 
 1043.4      774.09     5.95      0.62                            1081000200072 
 1043.4      780.12     6.03      0.69                            1081000200073 
 1043.4      785.21     5.49      0.64                            1081000200074 
 1068.7      611.81    13.71      1.70                            1081000200075 
 1068.7      664.83    16.94      2.00                            1081000200076 
 1068.7      667.49     1.12      0.27                            1081000200077 
 1068.7      680.90     6.12      0.77                            1081000200078 
 1068.7      714.24     3.94      0.54                            1081000200079 
 1068.7      724.62     2.30      0.35                            1081000200080 
 1068.7      727.52     4.61      0.72                            1081000200081 
 1068.7      735.92    11.74      1.42                            1081000200082 
 1068.7      774.09     7.93      0.90                            1081000200083 
 1068.7      780.12     7.89      0.90                            1081000200084 
 1068.7      785.21     6.80      0.80                            1081000200085 
 1068.7      823.36     1.33      0.29                            1081000200086 
 1068.7     1072.50     0.20      0.12                            1081000200087 
 1155.1      611.81    13.46      1.40                            1081000200088 
 1155.1      664.83    15.95      1.65                            1081000200089 
 1155.1      667.49     1.01      0.20                            1081000200090 
 1155.1      680.90     6.10      0.69                            1081000200091 
 1155.1      714.24     3.07      0.38                            1081000200092 
 1155.1      724.62     1.93      0.26                            1081000200093 
 1155.1      727.52     4.92      0.57                            1081000200094 
 1155.1      735.92    12.19      1.23                            1081000200095 
 1155.1      774.09     5.99      0.49                            1081000200096 
 1155.1      780.12     8.53      0.87                            1081000200097 
 1155.1      785.21     7.06      0.74                            1081000200098 
 1155.1      823.36     2.43      0.34                            1081000200099 
 1155.1     1004.20     1.07      0.22                            1081000200100 
 1155.1     1023.79     1.70      0.29                            1081000200101 
 1155.1     1029.00     1.50      0.32                            1081000200102 
 1155.1     1056.01     0.56      0.22                            1081000200103 
 1155.1     1072.50     0.60      0.10                            1081000200104 
 1166.8      611.81    17.92      2.76                            1081000200105 
 1166.8      664.83    19.10      2.57                            1081000200106 
 1166.8      667.49     1.88      0.29                            1081000200107 
 1166.8      680.90     6.38      0.89                            1081000200108 
 1166.8      714.24     3.35      0.51                            1081000200109 
 1166.8      724.62     2.55      0.35                            1081000200110 
 1166.8      727.52     4.97      0.69                            1081000200111 
 1166.8      735.92    12.99      1.52                            1081000200112 
 1166.8      774.09     5.99      0.71                            1081000200113 
 1166.8      780.12     9.19      1.02                            1081000200114 
 1166.8      785.21     7.17      0.82                            1081000200115 
 1166.8      823.36     2.50      0.34                            1081000200116 
 1166.8     1004.20     0.91      0.22                            1081000200117 
 1166.8     1023.79     2.78      0.43                            1081000200118 
 1166.8     1029.00     1.92      0.33                            1081000200119 
 1166.8     1045.00     0.40      0.17                            1081000200120 
 1166.8     1056.01     0.64      0.17                            1081000200121 
 1166.8     1072.50     1.50      0.28                            1081000200122 
 1166.8     1077.79     1.76      0.34                            1081000200123 
 1169.5      611.81    13.06      1.61                            1081000200124 
 1169.5      664.83    17.74      2.06                            1081000200125 
 1169.5      667.49     1.89      0.37                            1081000200126 
 1169.5      680.90     5.59      0.71                            1081000200127 
 1169.5      714.24     2.24      0.25                            1081000200128 
 1169.5      724.62     3.39      0.46                            1081000200129 
 1169.5      727.52     3.40      0.65                            1081000200130 
 1169.5      735.92    14.25      1.59                            1081000200131 
 1169.5      774.09     7.00      0.87                            1081000200132 
 1169.5      780.12    10.58      1.19                            1081000200133 
 1169.5      785.21     8.94      1.02                            1081000200134 
 1169.5      823.36     2.54      0.41                            1081000200135 
 1169.5     1023.79     3.40      0.42                            1081000200136 
 1169.5     1029.00     1.77      0.25                            1081000200137 
 1169.5     1056.01     0.85      0.17                            1081000200138 
 1169.5     1072.50     1.18      0.18                            1081000200139 
 1169.5     1077.79     0.98      0.31                            1081000200140 
 1223.6      611.81    17.07      2.05                            1081000200141 
 1223.6      664.83    18.37      2.12                            1081000200142 
 1223.6      667.49     2.22      0.34                            1081000200143 
 1223.6      680.90     5.62      0.79                            1081000200144 
 1223.6      714.24     3.41      0.50                            1081000200145 
 1223.6      724.62     3.24      0.44                            1081000200146 
 1223.6      727.52     4.84      0.61                            1081000200147 
 1223.6      735.92    15.55      1.73                            1081000200148 
 1223.6      774.09     7.20      0.82                            1081000200149 
 1223.6      780.12     9.80      1.11                            1081000200150 
 1223.6      785.21     8.15      0.96                            1081000200151 
 1223.6      823.36     2.46      0.39                            1081000200152 
 1223.6      959.45     1.87      0.31                            1081000200153 
 1223.6     1004.20     0.81      0.15                            1081000200154 
 1223.6     1023.79     5.12      0.56                            1081000200155 
 1223.6     1029.00     2.22      0.31                            1081000200156 
 1223.6     1045.00     0.43      0.19                            1081000200157 
 1223.6     1056.01     1.91      0.28                            1081000200158 
 1223.6     1072.50     3.14      0.37                            1081000200159 
 1223.6     1077.79     2.45      0.41                            1081000200160 
 1269.7      550.22     0.70      0.25                            1081000200161 
 1269.7      611.81    14.76      1.78                            1081000200162 
 1269.7      627.14     0.38      0.24                            1081000200163 
 1269.7      664.83    18.24      2.10                            1081000200164 
 1269.7      667.49     1.49      0.28                            1081000200165 
 1269.7      680.90     4.59      0.59                            1081000200166 
 1269.7      714.24     2.81      0.42                            1081000200167 
 1269.7      724.62     3.52      0.47                            1081000200168 
 1269.7      727.52     4.06      0.62                            1081000200169 
 1269.7      735.92    13.04      1.33                            1081000200170 
 1269.7      774.09     6.75      0.78                            1081000200171 
 1269.7      780.12    10.91      1.20                            1081000200172 
 1269.7      785.21     8.00      0.91                            1081000200173 
 1269.7      797.78     1.19      0.70                            1081000200174 
 1269.7      823.36     2.08      0.34                            1081000200175 
 1269.7      959.45     2.64      0.34                            1081000200176 
 1269.7      981.02     0.59      0.21                            1081000200177 
 1269.7     1004.20     1.20      0.30                            1081000200178 
 1269.7     1023.79     5.70      0.63                            1081000200179 
 1269.7     1029.00     2.47      0.31                            1081000200180 
 1269.7     1045.00     0.27      0.14                            1081000200181 
 1269.7     1056.01     1.97      0.24                            1081000200182 
 1269.7     1072.50     3.31      0.37                            1081000200183 
 1269.7     1077.79     3.66      0.43                            1081000200184 
 1347.2      550.22     1.82      0.61                            1081000200185 
 1347.2      611.81    15.68      2.45                            1081000200186 
 1347.2      664.83    18.46      2.48                            1081000200187 
 1347.2      667.49     1.32      0.34                            1081000200188 
 1347.2      680.90     5.03      0.75                            1081000200189 
 1347.2      714.24     3.05      0.50                            1081000200190 
 1347.2      724.62     3.78      0.53                            1081000200191 
 1347.2      727.52     7.82      1.04                            1081000200192 
 1347.2      735.92    12.06      1.42                            1081000200193 
 1347.2      774.09     7.50      0.87                            1081000200194 
 1347.2      780.12    10.08      1.13                            1081000200195 
 1347.2      785.21     6.36      0.77                            1081000200196 
 1347.2      797.78     0.61      0.24                            1081000200197 
 1347.2      823.36     2.74      0.41                            1081000200198 
 1347.2      932.29     0.71      0.24                            1081000200199 
 1347.2      943.33     0.20      0.26                            1081000200200 
 1347.2      959.45     2.88      0.43                            1081000200201 
 1347.2      981.02     1.36      0.31                            1081000200202 
 1347.2      986.22     1.64      0.35                            1081000200203 
 1347.2     1004.20     1.86      0.32                            1081000200204 
 1347.2     1020.42     0.80      0.21                            1081000200205 
 1347.2     1023.79     5.89      0.82                            1081000200206 
 1347.2     1029.00     4.00      0.59                            1081000200207 
 1347.2     1045.00     0.93      0.22                            1081000200208 
 1347.2     1053.51     0.30      0.06                            1081000200209 
 1347.2     1056.01     3.15      0.46                            1081000200210 
 1347.2     1072.50     1.71      0.25                            1081000200211 
 1347.2     1077.79     3.97      0.70                            1081000200212 
 1347.2     1132.90     0.40      0.08                            1081000200213 
 1357.9      550.22     0.83      0.18                            1081000200214 
 1357.9      611.81    12.28      1.32                            1081000200215 
 1357.9      627.14     0.45      0.18                            1081000200216 
 1357.9      664.83    14.15      1.50                            1081000200217 
 1357.9      667.49     2.03      0.25                            1081000200218 
 1357.9      680.90     4.19      0.46                            1081000200219 
 1357.9      714.24     2.20      0.27                            1081000200220 
 1357.9      724.62     3.07      0.41                            1081000200221 
 1357.9      727.52     4.82      0.53                            1081000200222 
 1357.9      735.92    11.17      1.11                            1081000200223 
 1357.9      774.09     7.05      0.71                            1081000200224 
 1357.9      780.12     8.97      0.90                            1081000200225 
 1357.9      785.21     6.60      0.67                            1081000200226 
 1357.9      797.78     1.22      0.17                            1081000200227 
 1357.9      823.36     2.70      0.31                            1081000200228 
 1357.9      959.45     2.39      0.30                            1081000200229 
 1357.9      981.02     1.51      0.21                            1081000200230 
 1357.9     1004.20     1.67      0.30                            1081000200231 
 1357.9     1020.42     0.50      0.11                            1081000200232 
 1357.9     1023.79     5.85      0.67                            1081000200233 
 1357.9     1029.00     3.73      0.45                            1081000200234 
 1357.9     1045.00     0.78      0.11                            1081000200235 
 1357.9     1053.51     0.78      0.14                            1081000200236 
 1357.9     1056.01     3.85      0.46                            1081000200237 
 1357.9     1072.50     4.82      0.50                            1081000200238 
 1357.9     1077.79     5.15      0.54                            1081000200239 
 1357.9     1121.53     0.53      0.14                            1081000200240 
 1357.9     1132.90     1.74      0.25                            1081000200241 
 1376.9      550.22     1.89      0.33                            1081000200242 
 1376.9      611.81    15.05      1.78                            1081000200243 
 1376.9      627.14     0.64      0.21                            1081000200244 
 1376.9      664.83    15.79      1.80                            1081000200245 
 1376.9      667.49     2.30      0.33                            1081000200246 
 1376.9      680.90     4.55      0.55                            1081000200247 
 1376.9      714.24     2.79      0.37                            1081000200248 
 1376.9      724.62     3.36      0.43                            1081000200249 
 1376.9      727.52     5.99      0.72                            1081000200250 
 1376.9      735.92    13.41      1.48                            1081000200251 
 1376.9      774.09     6.25      0.70                            1081000200252 
 1376.9      780.12    10.66      1.22                            1081000200253 
 1376.9      785.21     7.70      0.86                            1081000200254 
 1376.9      797.78     1.30      0.21                            1081000200255 
 1376.9      823.36     3.32      0.41                            1081000200256 
 1376.9      932.29     0.43      0.15                            1081000200257 
 1376.9      943.33     0.68      0.23                            1081000200258 
 1376.9      959.45     2.90      0.35                            1081000200259 
 1376.9      981.02     1.69      0.24                            1081000200260 
 1376.9      986.22     0.71      0.19                            1081000200261 
 1376.9     1004.20     1.78      0.26                            1081000200262 
 1376.9     1020.42     0.66      0.15                            1081000200263 
 1376.9     1023.79     6.77      0.71                            1081000200264 
 1376.9     1029.00     3.21      0.36                            1081000200265 
 1376.9     1045.00     0.93      0.13                            1081000200266 
 1376.9     1053.51     1.48      0.21                            1081000200267 
 1376.9     1056.01     3.08      0.33                            1081000200268 
 1376.9     1072.50     7.57      0.77                            1081000200269 
 1376.9     1077.79     5.10      0.54                            1081000200270 
 1376.9     1132.90     2.43      0.31                            1081000200271 
 1427.3      550.22     2.11      0.46                            1081000200272 
 1427.3      611.81    15.80      1.89                            1081000200273 
 1427.3      627.14     0.53      0.27                            1081000200274 
 1427.3      664.83    17.08      2.00                            1081000200275 
 1427.3      667.49     3.03      0.42                            1081000200276 
 1427.3      680.90     4.21      0.56                            1081000200277 
 1427.3      714.24     2.30      0.35                            1081000200278 
 1427.3      724.62     3.64      0.47                            1081000200279 
 1427.3      727.52     6.94      0.88                            1081000200280 
 1427.3      735.92    14.34      1.59                            1081000200281 
 1427.3      774.09     7.05      0.81                            1081000200282 
 1427.3      780.12    11.98      1.32                            1081000200283 
 1427.3      785.21     6.63      0.73                            1081000200284 
 1427.3      797.78     1.66      0.30                            1081000200285 
 1427.3      823.36     3.67      0.50                            1081000200286 
 1427.3      884.53     0.29      0.21                            1081000200287 
 1427.3      932.29     0.28      0.18                            1081000200288 
 1427.3      943.33     0.34      0.21                            1081000200289 
 1427.3      959.45     3.21      0.40                            1081000200290 
 1427.3      981.02     2.02      0.30                            1081000200291 
 1427.3      986.22     0.61      0.21                            1081000200292 
 1427.3     1004.20     1.83      0.32                            1081000200293 
 1427.3     1020.42     0.94      0.21                            1081000200294 
 1427.3     1023.79     7.41      0.78                            1081000200295 
 1427.3     1029.00     3.85      0.46                            1081000200296 
 1427.3     1045.00     0.89      0.25                            1081000200297 
 1427.3     1053.51     1.28      0.28                            1081000200298 
 1427.3     1056.01     3.74      0.42                            1081000200299 
 1427.3     1072.50     9.16      0.94                            1081000200300 
 1427.3     1077.79     6.19      0.68                            1081000200301 
 1427.3     1121.53     0.52      0.20                            1081000200302 
 1427.3     1132.90     2.50      0.33                            1081000200303 
 1477.9      550.22     1.82      0.38                            1081000200304 
 1477.9      611.81    14.14      1.68                            1081000200305 
 1477.9      627.14     0.75      0.24                            1081000200306 
 1477.9      664.83    15.49      1.78                            1081000200307 
 1477.9      667.49     1.80      0.24                            1081000200308 
 1477.9      680.90     3.67      0.48                            1081000200309 
 1477.9      714.24     2.23      0.32                            1081000200310 
 1477.9      724.62     2.56      0.27                            1081000200311 
 1477.9      727.52     6.29      0.75                            1081000200312 
 1477.9      735.92    12.52      1.38                            1081000200313 
 1477.9      774.09     5.79      0.68                            1081000200314 
 1477.9      780.12    10.31      1.12                            1081000200315 
 1477.9      785.21     6.35      0.73                            1081000200316 
 1477.9      797.78     1.59      0.27                            1081000200317 
 1477.9      823.36     3.79      0.50                            1081000200318 
 1477.9      932.29     0.37      0.18                            1081000200319 
 1477.9      943.33     1.07      0.20                            1081000200320 
 1477.9      959.45     2.85      0.34                            1081000200321 
 1477.9      981.02     1.73      0.24                            1081000200322 
 1477.9      986.22     0.65      0.17                            1081000200323 
 1477.9     1004.20     1.86      0.26                            1081000200324 
 1477.9     1020.42     0.70      0.14                            1081000200325 
 1477.9     1023.79     6.69      0.68                            1081000200326 
 1477.9     1029.00     3.84      0.43                            1081000200327 
 1477.9     1045.00     1.13      0.14                            1081000200328 
 1477.9     1053.51     1.61      0.21                            1081000200329 
 1477.9     1056.01     3.82      0.40                            1081000200330 
 1477.9     1072.50     7.45      0.76                            1081000200331 
 1477.9     1077.79     5.47      0.57                            1081000200332 
 1477.9     1121.53     0.48      0.16                            1081000200333 
 1477.9     1132.90     2.75      0.32                            1081000200334 
 1537.2      550.22     2.60      0.46                            1081000200335 
 1537.2      611.81    13.05      1.56                            1081000200336 
 1537.2      627.14     0.84      0.17                            1081000200337 
 1537.2      664.83    16.06      1.83                            1081000200338 
 1537.2      667.49     2.22      0.29                            1081000200339 
 1537.2      680.90     3.71      0.49                            1081000200340 
 1537.2      714.24     2.11      0.35                            1081000200341 
 1537.2      724.62     2.73      0.38                            1081000200342 
 1537.2      727.52     6.65      0.78                            1081000200343 
 1537.2      735.92    12.72      1.41                            1081000200344 
 1537.2      774.09     6.83      0.77                            1081000200345 
 1537.2      780.12    12.13      1.34                            1081000200346 
 1537.2      785.21     7.85      0.85                            1081000200347 
 1537.2      797.78     1.45      0.24                            1081000200348 
 1537.2      823.36     2.72      0.33                            1081000200349 
 1537.2      884.53     0.49      0.22                            1081000200350 
 1537.2      932.29     0.40      0.20                            1081000200351 
 1537.2      943.33     0.99      0.21                            1081000200352 
 1537.2      959.45     3.83      0.44                            1081000200353 
 1537.2      981.02     2.55      0.33                            1081000200354 
 1537.2      986.22     0.93      0.20                            1081000200355 
 1537.2     1004.20     1.74      0.27                            1081000200356 
 1537.2     1020.42     1.13      0.21                            1081000200357 
 1537.2     1023.79     6.99      0.72                            1081000200358 
 1537.2     1029.00     3.85      0.44                            1081000200359 
 1537.2     1045.00     0.96      0.19                            1081000200360 
 1537.2     1046.59     0.43      0.14                            1081000200361 
 1537.2     1053.51     1.37      0.23                            1081000200362 
 1537.2     1056.01     4.47      0.47                            1081000200363 
 1537.2     1072.50     8.27      0.84                            1081000200364 
 1537.2     1077.79     7.36      0.76                            1081000200365 
 1537.2     1121.53     0.53      0.17                            1081000200366 
 1537.2     1132.90     2.95      0.35                            1081000200367 
 1537.2     1303.22     0.89      0.16                            1081000200368 
 1537.2     1400.88     0.41      0.14                            1081000200369 
 1537.2     1430.58     0.53      0.16                            1081000200370 
 1571.3      550.22     1.94      0.51                            1081000200371 
 1571.3      611.81    15.78      2.46                            1081000200372 
 1571.3      627.14     0.85      0.17                            1081000200373 
 1571.3      664.83    14.11      1.91                            1081000200374 
 1571.3      667.49     1.26      0.28                            1081000200375 
 1571.3      680.90     3.08      0.50                            1081000200376 
 1571.3      714.24     2.03      0.36                            1081000200377 
 1571.3      724.62     2.42      0.41                            1081000200378 
 1571.3      727.52     7.30      0.90                            1081000200379 
 1571.3      735.92    11.59      1.37                            1081000200380 
 1571.3      774.09     5.74      0.75                            1081000200381 
 1571.3      780.12    10.32      1.14                            1081000200382 
 1571.3      785.21     6.56      0.75                            1081000200383 
 1571.3      797.78     2.19      0.35                            1081000200384 
 1571.3      823.36     3.47      0.50                            1081000200385 
 1571.3      932.29     0.84      0.29                            1081000200386 
 1571.3      943.33     0.80      0.23                            1081000200387 
 1571.3      959.45     3.19      0.45                            1081000200388 
 1571.3      981.02     1.86      0.31                            1081000200389 
 1571.3      986.22     1.42      0.29                            1081000200390 
 1571.3     1004.20     1.44      0.28                            1081000200391 
 1571.3     1020.42     0.49      0.15                            1081000200392 
 1571.3     1023.79     6.33      0.87                            1081000200393 
 1571.3     1029.00     3.36      0.52                            1081000200394 
 1571.3     1045.00     1.34      0.21                            1081000200395 
 1571.3     1046.59     0.50      0.23                            1081000200396 
 1571.3     1053.51     1.28      0.25                            1081000200397 
 1571.3     1056.01     4.22      0.61                            1081000200398 
 1571.3     1072.50     7.44      1.07                            1081000200399 
 1571.3     1077.79     5.10      0.77                            1081000200400 
 1571.3     1121.53     0.56      0.18                            1081000200401 
 1571.3     1132.90     2.54      0.44                            1081000200402 
 1571.3     1224.88     0.95      0.22                            1081000200403 
 1571.3     1303.22     0.96      0.25                            1081000200404 
 1571.3     1400.88     1.09      0.32                            1081000200405 
 1571.3     1430.58     0.55      0.20                            1081000200406 
 1627.0      550.22     3.01      0.47                            1081000200407 
 1627.0      611.81    18.46      2.21                            1081000200408 
 1627.0      627.14     1.14      0.31                            1081000200409 
 1627.0      664.83    16.68      1.93                            1081000200410 
 1627.0      667.49     3.23      0.44                            1081000200411 
 1627.0      680.90     3.41      0.47                            1081000200412 
 1627.0      714.24     2.73      0.39                            1081000200413 
 1627.0      724.62     3.60      0.46                            1081000200414 
 1627.0      727.52     8.51      1.00                            1081000200415 
 1627.0      735.92    13.90      1.54                            1081000200416 
 1627.0      774.09     5.14      0.59                            1081000200417 
 1627.0      780.12    12.08      1.32                            1081000200418 
 1627.0      785.21     8.01      0.90                            1081000200419 
 1627.0      797.78     1.92      0.28                            1081000200420 
 1627.0      814.82     0.75      0.24                            1081000200421 
 1627.0      823.36     3.58      0.45                            1081000200422 
 1627.0      884.53     0.60      0.20                            1081000200423 
 1627.0      932.29     0.79      0.21                            1081000200424 
 1627.0      943.33     0.67      0.21                            1081000200425 
 1627.0      959.45     3.74      0.43                            1081000200426 
 1627.0      981.02     2.73      0.35                            1081000200427 
 1627.0      986.22     0.95      0.20                            1081000200428 
 1627.0     1004.20     1.44      0.25                            1081000200429 
 1627.0     1020.42     1.11      0.20                            1081000200430 
 1627.0     1023.79     7.72      0.79                            1081000200431 
 1627.0     1029.00     3.85      0.39                            1081000200432 
 1627.0     1045.00     1.34      0.22                            1081000200433 
 1627.0     1046.59     0.61      0.14                            1081000200434 
 1627.0     1053.51     1.64      0.23                            1081000200435 
 1627.0     1056.01     5.08      0.67                            1081000200436 
 1627.0     1072.50     8.79      0.89                            1081000200437 
 1627.0     1077.79     7.68      0.80                            1081000200438 
 1627.0     1121.53     0.78      0.22                            1081000200439 
 1627.0     1132.90     3.70      0.46                            1081000200440 
 1627.0     1224.88     0.91      0.19                            1081000200441 
 1627.0     1303.22     1.39      0.24                            1081000200442 
 1627.0     1322.19     0.87      0.18                            1081000200443 
 1627.0     1337.58     0.55      0.18                            1081000200444 
 1627.0     1387.28     0.22      0.10                            1081000200445 
 1627.0     1400.88     0.98      0.21                            1081000200446 
 1627.0     1430.58     0.81      0.19                            1081000200447 
 1627.0     1439.67     0.47      0.17                            1081000200448 
 1627.0     1505.29     0.26      0.15                            1081000200449 
 1627.0     1555.10     0.71      0.17                            1081000200450 
 1677.1      550.22     2.87      0.39                            1081000200451 
 1677.1      611.81    16.14      1.90                            1081000200452 
 1677.1      627.14     1.15      0.25                            1081000200453 
 1677.1      664.83    14.92      1.71                            1081000200454 
 1677.1      667.49     3.20      0.42                            1081000200455 
 1677.1      680.90     2.55      0.35                            1081000200456 
 1677.1      714.24     2.41      0.33                            1081000200457 
 1677.1      724.62     2.84      0.36                            1081000200458 
 1677.1      727.52     8.35      0.96                            1081000200459 
 1677.1      735.92    13.05      1.43                            1081000200460 
 1677.1      774.09     6.43      0.71                            1081000200461 
 1677.1      780.12    11.66      1.27                            1081000200462 
 1677.1      785.21     8.32      0.92                            1081000200463 
 1677.1      797.78     2.16      0.28                            1081000200464 
 1677.1      823.36     3.49      0.42                            1081000200465 
 1677.1      884.53     0.21      0.16                            1081000200466 
 1677.1      932.29     0.56      0.13                            1081000200467 
 1677.1      943.33     0.61      0.15                            1081000200468 
 1677.1      959.45     3.27      0.37                            1081000200469 
 1677.1      981.02     2.49      0.31                            1081000200470 
 1677.1      986.22     0.78      0.16                            1081000200471 
 1677.1     1004.20     1.43      0.22                            1081000200472 
 1677.1     1020.42     0.89      0.16                            1081000200473 
 1677.1     1023.79     6.91      0.70                            1081000200474 
 1677.1     1029.00     3.21      0.36                            1081000200475 
 1677.1     1045.00     1.21      0.19                            1081000200476 
 1677.1     1046.59     0.53      0.13                            1081000200477 
 1677.1     1053.51     1.06      0.17                            1081000200478 
 1677.1     1056.01     4.73      0.49                            1081000200479 
 1677.1     1072.50     7.93      0.80                            1081000200480 
 1677.1     1077.79     6.91      0.71                            1081000200481 
 1677.1     1121.53     0.68      0.17                            1081000200482 
 1677.1     1132.90     3.63      0.40                            1081000200483 
 1677.1     1166.19     0.70      0.16                            1081000200484 
 1677.1     1224.88     0.95      0.19                            1081000200485 
 1677.1     1303.22     1.28      0.22                            1081000200486 
 1677.1     1322.19     1.38      0.21                            1081000200487 
 1677.1     1328.94     0.20      0.13                            1081000200488 
 1677.1     1337.58     0.79      0.16                            1081000200489 
 1677.1     1387.28     0.51      0.14                            1081000200490 
 1677.1     1400.88     1.49      0.23                            1081000200491 
 1677.1     1430.58     1.45      0.21                            1081000200492 
 1677.1     1439.67     0.78      0.17                            1081000200493 
 1677.1     1489.35     0.49      0.14                            1081000200494 
 1677.1     1505.29     1.50      0.24                            1081000200495 
 1677.1     1555.10     0.79      0.19                            1081000200496 
 1677.1     1572.47     0.31      0.14                            1081000200497 
 1745.6     1166.19     0.35      0.16                            1081000200498 
 1745.9      550.22     3.36      0.75                            1081000200499 
 1745.9      611.81    17.21      2.65                            1081000200500 
 1745.9      627.14     1.42      0.45                            1081000200501 
 1745.9      664.83    17.10      2.31                            1081000200502 
 1745.9      667.49     2.03      0.40                            1081000200503 
 1745.9      680.90     2.92      0.52                            1081000200504 
 1745.9      714.24     2.79      0.46                            1081000200505 
 1745.9      724.62     1.93      0.33                            1081000200506 
 1745.9      727.52     7.66      1.04                            1081000200507 
 1745.9      735.92    12.46      1.47                            1081000200508 
 1745.9      774.09     4.89      0.61                            1081000200509 
 1745.9      780.12    11.31      1.24                            1081000200510 
 1745.9      785.21     6.72      0.74                            1081000200511 
 1745.9      797.78     1.97      0.34                            1081000200512 
 1745.9      814.82     0.79      0.27                            1081000200513 
 1745.9      823.36     2.85      0.43                            1081000200514 
 1745.9      884.53     0.33      0.28                            1081000200515 
 1745.9      932.29     0.66      0.22                            1081000200516 
 1745.9      943.33     0.49      0.23                            1081000200517 
 1745.9      959.45     3.91      0.54                            1081000200518 
 1745.9      981.02     3.43      0.50                            1081000200519 
 1745.9      986.22     1.53      0.30                            1081000200520 
 1745.9     1004.20     1.54      0.32                            1081000200521 
 1745.9     1020.42     0.97      0.23                            1081000200522 
 1745.9     1023.79     6.04      0.83                            1081000200523 
 1745.9     1029.00     2.53      0.40                            1081000200524 
 1745.9     1045.00     0.94      0.22                            1081000200525 
 1745.9     1046.59     0.87      0.20                            1081000200526 
 1745.9     1053.51     0.84      0.14                            1081000200527 
 1745.9     1056.01     5.03      0.73                            1081000200528 
 1745.9     1072.50     7.79      1.12                            1081000200529 
 1745.9     1077.79     4.72      0.72                            1081000200530 
 1745.9     1121.53     0.68      0.21                            1081000200531 
 1745.9     1132.90     2.82      0.49                            1081000200532 
 1745.9     1224.88     1.38      0.33                            1081000200533 
 1745.9     1303.22     0.92      0.25                            1081000200534 
 1745.9     1322.19     1.43      0.33                            1081000200535 
 1745.9     1328.94     0.16      0.14                            1081000200536 
 1745.9     1337.58     0.65      0.14                            1081000200537 
 1745.9     1387.28     0.38      0.16                            1081000200538 
 1745.9     1391.51     0.60      0.22                            1081000200539 
 1745.9     1400.88     1.48      0.33                            1081000200540 
 1745.9     1416.78     0.27      0.15                            1081000200541 
 1745.9     1430.58     1.38      0.34                            1081000200542 
 1745.9     1439.67     0.49      0.16                            1081000200543 
 1745.9     1446.46     0.23      0.15                            1081000200544 
 1745.9     1470.68     0.22      0.11                            1081000200545 
 1745.9     1485.50     0.26      0.15                            1081000200546 
 1745.9     1489.35     0.41      0.15                            1081000200547 
 1745.9     1505.29     2.57      0.58                            1081000200548 
 1745.9     1523.38     0.28      0.13                            1081000200549 
 1745.9     1527.36     0.16      0.15                            1081000200550 
 1745.9     1555.10     1.41      0.34                            1081000200551 
 1745.9     1560.89     0.32      0.14                            1081000200552 
 1745.9     1568.64     0.61      0.19                            1081000200553 
 1745.9     1572.47     0.38      0.17                            1081000200554 
 1745.9     1640.59     0.40      0.16                            1081000200555 
 1759.2      550.22     3.07      0.37                            1081000200556 
 1759.2      611.81    14.85      1.56                            1081000200557 
 1759.2      627.14     1.46      0.22                            1081000200558 
 1759.2      664.83    13.96      1.43                            1081000200559 
 1759.2      667.49     3.02      0.33                            1081000200560 
 1759.2      680.90     2.23      0.27                            1081000200561 
 1759.2      714.24     2.94      0.32                            1081000200562 
 1759.2      724.62     2.41      0.27                            1081000200563 
 1759.2      727.52     6.17      0.63                            1081000200564 
 1759.2      735.92    11.63      1.15                            1081000200565 
 1759.2      774.09     4.74      0.48                            1081000200566 
 1759.2      780.12    12.08      1.18                            1081000200567 
 1759.2      785.21     7.49      0.75                            1081000200568 
 1759.2      797.78     1.85      0.34                            1081000200569 
 1759.2      814.82     0.45      0.13                            1081000200570 
 1759.2      823.36     2.92      0.32                            1081000200571 
 1759.2      884.53     0.34      0.15                            1081000200572 
 1759.2      932.29     0.53      0.12                            1081000200573 
 1759.2      943.33     0.69      0.13                            1081000200574 
 1759.2      959.45     2.70      0.32                            1081000200575 
 1759.2      981.02     2.54      0.30                            1081000200576 
 1759.2      986.22     0.91      0.14                            1081000200577 
 1759.2     1004.20     1.14      0.16                            1081000200578 
 1759.2     1020.42     0.98      0.15                            1081000200579 
 1759.2     1023.79     5.65      0.64                            1081000200580 
 1759.2     1029.00     2.80      0.34                            1081000200581 
 1759.2     1045.00     0.81      0.12                            1081000200582 
 1759.2     1046.59     0.98      0.14                            1081000200583 
 1759.2     1053.51     0.98      0.15                            1081000200584 
 1759.2     1056.01     5.04      0.58                            1081000200585 
 1759.2     1072.50     7.24      0.83                            1081000200586 
 1759.2     1077.79     5.65      0.65                            1081000200587 
 1759.2     1121.53     0.48      0.12                            1081000200588 
 1759.2     1132.90     3.38      0.42                            1081000200589 
 1759.2     1166.19     0.57      0.13                            1081000200590 
 1759.2     1224.88     1.08      0.17                            1081000200591 
 1759.2     1303.22     1.04      0.17                            1081000200592 
 1759.2     1322.19     1.20      0.19                            1081000200593 
 1759.2     1337.58     0.56      0.19                            1081000200594 
 1759.2     1387.28     0.23      0.09                            1081000200595 
 1759.2     1391.51     0.79      0.15                            1081000200596 
 1759.2     1400.88     1.75      0.26                            1081000200597 
 1759.2     1416.78     0.18      0.10                            1081000200598 
 1759.2     1430.58     1.58      0.24                            1081000200599 
 1759.2     1439.67     0.52      0.18                            1081000200600 
 1759.2     1446.46     0.36      0.10                            1081000200601 
 1759.2     1485.50     0.50      0.12                            1081000200602 
 1759.2     1489.35     0.81      0.15                            1081000200603 
 1759.2     1505.29     2.45      0.36                            1081000200604 
 1759.2     1527.36     0.25      0.09                            1081000200605 
 1759.2     1555.10     0.97      0.17                            1081000200606 
 1759.2     1560.89     0.84      0.16                            1081000200607 
 1759.2     1572.47     1.08      0.18                            1081000200608 
 1759.2     1640.59     0.33      0.10                            1081000200609 
 1777.3      550.22     3.49      0.50                            1081000200610 
 1777.3      611.81    16.99      2.01                            1081000200611 
 1777.3      627.14     1.54      0.32                            1081000200612 
 1777.3      664.83    16.56      1.90                            1081000200613 
 1777.3      667.49     1.96      0.22                            1081000200614 
 1777.3      680.90     2.66      0.40                            1081000200615 
 1777.3      714.24     2.05      0.32                            1081000200616 
 1777.3      724.62     2.39      0.33                            1081000200617 
 1777.3      727.52     7.28      0.86                            1081000200618 
 1777.3      735.92    11.72      1.30                            1081000200619 
 1777.3      774.09     5.13      0.59                            1081000200620 
 1777.3      780.12    11.75      1.28                            1081000200621 
 1777.3      785.21     7.95      0.89                            1081000200622 
 1777.3      797.78     1.52      0.24                            1081000200623 
 1777.3      814.82     0.23      0.03                            1081000200624 
 1777.3      823.36     3.19      0.40                            1081000200625 
 1777.3      932.29     0.61      0.24                            1081000200626 
 1777.3      943.33     0.64      0.22                            1081000200627 
 1777.3      959.45     3.08      0.35                            1081000200628 
 1777.3      981.02     2.82      0.34                            1081000200629 
 1777.3      986.22     1.46      0.22                            1081000200630 
 1777.3     1004.20     1.29      0.21                            1081000200631 
 1777.3     1020.42     0.95      0.18                            1081000200632 
 1777.3     1023.79     6.59      0.68                            1081000200633 
 1777.3     1029.00     2.69      0.33                            1081000200634 
 1777.3     1045.00     1.20      0.18                            1081000200635 
 1777.3     1046.59     1.08      0.18                            1081000200636 
 1777.3     1053.51     1.15      0.21                            1081000200637 
 1777.3     1056.01     4.73      0.49                            1081000200638 
 1777.3     1072.50     7.77      0.79                            1081000200639 
 1777.3     1077.79     6.47      0.67                            1081000200640 
 1777.3     1121.53     0.66      0.17                            1081000200641 
 1777.3     1132.90     3.71      0.42                            1081000200642 
 1777.3     1166.19     0.66      0.19                            1081000200643 
 1777.3     1224.88     1.25      0.24                            1081000200644 
 1777.3     1303.22     1.16      0.22                            1081000200645 
 1777.3     1322.19     1.53      0.23                            1081000200646 
 1777.3     1328.94     0.24      0.14                            1081000200647 
 1777.3     1337.58     0.59      0.15                            1081000200648 
 1777.3     1387.28     0.34      0.17                            1081000200649 
 1777.3     1391.51     0.62      0.18                            1081000200650 
 1777.3     1400.88     1.89      0.29                            1081000200651 
 1777.3     1416.78     0.17      0.11                            1081000200652 
 1777.3     1430.58     1.58      0.26                            1081000200653 
 1777.3     1439.67     0.59      0.18                            1081000200654 
 1777.3     1446.46     0.22      0.11                            1081000200655 
 1777.3     1470.68     0.53      0.16                            1081000200656 
 1777.3     1485.50     0.86      0.19                            1081000200657 
 1777.3     1489.35     0.73      0.15                            1081000200658 
 1777.3     1505.29     2.87      0.37                            1081000200659 
 1777.3     1523.38     0.14      0.10                            1081000200660 
 1777.3     1527.36     0.28      0.14                            1081000200661 
 1777.3     1555.10     0.91      0.17                            1081000200662 
 1777.3     1560.89     1.14      0.22                            1081000200663 
 1777.3     1572.47     1.03      0.18                            1081000200664 
 1777.3     1640.59     0.93      0.19                            1081000200665 
 1777.3     1716.51     0.94      0.16                            1081000200666 
 1777.3     1727.28     0.09      0.02                            1081000200667 
 1827.1      550.22     4.20      0.53                            1081000200668 
 1827.1      611.81    19.12      2.23                            1081000200669 
 1827.1      627.14     1.40      0.31                            1081000200670 
 1827.1      664.83    16.30      1.86                            1081000200671 
 1827.1      667.49     2.99      0.43                            1081000200672 
 1827.1      680.90     1.91      0.32                            1081000200673 
 1827.1      714.24     2.33      0.44                            1081000200674 
 1827.1      724.62     1.86      0.28                            1081000200675 
 1827.1      727.52     6.64      0.77                            1081000200676 
 1827.1      735.92    13.44      1.50                            1081000200677 
 1827.1      774.09     5.44      0.63                            1081000200678 
 1827.1      780.12    13.66      1.48                            1081000200679 
 1827.1      785.21     8.98      0.99                            1081000200680 
 1827.1      797.78     1.42      0.25                            1081000200681 
 1827.1      814.82     0.82      0.21                            1081000200682 
 1827.1      823.36     2.67      0.35                            1081000200683 
 1827.1      932.29     0.85      0.13                            1081000200684 
 1827.1      943.33     0.72      0.13                            1081000200685 
 1827.1      959.45     3.05      0.37                            1081000200686 
 1827.1      981.02     2.61      0.32                            1081000200687 
 1827.1      986.22     1.43      0.22                            1081000200688 
 1827.1     1004.20     1.10      0.18                            1081000200689 
 1827.1     1020.42     1.09      0.18                            1081000200690 
 1827.1     1023.79     6.65      0.68                            1081000200691 
 1827.1     1029.00     2.65      0.32                            1081000200692 
 1827.1     1045.00     0.72      0.15                            1081000200693 
 1827.1     1046.59     0.92      0.15                            1081000200694 
 1827.1     1053.51     0.83      0.16                            1081000200695 
 1827.1     1056.01     4.96      0.51                            1081000200696 
 1827.1     1072.50     8.80      0.89                            1081000200697 
 1827.1     1077.79     6.46      0.69                            1081000200698 
 1827.1     1121.53     0.59      0.14                            1081000200699 
 1827.1     1132.90     3.22      0.36                            1081000200700 
 1827.1     1166.19     0.99      0.22                            1081000200701 
 1827.1     1224.88     1.16      0.22                            1081000200702 
 1827.1     1303.22     0.96      0.20                            1081000200703 
 1827.1     1322.19     1.51      0.23                            1081000200704 
 1827.1     1328.94     0.28      0.13                            1081000200705 
 1827.1     1337.58     0.69      0.16                            1081000200706 
 1827.1     1387.28     0.36      0.17                            1081000200707 
 1827.1     1391.51     0.85      0.18                            1081000200708 
 1827.1     1400.88     1.84      0.31                            1081000200709 
 1827.1     1416.78     0.60      0.17                            1081000200710 
 1827.1     1430.58     1.57      0.24                            1081000200711 
 1827.1     1439.67     0.84      0.17                            1081000200712 
 1827.1     1446.46     0.63      0.16                            1081000200713 
 1827.1     1470.68     0.25      0.15                            1081000200714 
 1827.1     1485.50     0.78      0.17                            1081000200715 
 1827.1     1489.35     0.82      0.17                            1081000200716 
 1827.1     1505.29     3.49      0.43                            1081000200717 
 1827.1     1523.38     0.73      0.18                            1081000200718 
 1827.1     1527.36     0.77      0.15                            1081000200719 
 1827.1     1555.10     1.36      0.21                            1081000200720 
 1827.1     1560.89     1.72      0.27                            1081000200721 
 1827.1     1568.64     1.58      0.23                            1081000200722 
 1827.1     1572.47     1.45      0.21                            1081000200723 
 1827.1     1578.33     0.63      0.15                            1081000200724 
 1827.1     1640.59     0.94      0.16                            1081000200725 
 1827.1     1679.10     0.49      0.13                            1081000200726 
 1827.1     1727.28     0.42      0.12                            1081000200727 
 1877.3      550.22     3.79      0.75                            1081000200728 
 1877.3      611.81    16.71      2.25                            1081000200729 
 1877.3      627.14     1.60      0.30                            1081000200730 
 1877.3      664.83    16.50      2.20                            1081000200731 
 1877.3      667.49     2.60      0.40                            1081000200732 
 1877.3      680.90     2.33      0.37                            1081000200733 
 1877.3      714.24     2.66      0.39                            1081000200734 
 1877.3      724.62     2.63      0.42                            1081000200735 
 1877.3      727.52     8.41      1.01                            1081000200736 
 1877.3      735.92    12.15      1.38                            1081000200737 
 1877.3      774.09     3.95      0.48                            1081000200738 
 1877.3      780.12    11.14      1.18                            1081000200739 
 1877.3      785.21     7.38      0.80                            1081000200740 
 1877.3      797.78     1.95      0.29                            1081000200741 
 1877.3      814.82     0.11      0.02                            1081000200742 
 1877.3      823.36     3.53      0.45                            1081000200743 
 1877.3      932.29     0.73      0.18                            1081000200744 
 1877.3      943.33     0.50      0.13                            1081000200745 
 1877.3      959.45     2.89      0.39                            1081000200746 
 1877.3      981.02     2.92      0.40                            1081000200747 
 1877.3      986.22     1.20      0.21                            1081000200748 
 1877.3     1004.20     1.03      0.20                            1081000200749 
 1877.3     1020.42     0.77      0.17                            1081000200750 
 1877.3     1023.79     5.98      0.80                            1081000200751 
 1877.3     1029.00     2.07      0.33                            1081000200752 
 1877.3     1045.00     0.95      0.20                            1081000200753 
 1877.3     1046.59     0.82      0.19                            1081000200754 
 1877.3     1053.51     0.81      0.18                            1081000200755 
 1877.3     1056.01     4.44      0.62                            1081000200756 
 1877.3     1072.50     6.65      0.96                            1081000200757 
 1877.3     1077.79     6.50      0.93                            1081000200758 
 1877.3     1132.90     3.07      0.48                            1081000200759 
 1877.3     1166.19     1.00      0.23                            1081000200760 
 1877.3     1224.88     0.77      0.20                            1081000200761 
 1877.3     1303.22     0.69      0.17                            1081000200762 
 1877.3     1322.19     1.70      0.33                            1081000200763 
 1877.3     1337.58     0.52      0.20                            1081000200764 
 1877.3     1387.28     0.39      0.14                            1081000200765 
 1877.3     1391.51     0.90      0.23                            1081000200766 
 1877.3     1400.88     1.30      0.28                            1081000200767 
 1877.3     1416.78     0.87      0.25                            1081000200768 
 1877.3     1430.58     1.45      0.32                            1081000200769 
 1877.3     1439.67     0.61      0.18                            1081000200770 
 1877.3     1446.46     0.53      0.18                            1081000200771 
 1877.3     1485.50     0.85      0.22                            1081000200772 
 1877.3     1489.35     0.78      0.20                            1081000200773 
 1877.3     1505.29     2.83      0.63                            1081000200774 
 1877.3     1523.38     0.38      0.14                            1081000200775 
 1877.3     1527.36     0.51      0.16                            1081000200776 
 1877.3     1555.10     0.91      0.22                            1081000200777 
 1877.3     1560.89     1.30      0.32                            1081000200778 
 1877.3     1568.64     1.49      0.35                            1081000200779 
 1877.3     1572.47     1.33      0.32                            1081000200780 
 1877.3     1578.33     0.66      0.20                            1081000200781 
 1877.3     1640.59     0.54      0.13                            1081000200782 
 1877.3     1679.10     0.63      0.18                            1081000200783 
 1877.3     1716.51     0.66      0.15                            1081000200784 
 1877.3     1727.28     0.57      0.18                            1081000200785 
 1877.3     1808.41     0.37      0.14                            1081000200786 
 1877.3     1825.29     0.82      0.23                            1081000200787 
 1972.8      550.22     3.86      0.81                            1081000200788 
 1972.8      611.81    15.83      2.45                            1081000200789 
 1972.8      627.14     1.53      0.44                            1081000200790 
 1972.8      664.83    15.49      2.10                            1081000200791 
 1972.8      667.49     3.18      0.36                            1081000200792 
 1972.8      680.90     2.10      0.37                            1081000200793 
 1972.8      714.24     2.64      0.43                            1081000200794 
 1972.8      724.62     2.60      0.42                            1081000200795 
 1972.8      727.52     8.11      0.99                            1081000200796 
 1972.8      735.92    11.26      1.31                            1081000200797 
 1972.8      774.09     2.98      0.40                            1081000200798 
 1972.8      780.12    10.66      1.17                            1081000200799 
 1972.8      785.21     6.31      0.67                            1081000200800 
 1972.8      797.78     1.89      0.30                            1081000200801 
 1972.8      814.82     0.57      0.24                            1081000200802 
 1972.8      823.36     2.31      0.32                            1081000200803 
 1972.8      932.29     1.00      0.21                            1081000200804 
 1972.8      943.33     0.67      0.19                            1081000200805 
 1972.8      959.45     2.75      0.40                            1081000200806 
 1972.8      981.02     2.75      0.41                            1081000200807 
 1972.8      986.22     1.72      0.31                            1081000200808 
 1972.8     1004.20     0.83      0.21                            1081000200809 
 1972.8     1020.42     1.12      0.23                            1081000200810 
 1972.8     1023.79     5.55      0.77                            1081000200811 
 1972.8     1029.00     1.85      0.32                            1081000200812 
 1972.8     1045.00     0.73      0.18                            1081000200813 
 1972.8     1046.59     1.12      0.24                            1081000200814 
 1972.8     1053.51     0.75      0.20                            1081000200815 
 1972.8     1056.01     4.17      0.62                            1081000200816 
 1972.8     1072.50     6.97      1.02                            1081000200817 
 1972.8     1077.79     5.85      0.87                            1081000200818 
 1972.8     1121.53     0.81      0.22                            1081000200819 
 1972.8     1132.90     3.15      0.52                            1081000200820 
 1972.8     1166.19     1.29      0.27                            1081000200821 
 1972.8     1224.88     0.63      0.20                            1081000200822 
 1972.8     1303.22     0.81      0.25                            1081000200823 
 1972.8     1322.19     1.23      0.29                            1081000200824 
 1972.8     1337.58     0.24      0.16                            1081000200825 
 1972.8     1387.28     0.29      0.12                            1081000200826 
 1972.8     1391.51     0.78      0.23                            1081000200827 
 1972.8     1400.88     1.45      0.33                            1081000200828 
 1972.8     1416.78     0.92      0.26                            1081000200829 
 1972.8     1430.58     1.73      0.39                            1081000200830 
 1972.8     1439.67     0.95      0.26                            1081000200831 
 1972.8     1446.46     0.77      0.22                            1081000200832 
 1972.8     1485.50     0.73      0.20                            1081000200833 
 1972.8     1489.35     0.73      0.21                            1081000200834 
 1972.8     1505.29     2.30      0.53                            1081000200835 
 1972.8     1523.38     0.44      0.17                            1081000200836 
 1972.8     1527.36     0.83      0.22                            1081000200837 
 1972.8     1560.89     1.27      0.33                            1081000200838 
 1972.8     1568.64     1.02      0.25                            1081000200839 
 1972.8     1572.47     0.58      0.14                            1081000200840 
 1972.8     1578.33     0.55      0.17                            1081000200841 
 1972.8     1640.59     1.45      0.35                            1081000200842 
 1972.8     1679.10     0.76      0.23                            1081000200843 
 1972.8     1716.51     0.40      0.14                            1081000200844 
 1972.8     1727.28     0.48      0.16                            1081000200845 
 1972.8     1808.41     0.59      0.15                            1081000200846 
 1972.8     1833.72     0.74      0.25                            1081000200847 
 2022.1      550.22     4.00      0.80                            1081000200848 
 2022.1      611.81    16.41      2.54                            1081000200849 
 2022.1      627.14     1.84      0.45                            1081000200850 
 2022.1      664.83    15.73      2.14                            1081000200851 
 2022.1      667.49     1.61      0.33                            1081000200852 
 2022.1      680.90     1.69      0.35                            1081000200853 
 2022.1      714.24     2.47      0.41                            1081000200854 
 2022.1      724.62     1.81      0.29                            1081000200855 
 2022.1      727.52     7.93      1.01                            1081000200856 
 2022.1      735.92    11.90      1.42                            1081000200857 
 2022.1      774.09     4.52      0.56                            1081000200858 
 2022.1      780.12    11.78      1.30                            1081000200859 
 2022.1      785.21     6.43      0.75                            1081000200860 
 2022.1      797.78     1.72      0.30                            1081000200861 
 2022.1      814.82     0.75      0.25                            1081000200862 
 2022.1      823.36     2.05      0.33                            1081000200863 
 2022.1      932.29     1.11      0.26                            1081000200864 
 2022.1      943.33     0.38      0.18                            1081000200865 
 2022.1      959.45     2.31      0.37                            1081000200866 
 2022.1      981.02     2.14      0.34                            1081000200867 
 2022.1      986.22     1.18      0.25                            1081000200868 
 2022.1     1004.20     0.54      0.20                            1081000200869 
 2022.1     1023.79     5.25      0.74                            1081000200870 
 2022.1     1029.00     2.18      0.40                            1081000200871 
 2022.1     1045.00     0.47      0.17                            1081000200872 
 2022.1     1046.59     0.62      0.19                            1081000200873 
 2022.1     1053.51     0.46      0.17                            1081000200874 
 2022.1     1056.01     4.37      0.62                            1081000200875 
 2022.1     1072.50     6.81      1.00                            1081000200876 
 2022.1     1077.79     4.29      0.67                            1081000200877 
 2022.1     1132.90     3.07      0.50                            1081000200878 
 2022.1     1166.19     0.78      0.21                            1081000200879 
 2022.1     1224.88     0.70      0.18                            1081000200880 
 2022.1     1303.22     0.62      0.19                            1081000200881 
 2022.1     1322.19     1.10      0.27                            1081000200882 
 2022.1     1337.58     0.42      0.16                            1081000200883 
 2022.1     1391.51     0.58      0.18                            1081000200884 
 2022.1     1400.88     0.92      0.21                            1081000200885 
 2022.1     1416.78     0.63      0.20                            1081000200886 
 2022.1     1430.58     1.44      0.34                            1081000200887 
 2022.1     1439.67     0.51      0.17                            1081000200888 
 2022.1     1446.46     0.59      0.21                            1081000200889 
 2022.1     1485.50     0.95      0.25                            1081000200890 
 2022.1     1489.35     0.57      0.23                            1081000200891 
 2022.1     1505.29     1.75      0.41                            1081000200892 
 2022.1     1527.36     0.55      0.19                            1081000200893 
 2022.1     1560.89     1.02      0.26                            1081000200894 
 2022.1     1568.64     1.11      0.33                            1081000200895 
 2022.1     1572.47     1.53      0.37                            1081000200896 
 2022.1     1578.33     0.75      0.20                            1081000200897 
 2022.1     1640.59     1.57      0.41                            1081000200898 
 2022.1     1679.10     1.10      0.31                            1081000200899 
 2022.1     1716.51     0.63      0.19                            1081000200900 
 2022.1     1727.28     0.30      0.12                            1081000200901 
 2022.1     1808.41     0.73      0.21                            1081000200902 
 2022.1     1825.29     0.83      0.25                            1081000200903 
 2022.1     1833.72     0.72      0.21                            1081000200904 
 2071.9      550.22     4.41      0.98                            1081000200905 
 2071.9      611.81    14.86      2.34                            1081000200906 
 2071.9      627.14     1.71      0.51                            1081000200907 
 2071.9      664.83    13.77      1.92                            1081000200908 
 2071.9      667.49     1.85      0.44                            1081000200909 
 2071.9      680.90     1.66      0.44                            1081000200910 
 2071.9      714.24     3.04      0.55                            1081000200911 
 2071.9      724.62     1.73      0.35                            1081000200912 
 2071.9      727.52     7.69      1.19                            1081000200913 
 2071.9      735.92    10.48      1.30                            1081000200914 
 2071.9      774.09     1.96      0.40                            1081000200915 
 2071.9      780.12    11.31      1.30                            1081000200916 
 2071.9      785.21     5.92      0.76                            1081000200917 
 2071.9      797.78     1.82      0.44                            1081000200918 
 2071.9      814.82     0.85      0.29                            1081000200919 
 2071.9      823.36     2.03      0.38                            1081000200920 
 2071.9      932.29     1.40      0.33                            1081000200921 
 2071.9      943.33     0.47      0.23                            1081000200922 
 2071.9      959.45     2.17      0.42                            1081000200923 
 2071.9      981.02     2.34      0.42                            1081000200924 
 2071.9      986.22     1.38      0.33                            1081000200925 
 2071.9     1004.20     0.89      0.21                            1081000200926 
 2071.9     1023.79     5.77      0.82                            1081000200927 
 2071.9     1029.00     1.58      0.32                            1081000200928 
 2071.9     1045.00     0.57      0.22                            1081000200929 
 2071.9     1046.59     0.48      0.10                            1081000200930 
 2071.9     1056.01     3.70      0.76                            1081000200931 
 2071.9     1072.50     6.49      0.98                            1081000200932 
 2071.9     1077.79     3.21      0.56                            1081000200933 
 2071.9     1132.90     2.90      0.53                            1081000200934 
 2071.9     1166.19     1.22      0.30                            1081000200935 
 2071.9     1224.88     0.77      0.26                            1081000200936 
 2071.9     1303.22     0.59      0.24                            1081000200937 
 2071.9     1322.19     0.94      0.29                            1081000200938 
 2071.9     1337.58     0.65      0.24                            1081000200939 
 2071.9     1391.51     0.82      0.25                            1081000200940 
 2071.9     1400.88     1.22      0.28                            1081000200941 
 2071.9     1430.58     1.56      0.40                            1081000200942 
 2071.9     1439.67     0.61      0.16                            1081000200943 
 2071.9     1446.46     0.72      0.24                            1081000200944 
 2071.9     1485.50     0.74      0.23                            1081000200945 
 2071.9     1489.35     0.56      0.27                            1081000200946 
 2071.9     1505.29     2.27      0.57                            1081000200947 
 2071.9     1527.36     0.71      0.24                            1081000200948 
 2071.9     1560.89     1.10      0.28                            1081000200949 
 2071.9     1568.64     1.21      0.33                            1081000200950 
 2071.9     1572.47     1.11      0.30                            1081000200951 
 2071.9     1578.33     0.56      0.20                            1081000200952 
 2071.9     1640.59     2.08      0.54                            1081000200953 
 2071.9     1679.10     0.60      0.22                            1081000200954 
 2071.9     1716.51     1.05      0.35                            1081000200955 
 2071.9     1727.28     0.35      0.15                            1081000200956 
 2071.9     1738.13     0.17      0.13                            1081000200957 
 2122.8      550.22     3.94      0.86                            1081000200958 
 2122.8      611.81    16.12      2.51                            1081000200959 
 2122.8      627.14     1.36      0.41                            1081000200960 
 2122.8      664.83    14.01      1.94                            1081000200961 
 2122.8      667.49     1.10      0.21                            1081000200962 
 2122.8      680.90     1.53      0.38                            1081000200963 
 2122.8      714.24     2.25      0.39                            1081000200964 
 2122.8      724.62     1.50      0.31                            1081000200965 
 2122.8      727.52     6.76      0.93                            1081000200966 
 2122.8      735.92    10.49      1.28                            1081000200967 
 2122.8      774.09     2.68      0.38                            1081000200968 
 2122.8      780.12    10.01      1.15                            1081000200969 
 2122.8      785.21     5.53      0.70                            1081000200970 
 2122.8      797.78     2.03      0.38                            1081000200971 
 2122.8      814.82     0.64      0.28                            1081000200972 
 2122.8      823.36     1.09      0.18                            1081000200973 
 2122.8      959.45     2.53      0.40                            1081000200974 
 2122.8      981.02     3.02      0.45                            1081000200975 
 2122.8      986.22     2.00      0.36                            1081000200976 
 2122.8     1004.20     1.11      0.26                            1081000200977 
 2122.8     1020.42     0.88      0.23                            1081000200978 
 2122.8     1023.79     5.10      0.73                            1081000200979 
 2122.8     1029.00     1.64      0.31                            1081000200980 
 2122.8     1045.00     0.43      0.17                            1081000200981 
 2122.8     1046.59     0.96      0.22                            1081000200982 
 2122.8     1056.01     3.93      0.61                            1081000200983 
 2122.8     1072.50     5.68      0.86                            1081000200984 
 2122.8     1077.79     4.00      0.64                            1081000200985 
 2122.8     1132.90     2.64      0.46                            1081000200986 
 2122.8     1166.19     0.86      0.23                            1081000200987 
 2122.8     1224.88     0.64      0.24                            1081000200988 
 2122.8     1303.22     0.35      0.18                            1081000200989 
 2122.8     1322.19     0.91      0.26                            1081000200990 
 2122.8     1337.58     0.40      0.17                            1081000200991 
 2122.8     1391.51     0.55      0.20                            1081000200992 
 2122.8     1400.88     1.61      0.24                            1081000200993 
 2122.8     1416.78     0.50      0.18                            1081000200994 
 2122.8     1430.58     1.05      0.27                            1081000200995 
 2122.8     1439.67     0.75      0.23                            1081000200996 
 2122.8     1446.46     0.60      0.19                            1081000200997 
 2122.8     1485.50     0.59      0.21                            1081000200998 
 2122.8     1489.35     0.39      0.12                            1081000200999 
 2122.8     1505.29     1.99      0.47                            1081000201000 
 2122.8     1527.36     0.63      0.21                            1081000201001 
 2122.8     1560.89     1.62      0.41                            1081000201002 
 2122.8     1568.64     1.28      0.33                            1081000201003 
 2122.8     1572.47     1.97      0.47                            1081000201004 
 2122.8     1578.33     0.71      0.21                            1081000201005 
 2122.8     1640.59     1.02      0.27                            1081000201006 
 2122.8     1716.51     0.21      0.15                            1081000201007 
 2122.8     1727.28     0.13      0.16                            1081000201008 
 2122.8     1738.13     0.13      0.13                            1081000201009 
 2122.8     1825.29     0.12      0.12                            1081000201010 
ENDDATA           1000          0                                 1081000201011 
ENDSUBENT         1010          0                                 1081000299999 
SUBENT        10810003   20110112                             13691081000300001 
BIB                  4          8                                 1081000300002 
REACTION   (90-TH-232(N,INL)90-TH-232,PAR,SIG)                    1081000300003 
ANALYSIS   (4PI1A) Obtained from inelastic gamma emission cross   1081000300004 
            section at 125 degrees by multiplying by 4pi, summing 1081000300005 
            for transitions which originate at a given level and  1081000300006 
            subtracting any feeding transitions.                  1081000300007 
STATUS     (DEP,10810002)                                         1081000300008 
HISTORY    (19820917A) BIB corrections.                           1081000300009 
           (20110112A) Second level energy field added.           1081000300010 
ENDBIB               8          0                                 1081000300011 
NOCOMMON             0          0                                 1081000300012 
DATA                 5        651                                 1081000300013 
EN         E-LVL      E-LVL      DATA       DATA-ERR              1081000300014 
KEV        KEV        KEV        MB         MB                    1081000300015 
  766.6      714.2                 81.0      11.2                 1081000300016 
  766.6      730.3                 15.8       4.0                 1081000300017 
  766.6      774.09     774.4      10.7       1.7                 1081000300018 
  817.9      713.2                147.9      19.4                 1081000300019 
  817.9      730.3                 45.2       8.7                 1081000300020 
  817.9      774.09     774.4      64.6      15.8                 1081000300021 
  817.9      785.2                  5.4       4.8                 1081000300022 
  836.5      713.2                205.6      23.4                 1081000300023 
  836.5      730.3                 47.6       6.9                 1081000300024 
  836.5      774.09     774.4      63.1      13.1                 1081000300025 
  836.5      785.2                 70.3      11.9                 1081000300026 
  836.5      829.5                 11.8       3.0                 1081000300027 
  867.9      713.2                197.6      18.6                 1081000300028 
  867.9      730.3                 59.9       5.2                 1081000300029 
  867.9      774.09     774.4     122.5      19.6                 1081000300030 
  867.9      785.2                146.5      11.7                 1081000300031 
  867.9      829.5                 14.1       2.6                 1081000300032 
  944.1      713.2                238.2      26.1                 1081000300033 
  944.1      730.3                 64.1       7.3                 1081000300034 
  944.1      774.09     774.4     227.0      28.3                 1081000300035 
  944.1      785.2                183.4      19.6                 1081000300036 
  944.1      829.4                 65.9       8.4                 1081000300037 
  944.1      889.6                 10.1       5.4                 1081000300038 
  967.7      713.2                260.0      31.1                 1081000300039 
  967.7      730.3                 67.6       8.4                 1081000300040 
  967.7      774.09     774.4     284.5      34.8                 1081000300041 
  967.7      785.2                183.9      21.6                 1081000300042 
  967.7      889.6                 11.9       5.4                 1081000300043 
 1043.4      713.2                234.3      24.9                 1081000300044 
 1043.4      730.3                 65.9       7.3                 1081000300045 
 1043.4      774.09     774.4     235.5      29.3                 1081000300046 
 1043.4      785.2                189.2      21.4                 1081000300047 
 1043.4      829.5                 95.0      11.7                 1081000300048 
 1043.4      889.6                 23.0       3.8                 1081000300049 
 1068.7      713.2                262.4      31.9                 1081000300050 
 1068.7      730.3                 76.9       9.7                 1081000300051 
 1068.7      774.09     774.4     300.8      37.1                 1081000300052 
 1068.7      785.2                232.9      27.9                 1081000300053 
 1068.7      829.5                113.1      14.7                 1081000300054 
 1068.7      872.7                 16.7       3.6                 1081000300055 
 1068.7      889.6                 57.9       9.1                 1081000300056 
 1068.7     1121.9                  2.8       1.5                 1081000300057 
 1155.1      713.2                239.0      25.5                 1081000300058 
 1155.1      730.3                 76.7       8.7                 1081000300059 
 1155.1      774.09     774.4     268.7      27.0                 1081000300060 
 1155.1      785.2                242.0      24.6                 1081000300061 
 1155.1      829.5                119.9      13.5                 1081000300062 
 1155.1      872.7                 30.6       4.3                 1081000300063 
 1155.1      889.6                 61.8       7.2                 1081000300064 
 1155.1     1053.6                 13.6       2.8                 1081000300065 
 1155.1     1073.2                 21.4       3.6                 1081000300066 
 1155.1     1078.3                 18.8       4.0                 1081000300067 
 1155.1     1105.4                  7.0       2.8                 1081000300068 
 1155.1     1121.9                  7.6       1.3                 1081000300069 
 1166.8      713.2                282.1      38.7                 1081000300070 
 1166.8      730.3                 80.2       9.9                 1081000300071 
 1166.8      774.09     774.4     332.4      35.7                 1081000300072 
 1166.8      785.2                253.3      29.4                 1081000300073 
 1166.8      829.5                139.1      16.5                 1081000300074 
 1166.8      872.7                 31.5       4.3                 1081000300075 
 1166.8      889.6                 62.5       8.7                 1081000300076 
 1166.8     1053.6                 14.2       4.4                 1081000300077 
 1166.8     1073.2                 35.0       5.4                 1081000300078 
 1166.8     1077.8                 22.1       4.3                 1081000300079 
 1166.8     1078.3                 24.1       4.1                 1081000300080 
 1166.8     1094.4                  5.0       2.1                 1081000300081 
 1166.8     1105.4                  8.0       2.1                 1081000300082 
 1166.8     1121.9                 18.8       3.5                 1081000300083 
 1169.5      713.2                251.1      29.0                 1081000300084 
 1169.5      730.3                 70.3       8.9                 1081000300085 
 1169.5      774.09     774.4     294.8      36.9                 1081000300086 
 1169.5      785.2                291.4      32.8                 1081000300087 
 1169.5      829.5                156.6      19.6                 1081000300088 
 1169.5      872.8                 32.0       5.2                 1081000300089 
 1169.5      889.6                 42.8       8.2                 1081000300090 
 1169.5     1073.2                 42.7       5.3                 1081000300091 
 1169.5     1077.8                 12.3       3.9                 1081000300092 
 1169.5     1078.3                 22.3       3.1                 1081000300093 
 1169.5     1105.4                 10.7       2.1                 1081000300094 
 1169.5     1121.9                 14.8       2.3                 1081000300095 
 1223.6      713.2                273.7      32.9                 1081000300096 
 1223.6      730.3                 70.6       9.9                 1081000300097 
 1223.6      774.09     774.4     345.6      41.6                 1081000300098 
 1223.6      785.2                297.8      33.8                 1081000300099 
 1223.6      829.5                151.1      18.2                 1081000300100 
 1223.6      872.7                 30.9       4.9                 1081000300101 
 1223.6      889.6                 60.8       7.6                 1081000300102 
 1223.6     1053.6                 10.3       1.9                 1081000300103 
 1223.6     1073.2                 64.4       7.0                 1081000300104 
 1223.6     1077.8                 30.7       5.2                 1081000300105 
 1223.6     1078.3                 27.9       3.9                 1081000300106 
 1223.6     1094.4                  5.4       2.4                 1081000300107 
 1223.6     1105.4                 24.0       3.5                 1081000300108 
 1223.6     1121.9                 62.9       8.5                 1081000300109 
 1269.7      713.2                264.5      31.7                 1081000300110 
 1269.7      730.3                 57.7       7.4                 1081000300111 
 1269.7      774.09     774.4     314.5      38.1                 1081000300112 
 1269.7      785.2                269.1      28.1                 1081000300113 
 1269.7      829.5                155.8      18.6                 1081000300114 
 1269.7      872.8                 26.1       4.3                 1081000300115 
 1269.7      883.3                  8.8       3.1                 1081000300116 
 1269.7      889.6                 51.0       7.8                 1081000300117 
 1269.7      960.2                 19.5      11.8                 1081000300118 
 1269.7     1053.6                 15.2       3.8                 1081000300119 
 1269.7     1073.2                 71.7       7.9                 1081000300120 
 1269.7     1077.8                 46.0       5.4                 1081000300121 
 1269.7     1078.3                 31.0       3.9                 1081000300122 
 1269.7     1094.4                  3.4       1.8                 1081000300123 
 1269.7     1105.4                 24.7       3.0                 1081000300124 
 1269.7     1121.9                 74.7       8.9                 1081000300125 
 1269.7     1143.1                  7.4       2.6                 1081000300126 
 1269.7     1182.5                  5.0       1.0                 1081000300127 
 1347.2      713.2                270.2      37.5                 1081000300128 
 1347.2      730.3                 63.2       9.4                 1081000300129 
 1347.2      774.09     774.4     333.8      48.4                 1081000300130 
 1347.2      785.2                231.4      27.5                 1081000300131 
 1347.2      829.5                143.3      18.5                 1081000300132 
 1347.2      872.7                 34.5       5.2                 1081000300133 
 1347.2      883.3                 22.8       7.7                 1081000300134 
 1347.2      889.6                 98.2      13.1                 1081000300135 
 1347.2     1053.6                 27.1       4.8                 1081000300136 
 1347.2     1073.2                 74.0      10.3                 1081000300137 
 1347.2     1077.8                 49.9       8.8                 1081000300138 
 1347.2     1078.3                 50.2       7.4                 1081000300139 
 1347.2     1094.4                 20.7       5.8                 1081000300140 
 1347.2     1105.4                 42.0       9.4                 1081000300141 
 1347.2     1121.9                 57.7       8.6                 1081000300142 
 1347.2     1143.1                 17.0       3.9                 1081000300143 
 1347.2     1182.5                 31.8       5.8                 1081000300144 
 1357.9      713.2                205.5      22.2                 1081000300145 
 1357.9      730.3                 52.7       5.8                 1081000300146 
 1357.9      774.09     774.4     281.4      30.7                 1081000300147 
 1357.9      785.2                223.3      22.4                 1081000300148 
 1357.9      829.5                138.2      14.5                 1081000300149 
 1357.9      872.7                 33.9       3.9                 1081000300150 
 1357.9      883.3                 10.4       2.3                 1081000300151 
 1357.9      889.6                 60.6       6.6                 1081000300152 
 1357.9      960.2                 21.0       4.4                 1081000300153 
 1357.9     1053.6                 30.8       5.5                 1081000300154 
 1357.9     1073.2                 73.6       8.4                 1081000300155 
 1357.9     1077.8                 64.8       6.8                 1081000300156 
 1357.9     1078.3                 46.9       5.7                 1081000300157 
 1357.9     1094.4                  9.8       1.4                 1081000300158 
 1357.9     1105.4                 49.3       5.8                 1081000300159 
 1357.9     1121.9                 96.9      10.7                 1081000300160 
 1357.9     1143.6                 18.9       2.6                 1081000300161 
 1357.9     1182.5                 36.8       5.3                 1081000300162 
 1376.9      713.2                233.4      27.3                 1081000300163 
 1376.9      730.3                 57.2       6.9                 1081000300164 
 1376.9      774.09     774.4     309.8      36.6                 1081000300165 
 1376.9      785.2                265.3      29.4                 1081000300166 
 1376.9      829.5                162.9      19.5                 1081000300167 
 1376.9      872.7                 41.7       5.2                 1081000300168 
 1376.9      883.3                 23.7       4.0                 1081000300169 
 1376.9      889.6                 75.3       9.1                 1081000300170 
 1376.9      960.2                 24.4       5.3                 1081000300171 
 1376.9     1053.6                 41.1       5.9                 1081000300172 
 1376.9     1073.2                 85.1       8.9                 1081000300173 
 1376.9     1077.8                 64.1       6.8                 1081000300174 
 1376.9     1078.3                 40.4       4.5                 1081000300175 
 1376.9     1094.4                 17.2       3.5                 1081000300176 
 1376.9     1105.4                 47.2       7.0                 1081000300177 
 1376.9     1121.9                142.0      17.2                 1081000300178 
 1376.9     1143.6                 21.2       5.4                 1081000300179 
 1376.9     1148.3                  8.9       2.3                 1081000300180 
 1376.9     1182.5                 38.9       5.8                 1081000300181 
 1427.3      713.2                243.4      29.5                 1081000300182 
 1427.3      730.3                 52.9       7.0                 1081000300183 
 1427.3      774.09     774.4     332.9      39.8                 1081000300184 
 1427.3      785.2                263.5      29.2                 1081000300185 
 1427.3      829.5                188.7      21.9                 1081000300186 
 1427.3      872.7                 46.2       6.3                 1081000300187 
 1427.3      883.3                 26.6       5.8                 1081000300188 
 1427.3      889.6                 87.3      11.1                 1081000300189 
 1427.3      960.2                 27.6       7.2                 1081000300190 
 1427.3     1053.6                 39.0       7.5                 1081000300191 
 1427.3     1073.2                 93.1       9.8                 1081000300192 
 1427.3     1077.8                 77.8       8.5                 1081000300193 
 1427.3     1078.3                 48.4       5.7                 1081000300194 
 1427.3     1094.4                 14.7       5.4                 1081000300195 
 1427.3     1105.4                 51.4       7.9                 1081000300196 
 1427.3     1121.9                156.8      18.1                 1081000300197 
 1427.3     1143.6                 25.4       6.4                 1081000300198 
 1427.3     1148.3                  7.6       2.6                 1081000300199 
 1427.3     1182.5                 43.2       6.8                 1081000300200 
 1427.3     1217.6                  3.7       2.6                 1081000300201 
 1477.9      713.2                222.7      26.4                 1081000300202 
 1477.9      730.3                 46.1       6.0                 1081000300203 
 1477.9      774.09     774.4     282.5      33.1                 1081000300204 
 1477.9      785.2                237.1      26.5                 1081000300205 
 1477.9      829.5                152.2      17.1                 1081000300206 
 1477.9      872.7                 47.7       6.3                 1081000300207 
 1477.9      883.3                 22.8       4.8                 1081000300208 
 1477.9      889.6                 79.0       9.4                 1081000300209 
 1477.9      960.2                 29.4       6.4                 1081000300210 
 1477.9     1053.6                 43.6       5.9                 1081000300211 
 1477.9     1073.2                 84.0       8.6                 1081000300212 
 1477.9     1077.8                 68.7       7.2                 1081000300213 
 1477.9     1078.3                 48.2       5.4                 1081000300214 
 1477.9     1094.4                 18.9       4.0                 1081000300215 
 1477.9     1105.4                 61.4       7.5                 1081000300216 
 1477.9     1121.9                148.4      17.2                 1081000300217 
 1477.9     1143.6                 21.7       3.0                 1081000300218 
 1477.9     1148.3                  8.1       2.1                 1081000300219 
 1477.9     1182.5                 43.3       5.8                 1081000300220 
 1537.2      713.2                228.4      27.4                 1081000300221 
 1537.2      730.3                 46.6       6.2                 1081000300222 
 1537.2      774.09     774.4     284.0      34.1                 1081000300223 
 1537.2      785.2                258.5      28.4                 1081000300224 
 1537.2      829.5                180.3      20.5                 1081000300225 
 1537.2      872.7                 34.2       4.2                 1081000300226 
 1537.2      883.3                 32.7       5.8                 1081000300227 
 1537.2      889.6                 83.6       9.8                 1081000300228 
 1537.2      960.2                 28.8       5.2                 1081000300229 
 1537.2     1053.6                 39.1       6.3                 1081000300230 
 1537.2     1073.2                 87.9       9.0                 1081000300231 
 1537.2     1077.8                 92.4       9.6                 1081000300232 
 1537.2     1078.3                 48.4       5.5                 1081000300233 
 1537.2     1094.4                 17.1       4.9                 1081000300234 
 1537.2     1105.4                 68.8       8.5                 1081000300235 
 1537.2     1121.9                158.7      18.2                 1081000300236 
 1537.2     1143.6                 32.0       4.2                 1081000300237 
 1537.2     1148.3                 11.7       2.5                 1081000300238 
 1537.2     1182.5                 51.2       7.0                 1081000300239 
 1537.2     1208.7                  5.4       1.8                 1081000300240 
 1537.2     1217.6                  6.2       2.8                 1081000300241 
 1537.2     1303.2                 11.2       2.0                 1081000300242 
 1537.2     1450.2                  5.2       1.8                 1081000300243 
 1537.2     1479.9                  6.8       2.0                 1081000300244 
 1571.3      713.2                202.8      28.5                 1081000300245 
 1571.3      730.3                 38.7       6.3                 1081000300246 
 1571.3      774.09     774.4     300.8      45.2                 1081000300247 
 1571.3      785.2                228.1      26.6                 1081000300248 
 1571.3      829.5                145.5      17.8                 1081000300249 
 1571.3      872.7                 43.6       6.3                 1081000300250 
 1571.3      883.3                 24.4       6.4                 1081000300251 
 1571.3      889.6                 91.7      11.3                 1081000300252 
 1571.3      960.2                 38.1       6.5                 1081000300253 
 1571.3     1053.6                 34.1       6.6                 1081000300254 
 1571.3     1073.2                 79.5      10.9                 1081000300255 
 1571.3     1077.8                 64.1       9.7                 1081000300256 
 1571.3     1078.3                 42.3       6.5                 1081000300257 
 1571.3     1094.4                 27.4       6.3                 1081000300258 
 1571.3     1105.4                 63.1      10.6                 1081000300259 
 1571.3     1121.9                140.6      21.3                 1081000300260 
 1571.3     1143.1                 23.4       3.9                 1081000300261 
 1571.3     1148.3                 17.8       3.6                 1081000300262 
 1571.3     1182.5                 38.0       7.4                 1081000300263 
 1571.3     1208.7                  6.3       2.9                 1081000300264 
 1571.3     1303.2                 12.1       3.1                 1081000300265 
 1571.3     1387.3                 11.9       2.8                 1081000300266 
 1571.3     1450.3                 13.8       4.0                 1081000300267 
 1571.3     1480.0                  6.9       2.6                 1081000300268 
 1627.0      713.2                243.9      29.2                 1081000300269 
 1627.0      730.3                 42.9       5.9                 1081000300270 
 1627.0      774.09     774.4     341.9      40.9                 1081000300271 
 1627.0      785.2                275.4      30.7                 1081000300272 
 1627.0      829.5                192.4      22.1                 1081000300273 
 1627.0      872.7                 45.0       5.7                 1081000300274 
 1627.0      883.3                 37.9       2.8                 1081000300275 
 1627.0      889.6                106.9      12.6                 1081000300276 
 1627.0      960.2                 38.4       7.4                 1081000300277 
 1627.0     1053.6                 38.6       6.0                 1081000300278 
 1627.0     1073.2                 97.0       9.9                 1081000300279 
 1627.0     1077.8                 96.5      10.1                 1081000300280 
 1627.0     1078.3                 48.4       4.9                 1081000300281 
 1627.0     1094.4                 26.7       5.4                 1081000300282 
 1627.0     1105.4                 72.2      11.1                 1081000300283 
 1627.0     1121.9                167.3      19.4                 1081000300284 
 1627.0     1143.6                 34.3       4.4                 1081000300285 
 1627.0     1148.3                 21.4       5.5                 1081000300286 
 1627.0     1182.5                 60.4       8.3                 1081000300287 
 1627.0     1208.7                  7.6       1.8                 1081000300288 
 1627.0     1217.6                  7.5       2.5                 1081000300289 
 1627.0     1303.2                 17.5       3.0                 1081000300290 
 1627.0     1387.3                 21.5       5.9                 1081000300291 
 1627.0     1450.3                 12.3       2.6                 1081000300292 
 1627.0     1480.0                 10.2       2.4                 1081000300293 
 1627.0     1484.3                 10.9       2.3                 1081000300294 
 1627.0     1489.4                  5.8       2.1                 1081000300295 
 1627.0     1554.7                 12.2       4.0                 1081000300296 
 1677.1      713.2                217.7      25.6                 1081000300297 
 1677.1      730.3                 32.0       4.4                 1081000300298 
 1677.1      774.09     774.4     319.3      37.3                 1081000300299 
 1677.1      785.2                268.4      29.5                 1081000300300 
 1677.1      829.5                186.7      21.2                 1081000300301 
 1677.1      872.7                 43.8       5.3                 1081000300302 
 1677.1      883.3                 36.1       4.9                 1081000300303 
 1677.1      889.6                104.9      12.1                 1081000300304 
 1677.1      960.2                 41.6       6.7                 1081000300305 
 1677.1     1053.6                 31.2       4.9                 1081000300306 
 1677.1     1073.2                 86.8       8.8                 1081000300307 
 1677.1     1077.8                 86.8       8.9                 1081000300308 
 1677.1     1078.3                 40.3       4.5                 1081000300309 
 1677.1     1094.4                 22.2       4.0                 1081000300310 
 1677.1     1105.4                 67.1       8.0                 1081000300311 
 1677.1     1121.9                149.2      16.8                 1081000300312 
 1677.1     1143.1                 31.3       3.9                 1081000300313 
 1677.1     1182.5                 56.8       7.0                 1081000300314 
 1677.1     1208.7                  6.7       1.6                 1081000300315 
 1677.1     1217.6                  2.6       2.0                 1081000300316 
 1677.1     1303.2                 16.1       2.8                 1081000300317 
 1677.1     1328.9                 11.3       3.6                 1081000300318 
 1677.1     1387.3                 28.2       6.2                 1081000300319 
 1677.1     1450.3                 18.8       2.9                 1081000300320 
 1677.1     1480.0                 18.3       2.6                 1081000300321 
 1677.1     1484.3                 17.3       2.6                 1081000300322 
 1677.1     1489.4                 16.1       3.9                 1081000300323 
 1677.1     1554.7                 28.8       5.4                 1081000300324 
 1677.1     1572.8                  3.8       1.8                 1081000300325 
 1745.9      713.2                249.9      34.8                 1081000300326 
 1745.9      730.3                 36.7       6.5                 1081000300327 
 1745.9      774.09     774.4     301.6      45.1                 1081000300328 
 1745.9      785.2                241.0      27.8                 1081000300329 
 1745.9      829.5                167.6      20.6                 1081000300330 
 1745.9      872.7                 35.9       5.4                 1081000300331 
 1745.9      883.3                 42.2       9.4                 1081000300332 
 1745.9      889.6                 96.2      13.1                 1081000300333 
 1745.9      960.2                 42.6       9.9                 1081000300334 
 1745.9     1053.6                 29.9       5.8                 1081000300335 
 1745.9     1073.2                 75.9      10.4                 1081000300336 
 1745.9     1077.8                 59.3       9.1                 1081000300337 
 1745.9     1078.3                 31.8       5.0                 1081000300338 
 1745.9     1094.4                 20.1       5.5                 1081000300339 
 1745.9     1105.4                 69.3      12.1                 1081000300340 
 1745.9     1121.9                155.5      23.0                 1081000300341 
 1745.9     1143.6                 43.1       6.2                 1081000300342 
 1745.9     1148.3                 29.2       7.2                 1081000300343 
 1745.9     1182.5                 47.7       9.0                 1081000300344 
 1745.9     1208.7                 10.9       2.5                 1081000300345 
 1745.9     1217.6                  4.1       3.5                 1081000300346 
 1745.9     1303.2                 11.6       3.1                 1081000300347 
 1745.9     1328.9                  6.5       3.8                 1081000300348 
 1745.9     1387.3                 30.3       7.9                 1081000300349 
 1745.9     1450.3                 18.7       4.2                 1081000300350 
 1745.9     1480.0                 17.3       4.3                 1081000300351 
 1745.9     1484.3                 17.9       4.2                 1081000300352 
 1745.9     1489.4                 11.2       3.9                 1081000300353 
 1745.9     1520.1                  2.7       1.4                 1081000300354 
 1745.9     1554.7                 57.5      14.2                 1081000300355 
 1745.9     1560.9                  4.1       1.8                 1081000300356 
 1745.9     1572.8                  8.2       3.8                 1081000300357 
 1745.9     1578.3                  5.4       3.8                 1081000300358 
 1745.9     1608.6                  2.9       1.9                 1081000300359 
 1745.9     1618.0                  7.6       2.4                 1081000300360 
 1745.9     1647.6                  3.3       1.9                 1081000300361 
 1745.9     1690.0                  5.0       2.0                 1081000300362 
 1759.2      713.2                212.4      22.0                 1081000300363 
 1759.2      730.3                 28.0       3.4                 1081000300364 
 1759.2      774.09     774.4     276.6      29.0                 1081000300365 
 1759.2      785.2                240.2      23.9                 1081000300366 
 1759.2      829.5                189.7      16.6                 1081000300367 
 1759.2      872.7                 36.7       4.0                 1081000300368 
 1759.2      883.3                 38.5       4.6                 1081000300369 
 1759.2      889.6                 77.6       7.9                 1081000300370 
 1759.2      960.2                 41.6       7.0                 1081000300371 
 1759.2     1053.6                 26.5       3.9                 1081000300372 
 1759.2     1073.2                 71.0       8.0                 1081000300373 
 1759.2     1077.8                 71.1       8.2                 1081000300374 
 1759.2     1078.3                 35.2       4.3                 1081000300375 
 1759.2     1094.4                 16.8       3.0                 1081000300376 
 1759.2     1105.4                 72.0       8.9                 1081000300377 
 1759.2     1121.9                130.9      16.1                 1081000300378 
 1759.2     1143.6                 31.9       3.8                 1081000300379 
 1759.2     1148.3                 17.2       3.4                 1081000300380 
 1759.2     1182.5                 54.8       8.0                 1081000300381 
 1759.2     1208.7                 12.3       1.8                 1081000300382 
 1759.2     1217.6                  4.3       1.9                 1081000300383 
 1759.2     1303.2                 13.1       2.1                 1081000300384 
 1759.2     1328.9                  7.2       1.6                 1081000300385 
 1759.2     1387.3                 22.5       5.6                 1081000300386 
 1759.2     1450.3                 22.0       3.3                 1081000300387 
 1759.2     1480.0                 19.9       3.0                 1081000300388 
 1759.2     1484.3                 15.1       2.4                 1081000300389 
 1759.2     1489.4                 16.5       2.9                 1081000300390 
 1759.2     1554.7                 41.0       8.5                 1081000300391 
 1759.2     1560.9                 10.6       2.0                 1081000300392 
 1759.2     1572.8                 12.6       3.2                 1081000300393 
 1759.2     1578.3                  5.3       2.4                 1081000300394 
 1759.2     1608.6                  4.5       1.3                 1081000300395 
 1759.2     1647.6                  6.3       1.5                 1081000300396 
 1759.2     1690.0                  4.1       1.3                 1081000300397 
 1777.3      713.2                233.9      27.9                 1081000300398 
 1777.3      730.3                 33.4       5.0                 1081000300399 
 1777.3      774.09     774.4     307.9      36.8                 1081000300400 
 1777.3      785.2                247.2      27.5                 1081000300401 
 1777.3      829.5                172.2      18.9                 1081000300402 
 1777.3      872.7                 40.0       5.0                 1081000300403 
 1777.3      883.3                 43.9       6.3                 1081000300404 
 1777.3      889.6                 91.5      10.8                 1081000300405 
 1777.3      960.2                 38.5       7.0                 1081000300406 
 1777.3     1053.6                 30.6       5.3                 1081000300407 
 1777.3     1073.2                 82.8       8.5                 1081000300408 
 1777.3     1077.8                 81.3       8.4                 1081000300409 
 1777.3     1078.3                 33.8       4.2                 1081000300410 
 1777.3     1094.4                 22.7       5.3                 1081000300411 
 1777.3     1105.4                 67.4       7.9                 1081000300412 
 1777.3     1121.9                144.5      16.5                 1081000300413 
 1777.3     1143.1                 35.4       4.3                 1081000300414 
 1777.3     1148.3                 21.1       3.1                 1081000300415 
 1777.3     1182.5                 54.4       7.5                 1081000300416 
 1777.3     1208.7                 13.6       2.3                 1081000300417 
 1777.3     1303.2                 14.0       2.8                 1081000300418 
 1777.3     1328.9                 11.3       4.2                 1081000300419 
 1777.3     1387.3                 27.4       7.0                 1081000300420 
 1777.3     1450.3                 23.7       3.6                 1081000300421 
 1777.3     1480.0                 19.9       3.3                 1081000300422 
 1777.3     1484.3                 19.2       2.9                 1081000300423 
 1777.3     1489.4                 16.7       4.2                 1081000300424 
 1777.3     1520.1                  6.6       2.0                 1081000300425 
 1777.3     1554.7                 55.3       9.1                 1081000300426 
 1777.3     1560.9                 14.3       2.7                 1081000300427 
 1777.3     1572.8                 14.7       4.0                 1081000300428 
 1777.3     1578.3                  5.7       3.1                 1081000300429 
 1777.3     1608.6                  2.8       1.4                 1081000300430 
 1777.3     1647.6                 10.8       2.4                 1081000300431 
 1777.3     1690.0                 11.7       1.4                 1081000300432 
 1777.3     1716.5                 11.8       2.0                 1081000300433 
 1777.3     1727.3                  1.2       0.3                 1081000300434 
 1827.1      713.2                234.1      28.9                 1081000300435 
 1827.1      730.3                 24.0       4.0                 1081000300436 
 1827.1      774.09     774.4     331.8      39.5                 1081000300437 
 1827.1      785.2                281.7      31.3                 1081000300438 
 1827.1      829.5                209.1      24.0                 1081000300439 
 1827.1      872.7                 33.6       4.4                 1081000300440 
 1827.1      883.3                 52.8       6.6                 1081000300441 
 1827.1      889.6                 83.4       9.7                 1081000300442 
 1827.1      960.2                 35.4       7.0                 1081000300443 
 1827.1     1053.6                 24.2       4.3                 1081000300444 
 1827.1     1073.2                 83.6       8.5                 1081000300445 
 1827.1     1077.8                 81.2       8.7                 1081000300446 
 1827.1     1078.3                 33.3       4.0                 1081000300447 
 1827.1     1094.4                 19.6       3.5                 1081000300448 
 1827.1     1105.4                 71.4       8.0                 1081000300449 
 1827.1     1121.9                156.3      17.6                 1081000300450 
 1827.1     1143.6                 32.7       4.0                 1081000300451 
 1827.1     1148.3                 28.3       5.4                 1081000300452 
 1827.1     1182.5                 54.2       6.8                 1081000300453 
 1827.1     1208.7                 11.5       1.9                 1081000300454 
 1827.1     1303.2                 12.1       2.5                 1081000300455 
 1827.1     1328.9                 15.9       4.1                 1081000300456 
 1827.1     1387.3                 27.8       6.9                 1081000300457 
 1827.1     1450.3                 23.2       3.9                 1081000300458 
 1827.1     1480.0                 19.7       3.0                 1081000300459 
 1827.1     1484.3                 19.0       2.9                 1081000300460 
 1827.1     1489.4                 20.9       4.2                 1081000300461 
 1827.1     1520.1                  3.2       1.9                 1081000300462 
 1827.1     1554.7                 71.6      10.3                 1081000300463 
 1827.1     1560.9                 21.7       3.4                 1081000300464 
 1827.1     1572.8                 27.3       4.9                 1081000300465 
 1827.1     1578.3                 25.1       5.9                 1081000300466 
 1827.1     1608.6                  7.9       2.0                 1081000300467 
 1827.1     1618.0                 19.8       2.9                 1081000300468 
 1827.1     1647.6                  9.8       2.1                 1081000300469 
 1827.1     1690.0                 11.8       2.0                 1081000300470 
 1827.1     1727.3                 11.5       3.1                 1081000300471 
 1877.3      713.2                240.7      33.8                 1081000300472 
 1877.3      730.3                 29.3       4.7                 1081000300473 
 1877.3      774.09     774.4     292.6      39.6                 1081000300474 
 1877.3      785.2                245.5      27.4                 1081000300475 
 1877.3      829.5                172.7      19.9                 1081000300476 
 1877.3      872.7                 44.3       5.7                 1081000300477 
 1877.3      883.3                 47.6       9.4                 1081000300478 
 1877.3      889.6                105.7      12.7                 1081000300479 
 1877.3      960.2                 44.6       7.4                 1081000300480 
 1877.3     1053.6                 23.1       4.8                 1081000300481 
 1877.3     1073.2                 75.1      10.1                 1081000300482 
 1877.3     1077.8                 81.7      11.7                 1081000300483 
 1877.3     1078.3                 26.0       4.1                 1081000300484 
 1877.3     1094.4                 21.1       4.8                 1081000300485 
 1877.3     1105.4                 62.0       9.4                 1081000300486 
 1877.3     1121.9                119.9      16.8                 1081000300487 
 1877.3     1143.6                 36.7       5.0                 1081000300488 
 1877.3     1148.3                 16.5       2.9                 1081000300489 
 1877.3     1182.5                 48.3       8.2                 1081000300490 
 1877.3     1208.7                 10.3       2.4                 1081000300491 
 1877.3     1303.2                  8.6       2.1                 1081000300492 
 1877.3     1328.9                 12.5       2.8                 1081000300493 
 1877.3     1387.3                 21.1       6.8                 1081000300494 
 1877.3     1450.3                 16.3       3.5                 1081000300495 
 1877.3     1480.0                 18.2       4.0                 1081000300496 
 1877.3     1484.3                 21.3       4.2                 1081000300497 
 1877.3     1489.4                 17.4       4.8                 1081000300498 
 1877.3     1554.7                 58.3      13.6                 1081000300499 
 1877.3     1560.9                 16.4       4.0                 1081000300500 
 1877.3     1572.8                 21.6       7.8                 1081000300501 
 1877.3     1578.3                 25.7       7.7                 1081000300502 
 1877.3     1608.6                  6.8       2.3                 1081000300503 
 1877.3     1618.0                 18.7       4.4                 1081000300504 
 1877.3     1647.6                 10.7       2.8                 1081000300505 
 1877.3     1690.0                  6.8       1.6                 1081000300506 
 1877.3     1716.5                  8.3       1.9                 1081000300507 
 1877.3     1727.3                 15.0       4.5                 1081000300508 
 1877.3     1808.4                  4.7       1.8                 1081000300509 
 1877.3     1825.3                 10.3       2.9                 1081000300510 
 1972.8      713.2                227.8      31.8                 1081000300511 
 1972.8      730.3                 26.4       4.7                 1081000300512 
 1972.8      774.09     774.4     269.0      41.4                 1081000300513 
 1972.8      785.2                220.9      24.9                 1081000300514 
 1972.8      829.5                173.9      19.2                 1081000300515 
 1972.8      872.7                 29.0       4.0                 1081000300516 
 1972.8      883.3                 48.5      10.2                 1081000300517 
 1972.8      889.6                101.9      12.4                 1081000300518 
 1972.8      960.2                 42.9       9.3                 1081000300519 
 1972.8     1053.6                 19.8       5.2                 1081000300520 
 1972.8     1073.2                 69.7       9.7                 1081000300521 
 1972.8     1077.8                 73.6      10.9                 1081000300522 
 1972.8     1078.3                 23.2       4.0                 1081000300523 
 1972.8     1094.4                 21.7       4.9                 1081000300524 
 1972.8     1105.4                 60.8      10.2                 1081000300525 
 1972.8     1121.9                132.3      17.8                 1081000300526 
 1972.8     1143.1                 34.6       5.2                 1081000300527 
 1972.8     1148.3                 28.8       6.9                 1081000300528 
 1972.8     1182.5                 53.8       9.4                 1081000300529 
 1972.8     1208.7                 14.0       3.0                 1081000300530 
 1972.8     1303.2                 10.1       3.1                 1081000300531 
 1972.8     1328.9                 16.2       3.4                 1081000300532 
 1972.8     1387.3                 10.9       4.5                 1081000300533 
 1972.8     1450.3                 18.2       4.2                 1081000300534 
 1972.8     1480.0                 21.7       4.9                 1081000300535 
 1972.8     1484.3                 15.4       3.6                 1081000300536 
 1972.8     1489.4                 21.2       5.9                 1081000300537 
 1972.8     1554.7                 38.6       9.3                 1081000300538 
 1972.8     1560.9                 15.9       4.2                 1081000300539 
 1972.8     1572.8                 12.8       3.7                 1081000300540 
 1972.8     1578.3                 28.8       8.9                 1081000300541 
 1972.8     1608.6                  9.7       2.8                 1081000300542 
 1972.8     1618.0                 12.8       3.1                 1081000300543 
 1972.8     1647.6                  9.2       2.5                 1081000300544 
 1972.8     1690.0                 18.2       4.5                 1081000300545 
 1972.8     1716.5                  4.9       1.8                 1081000300546 
 1972.8     1727.3                 15.6       4.9                 1081000300547 
 1972.8     1808.4                  7.4       1.9                 1081000300548 
 1972.8     1833.7                  9.3       3.1                 1081000300549 
 2022.1      713.2                228.7      32.0                 1081000300550 
 2022.1      730.3                 21.2       4.4                 1081000300551 
 2022.1      774.09     774.4     285.8      42.6                 1081000300552 
 2022.1      785.2                230.3      27.3                 1081000300553 
 2022.1      829.5                168.3      20.5                 1081000300554 
 2022.1      872.7                 25.8       4.2                 1081000300555 
 2022.1      883.3                 50.3      10.1                 1081000300556 
 2022.1      889.6                 99.6      12.7                 1081000300557 
 2022.1      960.2                 44.8       9.3                 1081000300558 
 2022.1     1053.6                 12.5       4.7                 1081000300559 
 2022.1     1073.2                 66.0       9.3                 1081000300560 
 2022.1     1077.8                 53.9       8.4                 1081000300561 
 2022.1     1078.3                 27.5       5.0                 1081000300562 
 2022.1     1094.4                 19.9       5.4                 1081000300563 
 2022.1     1105.4                 59.7       3.8                 1081000300564 
 2022.1     1121.9                114.6      17.2                 1081000300565 
 2022.1     1143.1                 26.8       4.3                 1081000300566 
 2022.1     1148.3                 24.2       6.3                 1081000300567 
 2022.1     1182.5                 38.6       6.2                 1081000300568 
 2022.1     1208.7                  7.8       2.4                 1081000300569 
 2022.1     1303.2                  7.8       2.4                 1081000300570 
 2022.1     1328.9                  9.7       2.6                 1081000300571 
 2022.1     1387.3                 14.1       4.3                 1081000300572 
 2022.1     1450.3                 11.6       4.0                 1081000300573 
 2022.1     1480.0                 18.2       7.7                 1081000300574 
 2022.1     1484.3                 13.9       3.4                 1081000300575 
 2022.1     1489.4                 13.5       5.0                 1081000300576 
 2022.1     1554.7                 29.3       7.4                 1081000300577 
 2022.1     1560.9                 12.8       3.3                 1081000300578 
 2022.1     1572.8                 19.2       4.7                 1081000300579 
 2022.1     1578.3                 24.4       8.8                 1081000300580 
 2022.1     1608.6                  7.4       2.6                 1081000300581 
 2022.1     1618.0                 13.9       4.2                 1081000300582 
 2022.1     1647.6                 11.9       3.1                 1081000300583 
 2022.1     1690.0                 19.7       5.2                 1081000300584 
 2022.1     1716.5                  8.7       2.4                 1081000300585 
 2022.1     1727.3                 17.6       5.4                 1081000300586 
 2022.1     1808.4                  9.2       2.6                 1081000300587 
 2022.1     1825.3                 10.4       3.1                 1081000300588 
 2022.1     1833.7                  9.0       2.0                 1081000300589 
 2071.9      713.2                211.2      31.0                 1081000300590 
 2071.9      730.3                 20.9       5.5                 1081000300591 
 2071.9      774.09     774.4     233.1      38.8                 1081000300592 
 2071.9      785.2                206.0      25.9                 1081000300593 
 2071.9      829.5                165.4      21.9                 1081000300594 
 2071.9      872.7                 28.3       4.2                 1081000300595 
 2071.9      883.3                 55.4      12.3                 1081000300596 
 2071.9      889.6                 96.6      15.0                 1081000300597 
 2071.9      960.2                 44.3      11.9                 1081000300598 
 2071.9     1053.6                 11.2       2.6                 1081000300599 
 2071.9     1073.2                 72.5      10.3                 1081000300600 
 2071.9     1077.8                 40.3       7.0                 1081000300601 
 2071.9     1078.3                 19.8       4.0                 1081000300602 
 2071.9     1094.4                 24.8       6.9                 1081000300603 
 2071.9     1105.4                 52.4      12.4                 1081000300604 
 2071.9     1121.9                108.8      17.6                 1081000300605 
 2071.9     1143.1                 30.0       5.3                 1081000300606 
 2071.9     1148.3                 28.1       7.8                 1081000300607 
 2071.9     1182.5                 36.5       6.7                 1081000300608 
 2071.9     1208.7                  6.1       1.3                 1081000300609 
 2071.9     1303.2                  7.4       3.0                 1081000300610 
 2071.9     1328.9                 15.3       3.8                 1081000300611 
 2071.9     1387.3                 17.8       6.3                 1081000300612 
 2071.9     1450.3                 15.3       3.5                 1081000300613 
 2071.9     1480.0                 19.6       8.7                 1081000300614 
 2071.9     1484.3                 11.8       3.6                 1081000300615 
 2071.9     1489.4                 14.7       5.4                 1081000300616 
 2071.9     1554.7                 38.9      10.3                 1081000300617 
 2071.9     1560.9                 13.8       3.5                 1081000300618 
 2071.9     1572.8                 13.9       3.8                 1081000300619 
 2071.9     1578.3                 15.9       5.5                 1081000300620 
 2071.9     1608.6                  9.1       3.0                 1081000300621 
 2071.9     1618.0                 15.2       4.1                 1081000300622 
 2071.9     1647.6                  9.3       2.9                 1081000300623 
 2071.9     1690.0                 26.2       6.8                 1081000300624 
 2071.9     1716.5                 13.3       4.6                 1081000300625 
 2071.9     1727.3                 12.0       4.7                 1081000300626 
 2071.9     1738.1                  2.1       1.6                 1081000300627 
 2122.8      713.2                204.3      29.3                 1081000300628 
 2122.8      730.3                 19.2       4.8                 1081000300629 
 2122.8      774.09     774.4     255.0      40.2                 1081000300630 
 2122.8      785.2                201.3      24.9                 1081000300631 
 2122.8      829.5                139.6      17.1                 1081000300632 
 2122.8      872.7                 13.7       2.3                 1081000300633 
 2122.8      883.3                 49.6      10.8                 1081000300634 
 2122.8      889.6                 84.9       9.2                 1081000300635 
 2122.8      960.2                 42.7       9.9                 1081000300636 
 2122.8     1053.6                 14.0       3.3                 1081000300637 
 2122.8     1073.2                 64.1       9.1                 1081000300638 
 2122.8     1077.8                 50.3       8.0                 1081000300639 
 2122.8     1078.3                 20.6       3.9                 1081000300640 
 2122.8     1094.4                  5.4       2.3                 1081000300641 
 2122.8     1105.4                 49.4      10.6                 1081000300642 
 2122.8     1121.9                103.1      15.8                 1081000300643 
 2122.8     1143.6                 37.8       5.7                 1081000300644 
 2122.8     1148.3                 33.1       8.0                 1081000300645 
 2122.8     1182.5                 33.1       8.7                 1081000300646 
 2122.8     1208.7                 12.1       2.8                 1081000300647 
 2122.8     1303.2                  4.4       2.3                 1081000300648 
 2122.8     1328.9                 10.6       2.9                 1081000300649 
 2122.8     1387.3                 13.0       5.2                 1081000300650 
 2122.8     1450.3                 20.2       3.0                 1081000300651 
 2122.8     1480.0                 13.3       3.3                 1081000300652 
 2122.8     1484.3                 11.4       3.3                 1081000300653 
 2122.8     1489.4                 14.4       4.4                 1081000300654 
 2122.8     1554.7                 32.0       8.4                 1081000300655 
 2122.8     1560.9                 20.3       5.2                 1081000300656 
 2122.8     1572.8                 24.7       5.9                 1081000300657 
 2122.8     1578.3                 23.1       7.5                 1081000300658 
 2122.8     1608.6                  7.5       2.4                 1081000300659 
 2122.8     1618.0                 16.1       4.2                 1081000300660 
 2122.8     1647.6                  7.5       2.6                 1081000300661 
 2122.8     1690.0                 12.8       3.4                 1081000300662 
 2122.8     1716.5                  2.6       1.9                 1081000300663 
 2122.8     1727.3                  1.6       2.0                 1081000300664 
 2122.8     1738.1                  1.6       1.6                 1081000300665 
 2122.8     1825.3                  1.5       1.5                 1081000300666 
ENDDATA            653          0                                 1081000300667 
ENDSUBENT          666          0                                 1081000399999 
ENDENTRY             3          0                                 1081099999999 
