ENTRY            10895   19800718                             00001089500000001 
SUBENT        10895001   19800718                             00001089500100001 
BIB                 13         28                                 1089500100002 
INSTITUTE  (1USAORL)                                              1089500100003 
REFERENCE  (J,NSE,71,205,7908)                                    1089500100004 
AUTHOR     (R.L.MACKLIN,R.W.INGLE,J.HALPERIN)                     1089500100005 
TITLE      LI-6(N,ALPHA)1-H-3 CROSS SECTION FROM 70 TO 3000-KEV   1089500100006 
            FROM THE U-235(N,FISSION) CALIBRATION OF A THIN GLASS 1089500100007 
            SCINTILLATOR                                          1089500100008 
FACILITY   (LINAC) OAK RIDGE ELECTRON LINEAR ACCELERATOR          1089500100009 
SAMPLE     LITHIUM-6 GLASS SCINTILLATOR, 0.5-MM THICK, 39.698-M   1089500100010 
            FROM NEUTRON SOURCE                                   1089500100011 
DETECTOR   (FISCH) TEN SECTION FISSION CHAMBER PLACED BETWEEN TWO 1089500100012 
            0.125-MM THICK MYLAR WINDOWS. CHAMBER CONTAINS        1089500100013 
            2 MG/SQ-CM OF U-235 SPREAD OVER TWENTY 3.4 MG/SQ-CM   1089500100014 
            THICK AL FOILS.                                       1089500100015 
MONITOR    (92-U-235(N,F),,SIG) FROM ENDF/B-V TO NORMALIZE DATA   1089500100016 
           AM-241 ALPHA SOURCE USED TO CHECK OVERALL EFFICIENCY   1089500100017 
            OF MONITORING SYSTEM.                                 1089500100018 
METHOD     (TOF) TIME OF FLIGHT, FLIGHT PATH OF 40.615-METERS.    1089500100019 
            BEAM COLLIMATED TO A 2.5 BY 5.0-CM RECTANGLE AT LI-6  1089500100020 
            TARGET POSITION. B-10 FILTER, 0.48 GM/SQ-CM THICK,    1089500100021 
            USED TO ELIMINATE OVERLAP NEUTRONS. U-238 FILTER,     1089500100022 
            11.7 GM/SQ-CM THICK, USED TO REDUCE GAMMA FLASH.      1089500100023 
CORRECTION DATA CORRECTED FOR TRANSMISSION EFFECTS THROUGH THE    1089500100024 
            MYLAR AND ALUMINUM FLIGHT PATH WINDOWS OF THE FISSION 1089500100025 
            CHAMBER.                                              1089500100026 
ERR-ANALYS NO INFORMATION                                         1089500100027 
STATUS     (APRVD) APPROVED BY R.L.MACKLIN, 80/7/18               1089500100028 
HISTORY    (800204C)                                              1089500100029 
           (800718U) STATUS CHANGED TO APPROVED                   1089500100030 
ENDBIB              28          0                                 1089500100031 
NOCOMMON             0          0                                 1089500100032 
ENDSUBENT           31          0                                 1089500199999 
SUBENT        10895002   19800314                             00001089500200001 
BIB                  1          1                                 1089500200002 
REACTION   (3-LI-6(N,T)2-HE-4,,SIG)                               1089500200003 
ENDBIB               1          0                                 1089500200004 
NOCOMMON             0          0                                 1089500200005 
DATA                 2        106                                 1089500200006 
EN         DATA                                                   1089500200007 
MEV        B                                                      1089500200008 
  .070      6.6500E-01                                            1089500200009 
  .080      6.6100E-01                                            1089500200010 
  .090      6.6700E-01                                            1089500200011 
  .100      6.8200E-01                                            1089500200012 
  .110      7.0600E-01                                            1089500200013 
  .120      7.4200E-01                                            1089500200014 
  .130      7.9100E-01                                            1089500200015 
  .140      8.5800E-01                                            1089500200016 
  .150      9.4800E-01                                            1089500200017 
  .160      1.0680E+00                                            1089500200018 
  .170      1.2280E+00                                            1089500200019 
  .180      1.4090E+00                                            1089500200020 
  .190      1.7190E+00                                            1089500200021 
  .200      2.0750E+00                                            1089500200022 
  .205      2.2710E+00                                            1089500200023 
  .210      2.4870E+00                                            1089500200024 
  .215      2.7160E+00                                            1089500200025 
  .216      2.7600E+00                                            1089500200026 
  .217      2.8040E+00                                            1089500200027 
  .218      2.8470E+00                                            1089500200028 
  .219      2.8900E+00                                            1089500200029 
  .220      2.9330E+00                                            1089500200030 
  .221      2.9720E+00                                            1089500200031 
  .222      3.0120E+00                                            1089500200032 
  .223      3.0530E+00                                            1089500200033 
  .224      3.0910E+00                                            1089500200034 
  .225      3.1240E+00                                            1089500200035 
  .226      3.1550E+00                                            1089500200036 
  .227      3.1850E+00                                            1089500200037 
  .228      3.2120E+00                                            1089500200038 
  .229      3.2370E+00                                            1089500200039 
  .230      3.2600E+00                                            1089500200040 
  .231      3.2830E+00                                            1089500200041 
  .232      3.3000E+00                                            1089500200042 
  .233      3.3210E+00                                            1089500200043 
  .234      3.3350E+00                                            1089500200044 
  .235      3.3480E+00                                            1089500200045 
  .236      3.3580E+00                                            1089500200046 
  .237      3.3680E+00                                            1089500200047 
  .238      3.3710E+00                                            1089500200048 
  .239      3.3730E+00                                            1089500200049 
  .240      3.3700E+00                                            1089500200050 
  .241      3.3680E+00                                            1089500200051 
  .242      3.3600E+00                                            1089500200052 
  .243      3.3490E+00                                            1089500200053 
  .244      3.3370E+00                                            1089500200054 
  .245      3.3180E+00                                            1089500200055 
  .246      3.3020E+00                                            1089500200056 
  .247      3.2820E+00                                            1089500200057 
  .248      3.2610E+00                                            1089500200058 
  .249      3.2400E+00                                            1089500200059 
  .250      3.2160E+00                                            1089500200060 
  .251      3.1950E+00                                            1089500200061 
  .252      3.1700E+00                                            1089500200062 
  .253      3.1470E+00                                            1089500200063 
  .254      3.1200E+00                                            1089500200064 
  .255      3.0920E+00                                            1089500200065 
  .256      3.0650E+00                                            1089500200066 
  .257      3.0370E+00                                            1089500200067 
  .258      3.0070E+00                                            1089500200068 
  .259      2.9770E+00                                            1089500200069 
  .260      2.9450E+00                                            1089500200070 
  .261      2.9130E+00                                            1089500200071 
  .262      2.8790E+00                                            1089500200072 
  .263      2.8450E+00                                            1089500200073 
  .264      2.8100E+00                                            1089500200074 
  .265      2.7740E+00                                            1089500200075 
  .266      2.7400E+00                                            1089500200076 
  .267      2.7030E+00                                            1089500200077 
  .268      2.6680E+00                                            1089500200078 
  .269      2.6320E+00                                            1089500200079 
  .270      2.5960E+00                                            1089500200080 
  .275      2.4060E+00                                            1089500200081 
  .280      2.2350E+00                                            1089500200082 
  .285      2.0610E+00                                            1089500200083 
  .290      1.8950E+00                                            1089500200084 
  .295      1.7470E+00                                            1089500200085 
  .300      1.6130E+00                                            1089500200086 
  .305      1.4950E+00                                            1089500200087 
  .310      1.3890E+00                                            1089500200088 
  .320      1.2120E+00                                            1089500200089 
  .340      9.5900E-01                                            1089500200090 
  .360      7.9500E-01                                            1089500200091 
  .380      6.8200E-01                                            1089500200092 
  .400      6.0200E-01                                            1089500200093 
  .425      5.2800E-01                                            1089500200094 
  .450      4.7500E-01                                            1089500200095 
  .475      4.3600E-01                                            1089500200096 
  .500      4.0500E-01                                            1089500200097 
  .550      3.6000E-01                                            1089500200098 
  .600      3.3200E-01                                            1089500200099 
  .650      3.1100E-01                                            1089500200100 
  .700      2.9600E-01                                            1089500200101 
  .800      2.7600E-01                                            1089500200102 
  .900      2.6300E-01                                            1089500200103 
 1.000      2.5200E-01                                            1089500200104 
 1.200      2.4400E-01                                            1089500200105 
 1.400      2.4200E-01                                            1089500200106 
 1.600      2.4400E-01                                            1089500200107 
 1.800      2.4500E-01                                            1089500200108 
 2.000      2.4400E-01                                            1089500200109 
 2.200      2.3900E-01                                            1089500200110 
 2.400      2.2700E-01                                            1089500200111 
 2.600      2.1200E-01                                            1089500200112 
 2.800      1.9400E-01                                            1089500200113 
 3.000      1.8300E-01                                            1089500200114 
ENDDATA            108          0                                 1089500200115 
ENDSUBENT          114          0                                 1089500299999 
ENDENTRY             2          0                                 1089599999999 
