ENTRY            10920   19891109                             00001092000000001 
SUBENT        10920001   19891109                             00001092000100001 
BIB                 11         26                                 1092000100002 
INSTITUTE  (1USAANL)                                              1092000100003 
REFERENCE  (J,PR/C,22,152,8007)                                   1092000100004 
AUTHOR     (L.E.GLENDENIN,J.E.GINDLER,I.AHMAD,D.J.HENDERSON,      1092000100005 
           J.W.MEADOWS)                                           1092000100006 
TITLE      MASS DISTRIBUTIONS IN MONOENERGETIC NEUTRON INDUCED    1092000100007 
            FISSION OF TH-232                                     1092000100008 
FACILITY   (DYNAM) ARGONNE FAST NEUTRON GENERATOR FACILITY        1092000100009 
INC-SOURCE (P-LI7) PROTONS ON LITHIUM FOR NEUTRONS BELOW 5-MEV    1092000100010 
           (D-D) DEUTERONS ON DEUTERIUM FOR NEUTRONS ABOVE 5-MEV  1092000100011 
SAMPLE     THORIUM SAMPLE, 2.54-CM DIAMETER BY 0.0254-CM THICK    1092000100012 
            WITH AVERAGE MASS OF 1.3-GMS.                         1092000100013 
MONITOR    (92-U-238(N,F),,SIG)                                   1092000100014 
           U-238 MONITOR USED TO PROVIDE APPROXIMATE FISSION RATE.1092000100015 
            FISSION YIELDS PLACED ON ABSOLUTE SCALE BY            1092000100016 
            NORMALIZATION OF COMPLETE MASS DISTRIBUTION TO        1092000100017 
            200-PERCENT TOTAL YIELD.                              1092000100018 
           THERMAL INDUCED NEUTRON FISSION OF U-235 USED TO CHECK 1092000100019 
            GAMMA INTENSITIES OF DECAY DATA                       1092000100020 
ERR-ANALYS UNCERTAINTIES IN FISSION YIELDS INCLUDE ALL KNOWN      1092000100021 
            SOURCES OF SYSTEMATIC ERROR. TWO PERCENT UNCERTAINTY  1092000100022 
            IN THE FISSION RATE OBTAINED FROM THE NORMALIZATION   1092000100023 
            PROCEDURE.                                            1092000100024 
STATUS     (APRVD) APPROVED BY L.E.GLENDENIN 81/3/26.             1092000100025 
HISTORY    (801219C)                                              1092000100026 
           (820108A) DECAY DATA MOVED TO SAN=2.                   1092000100027 
           (891109A) BIB UPDATE                                   1092000100028 
ENDBIB              26          0                                 1092000100029 
NOCOMMON             0          0                                 1092000100030 
ENDSUBENT           29          0                                 1092000199999 
SUBENT        10920002   19820108                             00001092000200001 
BIB                  6         30                                 1092000200002 
REACTION   (90-TH-232(N,F)MASS,CHN,FY)                            1092000200003 
METHOD     (RCHEM) CHEMICAL SEPERATION FOLLOWED BY BETA COUNTING  1092000200004 
            COMPUTER PROGRAM CLSQ USED TO OBTAIN ACTIVITIES.      1092000200005 
DETECTOR   (FISCH) LOW MASS FISSION CHAMBER WITH THIN STANDARDIZED1092000200006 
            DEPOSIT OF U-238 TO MONITOR FISSION RATE              1092000200007 
           (PROPC) CALIBRATED LOW BACKGROUND BETA PROPORTIONAL    1092000200008 
            COUNTER WITH AUTOMATIC SAMPLE CHANGER.                1092000200009 
DECAY-DATA ((1.)33-AS-77,38.8HR,B)                                1092000200010 
           ((2.)33-AS-78,91.MIN,B)                                1092000200011 
           ((3.)44-RU-103,39.4D,B)                                1092000200012 
           ((4.)44-RU-105,4.44HR,B)                               1092000200013 
           ((5.)46-PD-109-G,13.43HR,B)                            1092000200014 
           ((6.)47-AG-111-G,7.45D,B)                              1092000200015 
           ((7.)46-PD-112,21.0HR,B)                               1092000200016 
           ((8.)48-CD-115-G,53.4HR,B)                             1092000200017 
           ((9.)50-SN-121-G,27.1HR,B)                             1092000200018 
           ((10.)51-SB-127,3.9D,B)                                1092000200019 
           ((11.)51-SB-129,4.35HR,DG,812.6,.435,B)                1092000200020 
           DECAY DATA FOR BETA EMITTERS TAKEN BY COMPILER FROM    1092000200021 
            CHART OF THE NUCLIDES.                                1092000200022 
CORRECTION CORRECTIONS MADE FOR CONTRIBUTIONS TO FISSION RATE FROM1092000200023 
            OFF-ENERGY NEUTRONS FROM P-LI SOURCE REACTION,        1092000200024 
            NEUTRONS FROM DEUTERON STRIPPING REACTIONS, AND       1092000200025 
            INELASTIC AND ELASTIC SCATTERING BY THE ROOM          1092000200026 
            ENVIROMENT. THESE CORRECTIONS RANGE FROM 1 TO 8% FOR  1092000200027 
            MASSES 103 TO 127.                                    1092000200028 
           NO CORRECTION MADE FOR POSSIBLE CHARGE DISTRIBUTION    1092000200029 
            EFFECTS.                                              1092000200030 
HISTORY    (820108A) DECAY DATA MOVED FROM SAN=1.                 1092000200031 
           (891109A) DATA SPLIT INTO 2 SETS BY METHOD, RESORTED   1092000200032 
ENDBIB              30          0                                 1092000200033 
NOCOMMON             0          0                                 1092000200034 
DATA                 6         62                                 1092000200035 
EN         MASS       DATA       DATA-MAX   DATA-ERR   DECAY-FLAG 1092000200036 
MEV        NO-DIM     PC/FIS     PC/FIS     PC/FIS     NO-DIM     1092000200037 
 2.0        111.                  0.004                  6.       1092000200038 
 2.0        115.       0.005                 0.001       8.       1092000200039 
 2.0        127.       0.003                 0.001      10.       1092000200040 
 2.0        129.       0.11                  0.02       11.       1092000200041 
 3.0        103.                  0.15                   3.       1092000200042 
 3.0        105.                  0.011                  4.       1092000200043 
 3.0        109.       0.016                 0.007       5.       1092000200044 
 3.0        111.       0.027                 0.003       6.       1092000200045 
 3.0        112.       0.028                 0.004       7.       1092000200046 
 3.0        115.       0.023                 0.004       8.       1092000200047 
 3.0        129.       0.09                  0.02       11.       1092000200048 
 4.0        103.       0.15                  0.04        3.       1092000200049 
 4.0        105.       0.037                 0.004       4.       1092000200050 
 4.0        109.       0.036                 0.005       5.       1092000200051 
 4.0        111.       0.076                 0.008       6.       1092000200052 
 4.0        112.       0.097                 0.011       7.       1092000200053 
 4.0        115.       0.099                 0.015       8.       1092000200054 
 4.0        121.       0.063                 0.010       9.       1092000200055 
 4.0        127.       0.056                 0.011      10.       1092000200056 
 4.0        129.       0.32                  0.06       11.       1092000200057 
 5.9        103.       0.67                  0.10        3.       1092000200058 
 5.9        105.       0.24                  0.05        4.       1092000200059 
 5.9        109.       0.19                  0.03        5.       1092000200060 
 5.9        111.       0.29                  0.03        6.       1092000200061 
 5.9        112.       0.30                  0.04        7.       1092000200062 
 5.9        115.       0.27                  0.04        8.       1092000200063 
 5.9        121.       0.19                  0.03        9.       1092000200064 
 5.9        127.       0.22                  0.04       10.       1092000200065 
 5.9        129.       0.64                  0.13       11.       1092000200066 
 6.4         77.       0.039                 0.006       1.       1092000200067 
 6.4         78.       0.065                 0.010       2.       1092000200068 
 6.4        103.       0.16                  0.04        3.       1092000200069 
 6.4        105.       0.13                  0.02        4.       1092000200070 
 6.4        109.       0.14                  0.03        5.       1092000200071 
 6.4        111.       0.20                  0.03        6.       1092000200072 
 6.4        112.       0.24                  0.04        7.       1092000200073 
 6.4        115.       0.23                  0.04        8.       1092000200074 
 6.4        121.       0.14                  0.03        9.       1092000200075 
 6.4        127.       0.18                  0.03       10.       1092000200076 
 6.4        129.       0.47                  0.07       11.       1092000200077 
 6.9        105.       0.18                  0.03        4.       1092000200078 
 6.9        109.       0.13                  0.02        5.       1092000200079 
 6.9        111.       0.17                  0.02        6.       1092000200080 
 6.9        112.       0.18                  0.03        7.       1092000200081 
 6.9        115.       0.20                  0.03        8.       1092000200082 
 6.9        127.       0.15                  0.03       10.       1092000200083 
 6.9        129.       0.37                  0.07       11.       1092000200084 
 7.6         77.       0.029                 0.004       1.       1092000200085 
 7.6         78.       0.078                 0.012       2.       1092000200086 
 7.6        109.       0.18                  0.04        5.       1092000200087 
 7.6        111.       0.22                  0.03        6.       1092000200088 
 7.6        112.       0.26                  0.04        7.       1092000200089 
 7.6        115.       0.20                  0.03        8.       1092000200090 
 7.6        121.       0.21                  0.04        9.       1092000200091 
 7.6        127.       0.20                  0.03       10.       1092000200092 
 7.6        129.       0.48                  0.07       11.       1092000200093 
 8.0        109.       0.18                  0.04        5.       1092000200094 
 8.0        111.       0.28                  0.03        6.       1092000200095 
 8.0        112.       0.28                  0.05        7.       1092000200096 
 8.0        115.       0.29                  0.04        8.       1092000200097 
 8.0        127.       0.26                  0.05       10.       1092000200098 
 8.0        129.       0.40                  0.08       11.       1092000200099 
ENDDATA             64          0                                 1092000200100 
ENDSUBENT           99          0                                 1092000299999 
SUBENT        10920003   19891109                             00001092000300001 
BIB                  2          2                                 1092000300002 
REACTION   (90-TH-232(N,F),,NU,,,DERIV)                           1092000300003 
METHOD     CALCULATED FROM YIELDS USING CONSERVATION OF MASS      1092000300004 
ENDBIB               2          0                                 1092000300005 
NOCOMMON             0          0                                 1092000300006 
DATA                 2          9                                 1092000300007 
EN         DATA                                                   1092000300008 
MEV        NO-DIM                                                 1092000300009 
 2.0        2.3                                                   1092000300010 
 3.0        2.4                                                   1092000300011 
 4.0        2.6                                                   1092000300012 
 5.9        2.7                                                   1092000300013 
 6.4        3.0                                                   1092000300014 
 6.9        3.4                                                   1092000300015 
 7.6        3.3                                                   1092000300016 
 8.0        3.3                                                   1092000300017 
14.7        3.9                                                   1092000300018 
ENDDATA             11          0                                 1092000300019 
ENDSUBENT           18          0                                 1092000399999 
SUBENT        10920004   19891109                             00001092000400001 
BIB                  6         61                                 1092000400002 
REACTION   (90-TH-232(N,F)MASS,CHN,FY)                            1092000400003 
METHOD     (GSPEC) HIGH RESOLUTION GAMMA-RAY SPECTROSCOPY.        1092000400004 
            COMPUTER PROGRAM GAMANAL USED TO OBTAIN INTENSITIES OF1092000400005 
            RESOLVED PHOTOPEAKS FROM GAMMA-RAY SPECTRA.           1092000400006 
DETECTOR   (GELI) 80-CM**3 LITHIUM DRIFTED GERMANIUM DETECTOR     1092000400007 
DECAY-DATA ((1.)34-SE-83-G,22.6MIN,DG,356.7,.686)                 1092000400008 
           ((2.)35-BR-84-G,31.8MIN,DG,881.6,.42,DG,1897.6,.149)   1092000400009 
           ((3.)36-KR-85-M,4.48HR,DG,151.2,.755,DG,304.9,.140)    1092000400010 
           ((4.)36-KR-87,76.3MIN,DG,402.6,.495)                   1092000400011 
           ((5.)36-KR-88,2.84HR,DG,196.3,.263,DG,1529.8,.111)     1092000400012 
           ((5.)37-RB-88,17.8MIN,DG,898.0,.145,DG,1836.0,.221)    1092000400013 
           ((6.)37-RB-89,15.2MIN,DG,1031.9,.59,DG,1248.1,.43)     1092000400014 
           ((7.)38-SR-91,9.5HR,DG,652.9,.111,DG,749.8,.231,       1092000400015 
                               DG,1024.3,.335)                    1092000400016 
           ((7.)39-Y-91-M,49.7MIN,DG,557.6,.604)                  1092000400017 
           ((8.)38-SR-92,2.71HR,DG,1383.9,.90)                    1092000400018 
           ((9.)38-SR-93,7.3MIN,DG,168.5,.345,DG,590.2,.667)      1092000400019 
           ((10.)39-Y-93,10.21HR,DG,266.9,.068,DG,947.1,.0194)    1092000400020 
           ((11.)39-Y-94,19.MIN,DG,919.2,.49)                     1092000400021 
           ((12.)40-ZR-97,16.9HR)                                 1092000400022 
           ((12.)41-NB-97-M,60.SEC,DG,743.4,.928)                 1092000400023 
           ((12.)41-NB-97-G,72.1MIN,DG,657.9,1.059)               1092000400024 
           ((13.)42-MO-99,66.0HR,DG,140.5,.057,DG,181.1,.0652,    1092000400025 
                                 DG,739.5,.130)                   1092000400026 
           ((13.)43-TC-99-M,6.02HR,DG,140.5,.849)                 1092000400027 
           ((14.)43-TC-101,14.1MIN,DG,306.9,.88)                  1092000400028 
           ((15.)53-I-131,8.04D,DG,364.5,.812)                    1092000400029 
           ((16.)52-TE-132,78.2HR,DG,228.2,.882)                  1092000400030 
           ((16.)53-I-132-G,2.30HR,DG,522.7,.166,DG,667.7,1.017,  1092000400031 
                                   DG,772.6,.785)                 1092000400032 
           ((17.)53-I-133-G,20.8HR,DG,529.9,.873)                 1092000400033 
           ((18.)52-TE-134,41.8MIN,DG,180.9,.179,DG,278.0,.212,   1092000400034 
                     DG,566.0,.188,DG,742.6,.147,DG,767.2,.299)   1092000400035 
           ((19.)53-I-135,6.61HR,DG,1038.8,.079,DG,1131.5,.225,   1092000400036 
                                 DG,1260.4,.286,DG,1457.6,.086,   1092000400037 
                                 DG,1678.0,.095,DG,1791.2,.077)   1092000400038 
           ((19.)54-XE-135-M,15.3MIN,DG,526.6,.140)               1092000400039 
           ((20.)54-XE-138,14.2MIN,DG,258.3,.315,DG,1768.3,.167)  1092000400040 
           ((20.)55-CS-138-G,32.2MIN,DG,462.8,.307,DG,1009.8,.298,1092000400041 
                                     DG,1435.9,.763)              1092000400042 
           ((21.)56-BA-139,83.0MIN,DG,165.9,.22)                  1092000400043 
           ((22.)56-BA-140,12.79D,DG,537.3,.24)                   1092000400044 
           ((22.)57-LA-140,40.22HR,DG,487.0,.495,DG,815.9,.259,   1092000400045 
                                   DG,1596.5,1.100)               1092000400046 
           ((23.)56-BA-141,18.2MIN,DG,190.2,.46,DG,277.0,.233,    1092000400047 
                                   DG,304.2,.252,DG,343.7,.142)   1092000400048 
           ((23.)58-CE-141,32.5D,DG,145.4,.48)                    1092000400049 
           ((24.)57-LA-142,92.7MIN,DG,641.2,.46,DG,894.9,.094,    1092000400050 
                                   DG,1901.3,.087)                1092000400051 
           ((25.)58-CE-143,33.0HR,DG,293.3,.434)                  1092000400052 
           ((26.)58-CE-146,14.2MIN,DG,218.3,.215,DG,316.8,.55)    1092000400053 
           ((27.)60-ND-147,11.06D,DG,91.1,.279,DG,531.0,.131)     1092000400054 
           ((28.)60-ND-149,1.76HR,DG,114.3,.188,DG,211.3,.273)    1092000400055 
CORRECTION CORRECTIONS TO GAMMA MEASUREMENTS INCLUDE COUNTING     1092000400056 
            EFFICIENCY, CASCADE COINCIDENCE LOSSES, ABSOLUTE GAMMA1092000400057 
            EMISSION INTENSITIES, GENETIC RELATIONSHIPS, AND      1092000400058 
            DEGREE OF SATURATION DURING IRRADIATION.              1092000400059 
           NO CORRECTION MADE FOR POSSIBLE CHARGE DISTRIBUTION    1092000400060 
            EFFECTS.                                              1092000400061 
HISTORY    (820108A) DECAY DATA MOVED FROM SAN=1.                 1092000400062 
           (891109A) DATA SPLIT INTO 2 SETS BY METHOD,RESORTED    1092000400063 
ENDBIB              61          0                                 1092000400064 
NOCOMMON             0          0                                 1092000400065 
DATA                 5        220                                 1092000400066 
EN         MASS       DATA       DATA-ERR   DECAY-FLAG            1092000400067 
MEV        NO-DIM     PC/FIS     PC/FIS     NO-DIM                1092000400068 
 2.0         83.       0.93       0.21        1.                  1092000400069 
 2.0         84.       4.54       0.48        2.                  1092000400070 
 2.0         85.       5.13       0.21        3.                  1092000400071 
 2.0         87.       7.37       0.34        4.                  1092000400072 
 2.0         88.       6.93       0.29        5.                  1092000400073 
 2.0         89.       7.70       0.64        6.                  1092000400074 
 2.0         91.       7.82       0.24        7.                  1092000400075 
 2.0         92.       7.24       0.87        8.                  1092000400076 
 2.0         93.       5.61       0.38        9.                  1092000400077 
 2.0         94.       5.79       0.36       10.                  1092000400078 
 2.0         97.       4.50       0.12       11.                  1092000400079 
 2.0         99.       2.87       0.17       12.                  1092000400080 
 2.0        101.       0.82       0.15       13.                  1092000400081 
 2.0        131.       1.40       0.07       15.                  1092000400082 
 2.0        132.       2.74       0.08       16.                  1092000400083 
 2.0        133.       4.11       0.15       17.                  1092000400084 
 2.0        134.       6.97       0.44       18.                  1092000400085 
 2.0        135.       5.92       0.18       19.                  1092000400086 
 2.0        138.       6.36       0.31       20.                  1092000400087 
 2.0        139.       8.34       0.64       21.                  1092000400088 
 2.0        140.       8.95       0.25       22.                  1092000400089 
 2.0        141.       8.90       0.45       23.                  1092000400090 
 2.0        142.       7.23       0.38       24.                  1092000400091 
 2.0        143.       6.79       0.38       25.                  1092000400092 
 2.0        146.       4.45       0.65       26.                  1092000400093 
 2.0        147.       3.40       0.97       27.                  1092000400094 
 2.0        149.       1.38       0.21       28.                  1092000400095 
 3.0         83.       1.12       0.20        1.                  1092000400096 
 3.0         84.       4.05       0.52        2.                  1092000400097 
 3.0         85.       4.38       0.17        3.                  1092000400098 
 3.0         87.       6.85       0.33        4.                  1092000400099 
 3.0         88.       6.64       0.27        5.                  1092000400100 
 3.0         89.       7.56       0.67        6.                  1092000400101 
 3.0         91.       7.71       0.23        7.                  1092000400102 
 3.0         92.       7.23       0.88        8.                  1092000400103 
 3.0         93.       6.09       0.43        9.                  1092000400104 
 3.0         94.       6.07       0.67       10.                  1092000400105 
 3.0         97.       4.87       0.15       11.                  1092000400106 
 3.0         99.       3.15       0.16       12.                  1092000400107 
 3.0        101.       1.08       0.12       13.                  1092000400108 
 3.0        129.       0.20       0.05       14.                  1092000400109 
 3.0        131.       1.87       0.08       15.                  1092000400110 
 3.0        132.       3.25       0.09       16.                  1092000400111 
 3.0        133.       4.85       0.15       17.                  1092000400112 
 3.0        134.       7.44       0.76       18.                  1092000400113 
 3.0        135.       6.18       0.17       19.                  1092000400114 
 3.0        138.       6.29       0.27       20.                  1092000400115 
 3.0        139.       7.56       0.62       21.                  1092000400116 
 3.0        140.       8.60       0.23       22.                  1092000400117 
 3.0        141.       7.69       0.41       23.                  1092000400118 
 3.0        142.       6.61       0.39       24.                  1092000400119 
 3.0        143.       6.45       0.37       25.                  1092000400120 
 3.0        146.       3.71       0.70       26.                  1092000400121 
 3.0        147.       3.32       0.49       27.                  1092000400122 
 3.0        149.       1.06       0.16       28.                  1092000400123 
 4.0         83.       0.91       0.15        1.                  1092000400124 
 4.0         84.       4.35       0.47        2.                  1092000400125 
 4.0         85.       4.17       0.16        3.                  1092000400126 
 4.0         87.       6.21       0.30        4.                  1092000400127 
 4.0         88.       6.16       0.25        5.                  1092000400128 
 4.0         89.       7.18       0.58        6.                  1092000400129 
 4.0         91.       7.30       0.21        7.                  1092000400130 
 4.0         92.       6.93       0.86        8.                  1092000400131 
 4.0         93.       5.68       0.38        9.                  1092000400132 
 4.0         94.       6.20       0.35       10.                  1092000400133 
 4.0         97.       4.85       0.13       11.                  1092000400134 
 4.0         99.       3.41       0.15       12.                  1092000400135 
 4.0        101.       1.25       0.11       13.                  1092000400136 
 4.0        129.       0.34       0.05       14.                  1092000400137 
 4.0        131.       2.13       0.08       15.                  1092000400138 
 4.0        132.       3.42       0.10       16.                  1092000400139 
 4.0        133.       5.19       0.17       17.                  1092000400140 
 4.0        134.       7.68       0.61       18.                  1092000400141 
 4.0        135.       6.12       0.17       19.                  1092000400142 
 4.0        138.       6.18       0.35       20.                  1092000400143 
 4.0        139.       7.56       0.60       21.                  1092000400144 
 4.0        140.       8.01       0.20       22.                  1092000400145 
 4.0        141.       8.14       0.41       23.                  1092000400146 
 4.0        142.       6.27       0.36       24.                  1092000400147 
 4.0        143.       5.97       0.35       25.                  1092000400148 
 4.0        146.       3.33       0.43       26.                  1092000400149 
 4.0        147.       2.64       0.34       27.                  1092000400150 
 4.0        149.       1.10       0.15       28.                  1092000400151 
 5.9         84.       4.02       0.76        2.                  1092000400152 
 5.9         85.       4.00       0.20        3.                  1092000400153 
 5.9         87.       5.28       0.30        4.                  1092000400154 
 5.9         88.       5.71       0.27        5.                  1092000400155 
 5.9         89.       7.49       1.00        6.                  1092000400156 
 5.9         91.       6.63       0.21        7.                  1092000400157 
 5.9         92.       6.56       0.81        8.                  1092000400158 
 5.9         93.       4.85       0.49        9.                  1092000400159 
 5.9         94.       4.48       1.23       10.                  1092000400160 
 5.9         97.       4.80       0.13       11.                  1092000400161 
 5.9         99.       3.79       0.23       12.                  1092000400162 
 5.9        101.       1.77       0.22       13.                  1092000400163 
 5.9        129.       0.90       0.13       14.                  1092000400164 
 5.9        131.       2.75       0.16       15.                  1092000400165 
 5.9        132.       3.80       0.13       16.                  1092000400166 
 5.9        133.       5.64       0.19       17.                  1092000400167 
 5.9        134.       8.08       0.53       18.                  1092000400168 
 5.9        135.       5.98       0.19       19.                  1092000400169 
 5.9        138.       5.93       0.28       20.                  1092000400170 
 5.9        139.       7.24       0.88       21.                  1092000400171 
 5.9        140.       7.75       0.55       22.                  1092000400172 
 5.9        141.       7.37       0.55       23.                  1092000400173 
 5.9        142.       5.76       0.43       24.                  1092000400174 
 5.9        143.       5.59       0.35       25.                  1092000400175 
 5.9        146.       3.07       1.11       26.                  1092000400176 
 5.9        149.       1.45       0.35       28.                  1092000400177 
 6.4         83.       1.25       0.27        1.                  1092000400178 
 6.4         84.       5.34       0.65        2.                  1092000400179 
 6.4         85.       5.70       0.22        3.                  1092000400180 
 6.4         87.       6.80       0.31        4.                  1092000400181 
 6.4         88.       6.46       0.25        5.                  1092000400182 
 6.4         89.       7.97       0.71        6.                  1092000400183 
 6.4         91.       6.93       0.16        7.                  1092000400184 
 6.4         92.       6.26       0.76        8.                  1092000400185 
 6.4         93.       4.71       0.37        9.                  1092000400186 
 6.4         94.       4.75       0.93       10.                  1092000400187 
 6.4         97.       3.38       0.11       11.                  1092000400188 
 6.4         99.       2.60       0.13       12.                  1092000400189 
 6.4        101.       1.22       0.15       13.                  1092000400190 
 6.4        129.       0.61       0.09       14.                  1092000400191 
 6.4        131.       2.01       0.09       15.                  1092000400192 
 6.4        132.       2.98       0.15       16.                  1092000400193 
 6.4        133.       4.51       0.15       17.                  1092000400194 
 6.4        134.       6.33       0.40       18.                  1092000400195 
 6.4        135.       5.38       0.16       19.                  1092000400196 
 6.4        138.       6.04       0.36       20.                  1092000400197 
 6.4        139.       7.05       0.69       21.                  1092000400198 
 6.4        140.       8.08       0.23       22.                  1092000400199 
 6.4        141.       8.41       0.63       23.                  1092000400200 
 6.4        142.       6.51       0.42       24.                  1092000400201 
 6.4        143.       6.66       0.40       25.                  1092000400202 
 6.4        146.       3.67       0.62       26.                  1092000400203 
 6.4        147.       3.02       0.64       27.                  1092000400204 
 6.4        149.       1.17       0.30       28.                  1092000400205 
 6.9         83.       1.44       0.26        1.                  1092000400206 
 6.9         84.       5.50       0.71        2.                  1092000400207 
 6.9         85.       6.82       0.33        3.                  1092000400208 
 6.9         87.       7.61       0.39        4.                  1092000400209 
 6.9         88.       7.55       0.34        5.                  1092000400210 
 6.9         89.       6.98       0.66        6.                  1092000400211 
 6.9         91.       7.28       0.23        7.                  1092000400212 
 6.9         92.       6.46       0.81        8.                  1092000400213 
 6.9         93.       5.21       0.44        9.                  1092000400214 
 6.9         94.       4.79       1.16       10.                  1092000400215 
 6.9         97.       3.50       0.10       11.                  1092000400216 
 6.9         99.       2.09       0.16       12.                  1092000400217 
 6.9        101.       0.78       0.32       13.                  1092000400218 
 6.9        129.       0.58       0.10       14.                  1092000400219 
 6.9        131.       1.67       0.10       15.                  1092000400220 
 6.9        132.       2.72       0.11       16.                  1092000400221 
 6.9        133.       4.23       0.14       17.                  1092000400222 
 6.9        134.       6.62       0.41       18.                  1092000400223 
 6.9        135.       5.42       0.16       19.                  1092000400224 
 6.9        138.       6.15       0.37       20.                  1092000400225 
 6.9        139.       8.16       0.77       21.                  1092000400226 
 6.9        140.       8.70       0.34       22.                  1092000400227 
 6.9        141.       8.00       0.83       23.                  1092000400228 
 6.9        142.       7.55       0.94       24.                  1092000400229 
 6.9        143.       7.67       0.46       25.                  1092000400230 
 6.9        146.       3.11       0.50       26.                  1092000400231 
 6.9        149.       1.29       0.22       28.                  1092000400232 
 7.6         83.       1.38       0.22        1.                  1092000400233 
 7.6         84.       5.05       0.60        2.                  1092000400234 
 7.6         85.       6.01       0.26        3.                  1092000400235 
 7.6         87.       7.10       0.35        4.                  1092000400236 
 7.6         88.       7.03       0.30        5.                  1092000400237 
 7.6         89.       7.07       0.64        6.                  1092000400238 
 7.6         91.       7.15       0.21        7.                  1092000400239 
 7.6         92.       6.45       0.78        8.                  1092000400240 
 7.6         93.       5.26       0.38        9.                  1092000400241 
 7.6         94.       5.58       0.66       10.                  1092000400242 
 7.6         97.       3.62       0.13       11.                  1092000400243 
 7.6         99.       2.21       0.13       12.                  1092000400244 
 7.6        101.       1.00       0.12       13.                  1092000400245 
 7.6        129.       0.51       0.07       14.                  1092000400246 
 7.6        131.       1.76       0.08       15.                  1092000400247 
 7.6        132.       2.78       0.11       16.                  1092000400248 
 7.6        133.       4.34       0.14       17.                  1092000400249 
 7.6        134.       6.80       0.51       18.                  1092000400250 
 7.6        135.       5.49       0.16       19.                  1092000400251 
 7.6        138.       5.85       0.33       20.                  1092000400252 
 7.6        139.       7.49       0.63       21.                  1092000400253 
 7.6        140.       8.38       0.23       22.                  1092000400254 
 7.6        141.       7.64       0.61       23.                  1092000400255 
 7.6        142.       7.01       0.43       24.                  1092000400256 
 7.6        143.       6.95       0.41       25.                  1092000400257 
 7.6        146.       3.13       0.46       26.                  1092000400258 
 7.6        147.       3.11       0.57       27.                  1092000400259 
 7.6        149.       1.02       0.22       28.                  1092000400260 
 8.0         83.       1.85       0.28        1.                  1092000400261 
 8.0         84.       5.47       0.53        2.                  1092000400262 
 8.0         85.       5.81       0.20        3.                  1092000400263 
 8.0         87.       7.44       0.30        4.                  1092000400264 
 8.0         88.       6.71       0.25        5.                  1092000400265 
 8.0         89.       7.76       0.84        6.                  1092000400266 
 8.0         91.       7.15       0.20        7.                  1092000400267 
 8.0         92.       6.62       0.81        8.                  1092000400268 
 8.0         93.       5.01       0.39        9.                  1092000400269 
 8.0         94.       5.19       0.39       10.                  1092000400270 
 8.0         97.       3.59       0.10       11.                  1092000400271 
 8.0         99.       2.25       0.23       12.                  1092000400272 
 8.0        101.       1.08       0.15       13.                  1092000400273 
 8.0        129.       0.62       0.11       14.                  1092000400274 
 8.0        131.       1.69       0.09       15.                  1092000400275 
 8.0        132.       2.77       0.09       16.                  1092000400276 
 8.0        133.       4.32       0.12       17.                  1092000400277 
 8.0        134.       7.16       0.32       18.                  1092000400278 
 8.0        135.       5.58       0.15       19.                  1092000400279 
 8.0        138.       5.95       0.34       20.                  1092000400280 
 8.0        139.       6.61       0.71       21.                  1092000400281 
 8.0        140.       7.87       0.35       22.                  1092000400282 
 8.0        141.       7.27       0.57       23.                  1092000400283 
 8.0        142.       6.84       0.36       24.                  1092000400284 
 8.0        143.       6.94       0.33       25.                  1092000400285 
 8.0        146.       3.88       0.49       26.                  1092000400286 
 8.0        147.       2.88       0.32       27.                  1092000400287 
 8.0        149.       1.08       0.17       28.                  1092000400288 
ENDDATA            222          0                                 1092000400289 
ENDSUBENT          288          0                                 1092000499999 
ENDENTRY             4          0                                 1092099999999 
