ENTRY            10945   19830222                             00001094500000001 
SUBENT        10945001   19830222                             00001094500100001 
BIB                 13         26                                 1094500100002 
INSTITUTE  (1USALRL,1USALAS)                                      1094500100003 
REFERENCE  (J,PR/C,22,384,8008)                                   1094500100004 
AUTHOR     (T.W.PHILLIPS,B.L.BERMAN,J.D.SEAGRAVE)                 1094500100005 
TITLE      TOTAL NEUTRON CROSS SECTION FOR TRITIUM                1094500100006 
FACILITY   (LINAC,1USALRL)                                        1094500100007 
N-SOURCE   (EVAP) (D)2(O) COOLED TANTALUM TARGET                  1094500100008 
METHOD     (TOF) 250 METER FLIGHT PATH. PROTON RECOIL DETECTION.  1094500100009 
DETECTOR   (SCIN) SETS OF THREE 12.7 CM THICK AND 12.7 CM DIA.    1094500100010 
            PLASTIC SCINTILLATORS                                 1094500100011 
SAMPLE     GAS SAMPLES IN STAINLESS STEEL CYLINDERS, 3.17 MM      1094500100012 
            THICK AND 101.0 CM LONG.  THE ENDS WERE CAPPED        1094500100013 
            WITH 23 MM LONG, 0.75 MM THICK ELLIPSOIDS.            1094500100014 
CORRECTION DATA WERE CORRECTED FOR DEAD-TIME, BACKGROUND AND      1094500100015 
            IMPURITIES.                                           1094500100016 
ERR-ANALYS (ERR-S) STATISTICAL ERROR ONLY.                        1094500100017 
           SYSTEMATIC UNCERTAINTY VARIES FROM LESS THAN 0.5       1094500100018 
            PERCENT BELOW 17 MEV TO 2.0 PERCENT AT 80 MEV. THE    1094500100019 
            SYSTEMATIC COMPONENTS IN PERCENT ARE-                 1094500100020 
               DEAD-TIME                LESS THAN 0.2             1094500100021 
               BACKGROUND                      0.1 - 0.2          1094500100022 
               TRANSMISSION                   0.15 - 2.0          1094500100023 
               SAMPLE DIMENSIONS        LESS THAN 0.5             1094500100024 
STATUS     DATA OBTAINED IN PRIVATE COMMUNICATION FROM T.W.       1094500100025 
            PHILLIPS, 82/12/13                                    1094500100026 
           (APRVD) T.W.PHILLIPS, 83/02/18.                        1094500100027 
HISTORY    (821214C)                                              1094500100028 
ENDBIB              26          0                                 1094500100029 
NOCOMMON             0          0                                 1094500100030 
ENDSUBENT           29          0                                 1094500199999 
SUBENT        10945002   19821222                             00001094500200001 
BIB                  2          6                                 1094500200002 
REACTION   (1-H-1(N,TOT),,SIG)                                    1094500200003 
SAMPLE                         SAMPLE 1          SAMPLE 2         1094500200004 
           MASS(G)                 6.47              6.44         1094500200005 
           VOLUME(CM**3)         507.1             507.1          1094500200006 
           PRESSURE(ATM)         169.6             168.3          1094500200007 
           TEMPERATURE(DEG C)     22.0              21.5          1094500200008 
ENDBIB               6          0                                 1094500200009 
NOCOMMON             0          0                                 1094500200010 
DATA                 3         57                                 1094500200011 
EN         DATA       ERR-S                                       1094500200012 
MEV        B          B                                           1094500200013 
  1.053     4.274      0.001                                      1094500200014 
  1.130     4.048      0.002                                      1094500200015 
  1.181     3.925      0.003                                      1094500200016 
  1.228     3.840      0.003                                      1094500200017 
  1.277     3.773      0.003                                      1094500200018 
  1.329     3.685      0.003                                      1094500200019 
  1.383     3.603      0.003                                      1094500200020 
  1.442     3.510      0.003                                      1094500200021 
  1.504     3.434      0.003                                      1094500200022 
  1.571     3.344      0.003                                      1094500200023 
  1.642     3.264      0.003                                      1094500200024 
  1.717     3.179      0.003                                      1094500200025 
  1.800     3.097      0.003                                      1094500200026 
  1.887     3.016      0.003                                      1094500200027 
  1.981     2.920      0.003                                      1094500200028 
  2.082     2.819      0.004                                      1094500200029 
  2.191     2.739      0.003                                      1094500200030 
  2.308     2.657      0.003                                      1094500200031 
  2.436     2.580      0.003                                      1094500200032 
  2.575     2.494      0.003                                      1094500200033 
  2.725     2.414      0.004                                      1094500200034 
  2.889     2.321      0.004                                      1094500200035 
  3.069     2.246      0.004                                      1094500200036 
  3.266     2.155      0.004                                      1094500200037 
  3.482     2.070      0.005                                      1094500200038 
  3.721     1.977      0.005                                      1094500200039 
  3.986     1.889      0.004                                      1094500200040 
  4.232     1.830      0.005                                      1094500200041 
  4.392     1.771      0.005                                      1094500200042 
  4.558     1.739      0.005                                      1094500200043 
  4.733     1.685      0.005                                      1094500200044 
  4.919     1.647      0.005                                      1094500200045 
  5.115     1.608      0.005                                      1094500200046 
  5.324     1.555      0.004                                      1094500200047 
  5.546     1.513      0.004                                      1094500200048 
  5.781     1.457      0.004                                      1094500200049 
  6.032     1.411      0.004                                      1094500200050 
  6.301     1.375      0.004                                      1094500200051 
  6.587     1.325      0.004                                      1094500200052 
  6.894     1.281      0.004                                      1094500200053 
  7.222     1.219      0.004                                      1094500200054 
  7.575     1.178      0.005                                      1094500200055 
  7.954     1.125      0.005                                      1094500200056 
  8.363     1.092      0.005                                      1094500200057 
  8.804     1.040      0.006                                      1094500200058 
  9.281     1.000      0.007                                      1094500200059 
  9.798     0.957      0.007                                      1094500200060 
 10.360     0.903      0.008                                      1094500200061 
 10.972     0.861      0.009                                      1094500200062 
 11.641     0.810      0.010                                      1094500200063 
 12.372     0.737      0.012                                      1094500200064 
 13.176     0.706      0.013                                      1094500200065 
 14.054     0.661      0.016                                      1094500200066 
 14.949     0.608      0.016                                      1094500200067 
 16.024     0.566      0.020                                      1094500200068 
 17.219     0.550      0.022                                      1094500200069 
 18.556     0.510      0.026                                      1094500200070 
ENDDATA             59          0                                 1094500200071 
ENDSUBENT           70          0                                 1094500299999 
SUBENT        10945003   19821222                             00001094500300001 
BIB                  2          7                                 1094500300002 
REACTION   (1-H-2(N,TOT),,SIG)                                    1094500300003 
SAMPLE     MASS(G)                                                1094500300004 
             H-2                  12.9                            1094500300005 
             H-3                   0.2                            1094500300006 
           VOLUME(CM**3)         505.9                            1094500300007 
           PRESSURE(ATM)         169.6                            1094500300008 
           TEMPERATURE(DEG C)     22.0                            1094500300009 
ENDBIB               7          0                                 1094500300010 
NOCOMMON             0          0                                 1094500300011 
DATA                 3         71                                 1094500300012 
EN         DATA       ERR-S                                       1094500300013 
MEV        B          B                                           1094500300014 
  0.071     3.140      0.178                                      1094500300015 
  0.086     3.101      0.116                                      1094500300016 
  0.104     3.192      0.068                                      1094500300017 
  0.126     3.175      0.039                                      1094500300018 
  0.151     3.121      0.039                                      1094500300019 
  0.179     3.107      0.024                                      1094500300020 
  0.208     3.107      0.023                                      1094500300021 
  0.238     3.018      0.016                                      1094500300022 
  0.274     3.011      0.012                                      1094500300023 
  0.306     2.986      0.013                                      1094500300024 
  0.328     2.950      0.014                                      1094500300025 
  0.353     2.944      0.011                                      1094500300026 
  0.384     2.952      0.011                                      1094500300027 
  0.420     2.912      0.013                                      1094500300028 
  1.383     2.710      0.011                                      1094500300029 
  1.442     2.696      0.013                                      1094500300030 
  1.504     2.673      0.011                                      1094500300031 
  1.571     2.655      0.011                                      1094500300032 
  1.642     2.637      0.011                                      1094500300033 
  1.717     2.640      0.012                                      1094500300034 
  1.800     2.584      0.011                                      1094500300035 
  1.887     2.557      0.011                                      1094500300036 
  1.981     2.537      0.010                                      1094500300037 
  2.082     2.507      0.012                                      1094500300038 
  2.191     2.474      0.011                                      1094500300039 
  2.308     2.413      0.010                                      1094500300040 
  2.436     2.360      0.011                                      1094500300041 
  2.575     2.322      0.011                                      1094500300042 
  2.725     2.241      0.011                                      1094500300043 
  2.889     2.209      0.012                                      1094500300044 
  3.069     2.118      0.010                                      1094500300045 
  3.266     2.081      0.012                                      1094500300046 
  3.482     2.004      0.013                                      1094500300047 
  3.721     1.918      0.013                                      1094500300048 
  3.986     1.832      0.011                                      1094500300049 
  4.232     1.774      0.014                                      1094500300050 
  4.392     1.724      0.015                                      1094500300051 
  4.558     1.685      0.014                                      1094500300052 
  4.733     1.681      0.013                                      1094500300053 
  4.919     1.649      0.012                                      1094500300054 
  5.115     1.634      0.012                                      1094500300055 
  5.324     1.588      0.012                                      1094500300056 
  5.546     1.539      0.011                                      1094500300057 
  5.781     1.505      0.011                                      1094500300058 
  6.032     1.448      0.011                                      1094500300059 
  6.301     1.418      0.011                                      1094500300060 
  6.587     1.390      0.010                                      1094500300061 
  6.894     1.335      0.010                                      1094500300062 
  7.222     1.306      0.011                                      1094500300063 
  7.575     1.258      0.013                                      1094500300064 
  7.954     1.240      0.014                                      1094500300065 
  8.363     1.173      0.014                                      1094500300066 
  8.804     1.133      0.014                                      1094500300067 
  9.281     1.127      0.016                                      1094500300068 
  9.798     1.060      0.017                                      1094500300069 
 10.360     1.017      0.018                                      1094500300070 
 10.972     0.994      0.021                                      1094500300071 
 11.641     0.949      0.022                                      1094500300072 
 12.372     0.868      0.024                                      1094500300073 
 13.176     0.885      0.026                                      1094500300074 
 14.054     0.814      0.029                                      1094500300075 
 14.949     0.794      0.031                                      1094500300076 
 16.024     0.728      0.037                                      1094500300077 
 17.219     0.752      0.039                                      1094500300078 
 18.556     0.669      0.045                                      1094500300079 
 20.056     0.589      0.050                                      1094500300080 
 22.216     0.546      0.054                                      1094500300081 
 25.294     0.479      0.063                                      1094500300082 
 29.069     0.415      0.074                                      1094500300083 
 34.715     0.326      0.076                                      1094500300084 
 43.435     0.237      0.088                                      1094500300085 
ENDDATA             73          0                                 1094500300086 
ENDSUBENT           85          0                                 1094500399999 
SUBENT        10945004   19821222                             00001094500400001 
BIB                  2          9                                 1094500400002 
REACTION   (1-H-3(N,TOT),,SIG)                                    1094500400003 
SAMPLE     MASS(G)                                                1094500400004 
             H-1                    .01                           1094500400005 
             H-2                    .06                           1094500400006 
             H-3                  19.03                           1094500400007 
             HE-3                  0.06                           1094500400008 
           VOLUME(CM**3)         505.9                            1094500400009 
           PRESSURE(ATM)         171.4                            1094500400010 
           TEMPERATURE(DEG C)     27.5                            1094500400011 
ENDBIB               9          0                                 1094500400012 
NOCOMMON             0          0                                 1094500400013 
DATA                 3        151                                 1094500400014 
EN         DATA       ERR-S                                       1094500400015 
MEV        B          B                                           1094500400016 
  0.0591    1.7015     0.0214                                     1094500400017 
  0.0709    1.6261     0.0139                                     1094500400018 
  0.0861    1.6616     0.0099                                     1094500400019 
  0.1044    1.6418     0.0063                                     1094500400020 
  0.1260    1.6452     0.0041                                     1094500400021 
  0.1510    1.6198     0.0040                                     1094500400022 
  0.1788    1.6183     0.0043                                     1094500400023 
  0.2084    1.6098     0.0042                                     1094500400024 
  0.2375    1.6050     0.0039                                     1094500400025 
  0.2735    1.5951     0.0038                                     1094500400026 
  0.2953    1.5894     0.0049                                     1094500400027 
  0.3066    1.5884     0.0048                                     1094500400028 
  0.3191    1.5775     0.0048                                     1094500400029 
  0.3316    1.5748     0.0047                                     1094500400030 
  0.3457    1.5726     0.0045                                     1094500400031 
  0.3605    1.5673     0.0046                                     1094500400032 
  0.3758    1.5669     0.0044                                     1094500400033 
  0.3926    1.5648     0.0045                                     1094500400034 
  0.4102    1.5637     0.0046                                     1094500400035 
  0.4297    1.5620     0.0049                                     1094500400036 
  0.4496    1.5547     0.0046                                     1094500400037 
  0.4715    1.5501     0.0043                                     1094500400038 
  0.4945    1.5559     0.0042                                     1094500400039 
  0.5187    1.5472     0.0045                                     1094500400040 
  0.5352    1.5539     0.0042                                     1094500400041 
  0.5488    1.5496     0.0041                                     1094500400042 
  0.5637    1.5550     0.0041                                     1094500400043 
  0.5789    1.5576     0.0041                                     1094500400044 
  0.5945    1.5531     0.0040                                     1094500400045 
  0.6105    1.5639     0.0040                                     1094500400046 
  0.6277    1.5608     0.0040                                     1094500400047 
  0.6453    1.5655     0.0040                                     1094500400048 
  0.6641    1.5688     0.0040                                     1094500400049 
  0.6836    1.5732     0.0040                                     1094500400050 
  0.7031    1.5736     0.0039                                     1094500400051 
  0.7242    1.5772     0.0040                                     1094500400052 
  0.7461    1.5699     0.0040                                     1094500400053 
  0.7691    1.5756     0.0040                                     1094500400054 
  0.7934    1.5831     0.0038                                     1094500400055 
  0.8191    1.5966     0.0038                                     1094500400056 
  0.8449    1.6008     0.0038                                     1094500400057 
  0.8730    1.6055     0.0038                                     1094500400058 
  0.9016    1.6251     0.0039                                     1094500400059 
  0.9328    1.6342     0.0039                                     1094500400060 
  0.9648    1.6465     0.0040                                     1094500400061 
  0.9988    1.6525     0.0041                                     1094500400062 
  1.0340    1.6627     0.0040                                     1094500400063 
  1.0723    1.6750     0.0039                                     1094500400064 
  1.1113    1.6905     0.0039                                     1094500400065 
  1.1480    1.7106     0.0029                                     1094500400066 
  1.1703    1.7158     0.0030                                     1094500400067 
  1.1926    1.7298     0.0030                                     1094500400068 
  1.2160    1.7403     0.0031                                     1094500400069 
  1.2395    1.7452     0.0031                                     1094500400070 
  1.2641    1.7555     0.0032                                     1094500400071 
  1.2891    1.7686     0.0031                                     1094500400072 
  1.3152    1.7722     0.0032                                     1094500400073 
  1.3418    1.7787     0.0031                                     1094500400074 
  1.3691    1.7984     0.0030                                     1094500400075 
  1.3977    1.8032     0.0034                                     1094500400076 
  1.4270    1.8194     0.0034                                     1094500400077 
  1.4574    1.8333     0.0035                                     1094500400078 
  1.4883    1.8516     0.0032                                     1094500400079 
  1.5207    1.8587     0.0033                                     1094500400080 
  1.5539    1.8795     0.0034                                     1094500400081 
  1.5883    1.8954     0.0034                                     1094500400082 
  1.6234    1.9148     0.0034                                     1094500400083 
  1.6609    1.9362     0.0035                                     1094500400084 
  1.6973    1.9479     0.0038                                     1094500400085 
  1.7363    1.9694     0.0039                                     1094500400086 
  1.7793    1.9826     0.0038                                     1094500400087 
  1.8203    2.0143     0.0039                                     1094500400088 
  1.8641    2.0309     0.0040                                     1094500400089 
  1.9098    2.0437     0.0040                                     1094500400090 
  1.9562    2.0668     0.0039                                     1094500400091 
  2.0051    2.0975     0.0040                                     1094500400092 
  2.0555    2.1186     0.0048                                     1094500400093 
  2.1082    2.1387     0.0047                                     1094500400094 
  2.1625    2.1651     0.0045                                     1094500400095 
  2.2187    2.1865     0.0044                                     1094500400096 
  2.2777    2.2081     0.0043                                     1094500400097 
  2.3391    2.2334     0.0043                                     1094500400098 
  2.4031    2.2576     0.0047                                     1094500400099 
  2.4687    2.2768     0.0049                                     1094500400100 
  2.5387    2.2878     0.0050                                     1094500400101 
  2.6105    2.3235     0.0050                                     1094500400102 
  2.6859    2.3394     0.0051                                     1094500400103 
  2.7648    2.3661     0.0056                                     1094500400104 
  2.8461    2.3685     0.0059                                     1094500400105 
  2.9324    2.3953     0.0063                                     1094500400106 
  3.0215    2.4009     0.0054                                     1094500400107 
  3.1156    2.4268     0.0060                                     1094500400108 
  3.2141    2.4186     0.0065                                     1094500400109 
  3.3172    2.4469     0.0069                                     1094500400110 
  3.4254    2.4267     0.0073                                     1094500400111 
  3.5383    2.4532     0.0074                                     1094500400112 
  3.6590    2.4344     0.0075                                     1094500400113 
  3.7840    2.4195     0.0073                                     1094500400114 
  3.9160    2.4067     0.0070                                     1094500400115 
  4.0551    2.3911     0.0064                                     1094500400116 
  4.1898    2.3710     0.0082                                     1094500400117 
  4.2734    2.3728     0.0091                                     1094500400118 
  4.3516    2.3413     0.0092                                     1094500400119 
  4.4324    2.3410     0.0087                                     1094500400120 
  4.5152    2.3262     0.0084                                     1094500400121 
  4.6004    2.3072     0.0083                                     1094500400122 
  4.6875    2.2908     0.0079                                     1094500400123 
  4.7781    2.2948     0.0077                                     1094500400124 
  4.8703    2.2731     0.0077                                     1094500400125 
  4.9668    2.2403     0.0076                                     1094500400126 
  5.0645    2.2165     0.0076                                     1094500400127 
  5.1656    2.1986     0.0076                                     1094500400128 
  5.2699    2.1830     0.0073                                     1094500400129 
  5.3773    2.1606     0.0075                                     1094500400130 
  5.4879    2.1262     0.0071                                     1094500400131 
  5.6035    2.1182     0.0072                                     1094500400132 
  5.7207    2.0760     0.0071                                     1094500400133 
  5.8422    2.0447     0.0070                                     1094500400134 
  5.9676    2.0415     0.0071                                     1094500400135 
  6.0973    1.9906     0.0069                                     1094500400136 
  6.2312    1.9709     0.0072                                     1094500400137 
  6.3699    1.9462     0.0072                                     1094500400138 
  6.5129    1.9204     0.0066                                     1094500400139 
  6.6613    1.8811     0.0065                                     1094500400140 
  6.8137    1.8602     0.0066                                     1094500400141 
  6.9734    1.8333     0.0065                                     1094500400142 
  7.2221    1.7877     0.0048                                     1094500400143 
  7.5748    1.7171     0.0056                                     1094500400144 
  7.9541    1.6688     0.0059                                     1094500400145 
  8.3627    1.5824     0.0058                                     1094500400146 
  8.8039    1.5159     0.0062                                     1094500400147 
  9.2809    1.4404     0.0068                                     1094500400148 
  9.7980    1.3760     0.0074                                     1094500400149 
 10.3604    1.3129     0.0079                                     1094500400150 
 10.9725    1.2353     0.0090                                     1094500400151 
 11.6408    1.1823     0.0096                                     1094500400152 
 12.3721    1.1181     0.0109                                     1094500400153 
 13.1756    1.0562     0.0120                                     1094500400154 
 14.0535    0.9749     0.0136                                     1094500400155 
 14.9491    0.9403     0.0147                                     1094500400156 
 16.0238    0.8879     0.0178                                     1094500400157 
 17.2193    0.7765     0.0191                                     1094500400158 
 18.5558    0.7360     0.0220                                     1094500400159 
 20.0561    0.6848     0.0237                                     1094500400160 
 22.2165    0.6198     0.0235                                     1094500400161 
 25.2940    0.5986     0.0267                                     1094500400162 
 29.0695    0.4923     0.0319                                     1094500400163 
 34.7146    0.3532     0.0317                                     1094500400164 
 43.4354    0.3233     0.0372                                     1094500400165 
 56.0314    0.2208     0.0541                                     1094500400166 
 78.7224    0.1728     0.0753                                     1094500400167 
ENDDATA            153          0                                 1094500400168 
ENDSUBENT          167          0                                 1094500499999 
ENDENTRY             4          0                                 1094599999999 
