ENTRY            10963   20210827                             149110963  0    1 
SUBENT        10963001   20210827                             149110963  1    1 
BIB                 10         21                                 10963  1    2 
TITLE      Neutron capture cross section in 64Zn                  10963  1    3 
AUTHOR     (J.B.Garg,V.K.Tikku,J.Halperin,R.Macklin)              10963  1    4 
INSTITUTE  (1USAORL,1USAALB)                                      10963  1    5 
REFERENCE  (J,PR/C,23,683,1981)                                   10963  1    6 
           #doi:10.1103/PhysRevC.23.683                           10963  1    7 
REL-REF    (I,,R.L.Macklin,J,NIM,91,79,1971) Detectors details.   10963  1    8 
FACILITY   (LINAC,1USAORL) Oak Ridge electron linear accelerator. 10963  1    9 
SAMPLE     (30-ZN-64,ENR=0.9787) Circular disk of zinc oxide,     10963  1   10 
           1.3-cm radius, 0.6-cm thick. Mass is 6.73-grams,       10963  1   11 
           97.87% Zn-64.                                          10963  1   12 
DETECTOR   Pair of total energy gamma detectors placed on either  10963  1   13 
           side of sample                                         10963  1   14 
CORRECTION Corrections made for sample thickness, doppler         10963  1   15 
           broadening, energy resolution, and scattered neutron   10963  1   16 
           sensitivity of detectors.                              10963  1   17 
HISTORY    (19820115C)                                            10963  1   18 
           (19821203A) Energy range moved to san 2.               10963  1   19 
           (20060309C) DR format updated and entries 3 (stat-W g) 10963  1   20 
                       4 (units and  assumed 5) corrected.        10963  1   21 
           (20210827A) BP: Updated entry, sample,  added doi,     10963  1   22 
                        digitized data.                           10963  1   23 
ENDBIB              21          0                                 10963  1   24 
NOCOMMON             0          0                                 10963  1   25 
ENDSUBENT           24          0                                 10963  199999 
SUBENT        10963002   20210827                             149110963  2    1 
BIB                  3          3                                 10963  2    2 
REACTION   (30-ZN-64(N,G)30-ZN-65,,SIG)                           10963  2    3 
STATUS     (CURVE) Figs. 1-5, pages 684-685.                      10963  2    4 
HISTORY    (20210827A) BP: Digitized data.                        10963  2    5 
ENDBIB               3          0                                 10963  2    6 
NOCOMMON             0          0                                 10963  2    7 
DATA                 2       1723                                 10963  2    8 
EN         DATA                                                   10963  2    9 
KEV        MB                                                     10963  2   10 
      2.659   2163.185                                            10963  2   11 
      2.710   1709.798                                            10963  2   12 
      2.722   1206.377                                            10963  2   13 
      2.753    904.145                                            10963  2   14 
      2.804    652.097                                            10963  2   15 
      2.855    400.049                                            10963  2   16 
      2.906    231.892                                            10963  2   17 
      2.997    147.325                                            10963  2   18 
      3.097     79.461                                            10963  2   19 
      3.208     78.636                                            10963  2   20 
      3.339     44.104                                            10963  2   21 
      3.430     43.428                                            10963  2   22 
      3.541     25.824                                            10963  2   23 
      3.662     41.702                                            10963  2   24 
      3.813     23.797                                            10963  2   25 
      3.893     39.975                                            10963  2   26 
      3.994     72.781                                            10963  2   27 
      4.044    240.187                                            10963  2   28 
      4.094    357.259                                            10963  2   29 
      4.111   1498.026                                            10963  2   30 
      4.152   5088.183                                            10963  2   31 
      4.182   1497.500                                            10963  2   32 
      4.203   1044.339                                            10963  2   33 
      4.235    440.099                                            10963  2   34 
      4.276    288.795                                            10963  2   35 
      4.367    204.228                                            10963  2   36 
      4.407    136.815                                            10963  2   37 
      4.470   3038.916                                            10963  2   38 
      4.478    119.512                                            10963  2   39 
      4.538     85.505                                            10963  2   40 
      4.649     51.123                                            10963  2   41 
      4.750     50.373                                            10963  2   42 
      4.851     49.622                                            10963  2   43 
      4.961     65.574                                            10963  2   44 
      5.082     64.673                                            10963  2   45 
      5.143     47.445                                            10963  2   46 
      5.173   7446.250                                            10963  2   47 
      5.203    114.107                                            10963  2   48 
      5.294     79.875                                            10963  2   49 
      5.405     79.048                                            10963  2   50 
      5.526     44.592                                            10963  2   51 
      5.667     43.541                                            10963  2   52 
      5.788     42.640                                            10963  2   53 
      5.908     58.517                                            10963  2   54 
      5.952   2709.096                                            10963  2   55 
      5.989     57.917                                            10963  2   56 
      6.080     40.462                                            10963  2   57 
      6.221     22.633                                            10963  2   58 
      6.341    122.402                                            10963  2   59 
      6.473     37.536                                            10963  2   60 
      6.594     36.634                                            10963  2   61 
      6.694    136.552                                            10963  2   62 
      6.795     18.355                                            10963  2   63 
      6.956      0.375                                            10963  2   64 
      7.118     15.953                                            10963  2   65 
      7.319    -19.106                                            10963  2   66 
      7.551     -4.053                                            10963  2   67 
      7.782     10.998                                            10963  2   68 
      7.964    -23.910                                            10963  2   69 
      8.135    -25.186                                            10963  2   70 
      8.246     -9.233                                            10963  2   71 
      8.377     40.125                                            10963  2   72 
      8.421   6146.935                                            10963  2   73 
      8.447     22.821                                            10963  2   74 
      8.578     21.846                                            10963  2   75 
      8.679    -12.461                                            10963  2   76 
      8.760      3.716                                            10963  2   77 
      8.780   3946.365                                            10963  2   78 
      8.823   6395.605                                            10963  2   79 
      8.833   2687.625                                            10963  2   80 
      8.850      3.041                                            10963  2   81 
      9.042      1.614                                            10963  2   82 
      9.193     17.266                                            10963  2   83 
      9.394     15.765                                            10963  2   84 
      9.546     14.638                                            10963  2   85 
      9.757     -3.716                                            10963  2   86 
      9.949    -21.921                                            10963  2   87 
     10.026     46.771                                            10963  2   88 
     10.173     33.408                                            10963  2   89 
     10.294     33.408                                            10963  2   90 
     10.414     60.134                                            10963  2   91 
     10.508     40.089                                            10963  2   92 
     10.615    126.949                                            10963  2   93 
     10.640    587.973                                            10963  2   94 
     10.682    220.490                                            10963  2   95 
     10.721    400.891                                            10963  2   96 
     10.788    628.062                                            10963  2   97 
     10.829    334.076                                            10963  2   98 
     10.869    200.445                                            10963  2   99 
     10.936    126.949                                            10963  2  100 
     11.056    273.942                                            10963  2  101 
     11.097     93.541                                            10963  2  102 
     11.204     80.178                                            10963  2  103 
     11.311     40.089                                            10963  2  104 
     11.499     40.089                                            10963  2  105 
     11.699     53.452                                            10963  2  106 
     11.833     46.771                                            10963  2  107 
     11.981     46.771                                            10963  2  108 
     12.023        42.                                            10963  2  109 
     12.044        57.                                            10963  2  110 
     12.086        50.                                            10963  2  111 
     12.093       675.                                            10963  2  112 
     12.096       195.                                            10963  2  113 
     12.098       332.                                            10963  2  114 
     12.099      1026.                                            10963  2  115 
     12.113      1292.                                            10963  2  116 
     12.117       111.                                            10963  2  117 
     12.120       934.                                            10963  2  118 
     12.123       500.                                            10963  2  119 
     12.133        43.                                            10963  2  120 
     12.150        43.                                            10963  2  121 
     12.171        28.                                            10963  2  122 
     12.208        28.                                            10963  2  123 
     12.239        36.                                            10963  2  124 
     12.255        36.                                            10963  2  125 
     12.276        29.                                            10963  2  126 
     12.302        37.                                            10963  2  127 
     12.323        37.                                            10963  2  128 
     12.344        37.                                            10963  2  129 
     12.367        37.                                            10963  2  130 
     12.386        52.                                            10963  2  131 
     12.412        83.                                            10963  2  132 
     12.437       152.                                            10963  2  133 
     12.444        83.                                            10963  2  134 
     12.465        68.                                            10963  2  135 
     12.498        84.                                            10963  2  136 
     12.519       122.                                            10963  2  137 
     12.533       183.                                            10963  2  138 
     12.554       183.                                            10963  2  139 
     12.577       206.                                            10963  2  140 
     12.584       267.                                            10963  2  141 
     12.601       336.                                            10963  2  142 
     12.619       390.                                            10963  2  143 
     12.633       443.                                            10963  2  144 
     12.654       519.                                            10963  2  145 
     12.675       657.                                            10963  2  146 
     12.696       558.                                            10963  2  147 
     12.708       489.                                            10963  2  148 
     12.727       451.                                            10963  2  149 
     12.732       406.                                            10963  2  150 
     12.750       352.                                            10963  2  151 
     12.767       284.                                            10963  2  152 
     12.788       254.                                            10963  2  153 
     12.807       231.                                            10963  2  154 
     12.830       178.                                            10963  2  155 
     12.854       155.                                            10963  2  156 
     12.875       148.                                            10963  2  157 
     12.896       133.                                            10963  2  158 
     12.917        95.                                            10963  2  159 
     12.936        49.                                            10963  2  160 
     12.950       110.                                            10963  2  161 
     12.973       103.                                            10963  2  162 
     12.994        27.                                            10963  2  163 
     13.013        65.                                            10963  2  164 
     13.031       118.                                            10963  2  165 
     13.048        65.                                            10963  2  166 
     13.076        58.                                            10963  2  167 
     13.109        35.                                            10963  2  168 
     13.141        20.                                            10963  2  169 
     13.169        51.                                            10963  2  170 
     13.200        44.                                            10963  2  171 
     13.226        44.                                            10963  2  172 
     13.254        44.                                            10963  2  173 
     13.277       128.                                            10963  2  174 
     13.284       318.                                            10963  2  175 
     13.285      1080.                                            10963  2  176 
     13.286       585.                                            10963  2  177 
     13.293      3412.                                            10963  2  178 
     13.296      1797.                                            10963  2  179 
     13.297      2566.                                            10963  2  180 
     13.302      3816.                                            10963  2  181 
     13.314      2239.                                            10963  2  182 
     13.314      3587.                                            10963  2  183 
     13.315      3267.                                            10963  2  184 
     13.315      1035.                                            10963  2  185 
     13.319       342.                                            10963  2  186 
     13.326        75.                                            10963  2  187 
     13.347        45.                                            10963  2  188 
     13.366        45.                                            10963  2  189 
     13.389        45.                                            10963  2  190 
     13.417        22.                                            10963  2  191 
     13.441        38.                                            10963  2  192 
     13.520    106.904                                            10963  2  193 
     13.600     66.815                                            10963  2  194 
     13.734     40.089                                            10963  2  195 
     13.841     53.452                                            10963  2  196 
     13.881     73.497                                            10963  2  197 
     13.967   2973.274                                            10963  2  198 
     14.002     66.815                                            10963  2  199 
     14.096     86.860                                            10963  2  200 
     14.149     46.771                                            10963  2  201 
     14.337     66.815                                            10963  2  202 
     14.471     40.089                                            10963  2  203 
     14.645     40.089                                            10963  2  204 
     14.778    100.223                                            10963  2  205 
     14.859     53.452                                            10963  2  206 
     14.979     86.860                                            10963  2  207 
     15.059    126.949                                            10963  2  208 
     15.113    273.942                                            10963  2  209 
     15.165    621.381                                            10963  2  210 
     15.218    881.960                                            10963  2  211 
     15.232    728.285                                            10963  2  212 
     15.286    400.891                                            10963  2  213 
     15.327    207.127                                            10963  2  214 
     15.434     93.541                                            10963  2  215 
     15.608     80.178                                            10963  2  216 
     15.702     73.497                                            10963  2  217 
     15.823     53.452                                            10963  2  218 
     15.956     53.452                                            10963  2  219 
     16.211     33.408                                            10963  2  220 
     16.385     33.408                                            10963  2  221 
     16.505     26.726                                            10963  2  222 
     16.693     40.089                                            10963  2  223 
     16.813     26.726                                            10963  2  224 
     16.934     33.408                                            10963  2  225 
     17.020   2759.465                                            10963  2  226 
     17.054    100.223                                            10963  2  227 
     17.108     46.771                                            10963  2  228 
     17.215     33.408                                            10963  2  229 
     17.402     20.045                                            10963  2  230 
     17.563     20.045                                            10963  2  231 
     17.750     20.045                                            10963  2  232 
     17.965     13.363                                            10963  2  233 
     18.152     20.045                                            10963  2  234 
     18.313     13.363                                            10963  2  235 
     18.366     66.815                                            10963  2  236 
     18.391    621.381                                            10963  2  237 
     18.454   2365.256                                            10963  2  238 
     18.472    507.795                                            10963  2  239 
     18.540     26.726                                            10963  2  240 
     18.594     73.497                                            10963  2  241 
     18.687     33.408                                            10963  2  242 
     18.902     46.771                                            10963  2  243 
     19.102     20.045                                            10963  2  244 
     19.357     20.045                                            10963  2  245 
     19.544     26.726                                            10963  2  246 
     19.758     13.363                                            10963  2  247 
     19.932     26.726                                            10963  2  248 
     20.188     33.632                                            10963  2  249 
     20.402     26.906                                            10963  2  250 
     20.722     26.906                                            10963  2  251 
     21.096     40.359                                            10963  2  252 
     21.271   1494.014                                            10963  2  253 
     21.338    497.758                                            10963  2  254 
     21.416     80.717                                            10963  2  255 
     21.604     20.179                                            10963  2  256 
     21.790     40.359                                            10963  2  257 
     21.978     13.453                                            10963  2  258 
     22.200   1735.426                                            10963  2  259 
     22.244     33.632                                            10963  2  260 
     22.404     33.632                                            10963  2  261 
     22.538    141.256                                            10963  2  262 
     22.648    497.758                                            10963  2  263 
     22.726     94.170                                            10963  2  264 
     22.832     53.812                                            10963  2  265 
     23.046     26.906                                            10963  2  266 
     23.126     94.170                                            10963  2  267 
     23.338     13.453                                            10963  2  268 
     23.660     20.179                                            10963  2  269 
     24.006     40.359                                            10963  2  270 
     24.300     13.453                                            10963  2  271 
     24.594     13.453                                            10963  2  272 
     24.888     33.632                                            10963  2  273 
     25.102     20.179                                            10963  2  274 
     25.342     13.453                                            10963  2  275 
     25.608     20.179                                            10963  2  276 
     25.664    269.058                                            10963  2  277 
     25.772    632.287                                            10963  2  278 
     25.824    188.341                                            10963  2  279 
     25.876     26.906                                            10963  2  280 
     26.062     33.632                                            10963  2  281 
     26.090    289.238                                            10963  2  282 
     26.200    625.561                                            10963  2  283 
     26.278    215.247                                            10963  2  284 
     26.330     20.179                                            10963  2  285 
     26.624     40.359                                            10963  2  286 
     26.890     20.179                                            10963  2  287 
     27.238     20.179                                            10963  2  288 
     27.532     13.453                                            10963  2  289 
     27.878     13.453                                            10963  2  290 
     28.146     20.179                                            10963  2  291 
     28.360    100.897                                            10963  2  292 
     28.442    645.740                                            10963  2  293 
     28.576    746.637                                            10963  2  294 
     28.626     26.906                                            10963  2  295 
     28.760      6.726                                            10963  2  296 
     28.946     60.538                                            10963  2  297 
     29.028    147.982                                            10963  2  298 
     29.082    437.220                                            10963  2  299 
     29.188    369.955                                            10963  2  300 
     29.214     40.359                                            10963  2  301 
     29.346     13.453                                            10963  2  302 
     29.454     40.359                                            10963  2  303 
     29.510    410.314                                            10963  2  304 
     29.616    343.049                                            10963  2  305 
     29.696    262.332                                            10963  2  306 
     29.748     67.265                                            10963  2  307 
     29.854     33.632                                            10963  2  308 
     30.094     33.632                                            10963  2  309 
     30.282     40.359                                            10963  2  310 
     30.470    147.982                                            10963  2  311 
     30.580   1008.969                                            10963  2  312 
     30.684    215.247                                            10963  2  313 
     30.792    538.117                                            10963  2  314 
     30.870    161.435                                            10963  2  315 
     30.896     67.265                                            10963  2  316 
     31.056    147.982                                            10963  2  317 
     31.190     26.906                                            10963  2  318 
     31.296     26.906                                            10963  2  319 
     31.456    100.897                                            10963  2  320 
     31.536     26.906                                            10963  2  321 
     31.696     26.906                                            10963  2  322 
     31.910     20.179                                            10963  2  323 
     32.070     60.538                                            10963  2  324 
     32.178    107.623                                            10963  2  325 
     32.312    181.614                                            10963  2  326 
     32.472    262.332                                            10963  2  327 
     32.552    181.614                                            10963  2  328 
     32.712    221.973                                            10963  2  329 
     32.792     94.170                                            10963  2  330 
     32.978     47.085                                            10963  2  331 
     33.298     40.359                                            10963  2  332 
     33.726     33.632                                            10963  2  333 
     34.046     53.812                                            10963  2  334 
     34.420     33.632                                            10963  2  335 
     34.740     13.453                                            10963  2  336 
     35.034     33.632                                            10963  2  337 
     35.146    726.457                                            10963  2  338 
     35.250    349.776                                            10963  2  339 
     35.302    107.623                                            10963  2  340 
     35.408     26.906                                            10963  2  341 
     35.516     26.906                                            10963  2  342 
     35.622     94.170                                            10963  2  343 
     35.706    645.740                                            10963  2  344 
     35.836     20.179                                            10963  2  345 
     36.024    134.529                                            10963  2  346 
     36.102     47.085                                            10963  2  347 
     36.262     47.085                                            10963  2  348 
     36.504     53.812                                            10963  2  349 
     36.664    161.435                                            10963  2  350 
     36.746    612.108                                            10963  2  351 
     36.798    255.605                                            10963  2  352 
     36.904     60.538                                            10963  2  353 
     37.038     47.085                                            10963  2  354 
     37.170     47.085                                            10963  2  355 
     37.278    114.350                                            10963  2  356 
     37.386    255.605                                            10963  2  357 
     37.518     33.632                                            10963  2  358 
     37.784     40.359                                            10963  2  359 
     38.052     33.632                                            10963  2  360 
     38.372     40.359                                            10963  2  361 
     38.560     33.632                                            10963  2  362 
     38.746     53.812                                            10963  2  363 
     39.094     40.359                                            10963  2  364 
     39.148    396.861                                            10963  2  365 
     39.258    840.807                                            10963  2  366 
     39.360    100.897                                            10963  2  367 
     39.494     26.906                                            10963  2  368 
     39.496    437.220                                            10963  2  369 
     39.628     13.453                                            10963  2  370 
     39.708    195.067                                            10963  2  371 
     39.762    363.229                                            10963  2  372 
     39.922     26.906                                            10963  2  373 
     40.158     20.777                                            10963  2  374 
     40.343     35.902                                            10963  2  375 
     40.531     17.066                                            10963  2  376 
     40.770     28.426                                            10963  2  377 
     40.793     68.053                                            10963  2  378 
     40.846    351.084                                            10963  2  379 
     41.007    619.038                                            10963  2  380 
     41.079    139.800                                            10963  2  381 
     41.191     73.780                                            10963  2  382 
     41.222     28.502                                            10963  2  383 
     41.356     20.977                                            10963  2  384 
     41.461     39.863                                            10963  2  385 
     41.596     21.017                                            10963  2  386 
     41.755     30.478                                            10963  2  387 
     41.969     21.079                                            10963  2  388 
     42.154     34.318                                            10963  2  389 
     42.366     43.788                                            10963  2  390 
     42.608     23.073                                            10963  2  391 
     42.759    115.552                                            10963  2  392 
     42.901     21.235                                            10963  2  393 
     42.976     72.192                                            10963  2  394 
     43.070    202.397                                            10963  2  395 
     43.136     68.445                                            10963  2  396 
     43.248     11.859                                            10963  2  397 
     43.434     11.890                                            10963  2  398 
     43.540     23.229                                            10963  2  399 
     43.666     98.722                                            10963  2  400 
     43.779     25.156                                            10963  2  401 
     43.829     62.900                                            10963  2  402 
     43.954    427.076                                            10963  2  403 
     44.046     23.313                                            10963  2  404 
     44.205     27.114                                            10963  2  405 
     44.393     12.050                                            10963  2  406 
     44.551     34.719                                            10963  2  407 
     44.613    217.750                                            10963  2  408 
     44.759    370.606                                            10963  2  409 
     44.925     12.139                                            10963  2  410 
     45.083     36.694                                            10963  2  411 
     45.185     83.882                                            10963  2  412 
     45.295     49.937                                            10963  2  413 
     45.352     12.211                                            10963  2  414 
     45.458      8.455                                            10963  2  415 
     45.535     40.544                                            10963  2  416 
     45.683    165.098                                            10963  2  417 
     45.798     82.097                                            10963  2  418 
     45.910     19.851                                            10963  2  419 
     46.018      8.548                                            10963  2  420 
     46.282     29.347                                            10963  2  421 
     46.338      4.828                                            10963  2  422 
     46.495     31.270                                            10963  2  423 
     46.657      8.655                                            10963  2  424 
     46.787     35.092                                            10963  2  425 
     46.989    440.791                                            10963  2  426 
     47.043    144.570                                            10963  2  427 
     47.135     23.830                                            10963  2  428 
     47.296     12.536                                            10963  2  429 
     47.425     48.407                                            10963  2  430 
     47.643    282.408                                            10963  2  431 
     47.794     91.865                                            10963  2  432 
     47.929     71.133                                            10963  2  433 
     48.059    103.230                                            10963  2  434 
     48.115     80.598                                            10963  2  435 
     48.274     86.285                                            10963  2  436 
     48.358     37.242                                            10963  2  437 
     48.493     22.170                                            10963  2  438 
     48.733     22.210                                            10963  2  439 
     48.919     20.354                                            10963  2  440 
     48.971     41.118                                            10963  2  441 
     49.106     16.612                                            10963  2  442 
     49.210     39.271                                            10963  2  443 
     49.319     16.647                                            10963  2  444 
     49.452     18.556                                            10963  2  445 
     49.636     46.889                                            10963  2  446 
     49.713     75.204                                            10963  2  447 
     49.798     20.501                                            10963  2  448 
     49.932      9.203                                            10963  2  449 
     50.090     26.210                                            10963  2  450 
     50.304     20.586                                            10963  2  451 
     50.568     45.158                                            10963  2  452 
     50.592     69.691                                            10963  2  453 
     50.697     94.237                                            10963  2  454 
     50.779     71.609                                            10963  2  455 
     50.835     43.316                                            10963  2  456 
     50.969     24.470                                            10963  2  457 
     51.077      9.394                                            10963  2  458 
     51.155     35.822                                            10963  2  459 
     51.303    160.376                                            10963  2  460 
     51.395     26.428                                            10963  2  461 
     51.557     11.361                                            10963  2  462 
     51.743     15.165                                            10963  2  463 
     51.900     35.947                                            10963  2  464 
     52.106    119.001                                            10963  2  465 
     52.270     73.745                                            10963  2  466 
     52.299     45.447                                            10963  2  467 
     52.406     36.031                                            10963  2  468 
     52.431     56.790                                            10963  2  469 
     52.562     83.228                                            10963  2  470 
     52.644     56.826                                            10963  2  471 
     52.701     13.439                                            10963  2  472 
     52.915     11.588                                            10963  2  473 
     53.127     15.397                                            10963  2  474 
     53.288      5.990                                            10963  2  475 
     53.473     21.115                                            10963  2  476 
     53.577     47.548                                            10963  2  477 
     53.614    221.141                                            10963  2  478 
     53.741    287.200                                            10963  2  479 
     53.811    106.078                                            10963  2  480 
     53.900      6.092                                            10963  2  481 
     53.951     32.516                                            10963  2  482 
     54.051    106.118                                            10963  2  483 
     54.058    317.442                                            10963  2  484 
     54.179    158.970                                            10963  2  485 
     54.243    328.794                                            10963  2  486 
     54.386    223.156                                            10963  2  487 
     54.430     42.030                                            10963  2  488 
     54.591     23.189                                            10963  2  489 
     54.620      2.439                                            10963  2  490 
     54.724     32.645                                            10963  2  491 
     54.772     87.370                                            10963  2  492 
     54.910     27.016                                            10963  2  493 
     54.966      2.496                                            10963  2  494 
     55.150     25.169                                            10963  2  495 
     55.312      4.441                                            10963  2  496 
     55.523     23.344                                            10963  2  497 
     55.738      8.286                                            10963  2  498 
     56.083     14.004                                            10963  2  499 
     56.429     15.949                                            10963  2  500 
     56.696     10.333                                            10963  2  501 
     56.854     31.114                                            10963  2  502 
     57.009     85.857                                            10963  2  503 
     57.176     10.413                                            10963  2  504 
     57.389      8.562                                            10963  2  505 
     57.573     27.461                                            10963  2  506 
     57.815     10.520                                            10963  2  507 
     57.975      4.886                                            10963  2  508 
     58.186     31.337                                            10963  2  509 
     58.348      4.948                                            10963  2  510 
     58.480     16.291                                            10963  2  511 
     58.495    142.710                                            10963  2  512 
     58.593    235.180                                            10963  2  513 
     58.711    105.010                                            10963  2  514 
     58.827      6.915                                            10963  2  515 
     58.986     12.602                                            10963  2  516 
     59.089     50.356                                            10963  2  517 
     59.158    165.463                                            10963  2  518 
     59.215    133.396                                            10963  2  519 
     59.246     78.684                                            10963  2  520 
     59.279     10.764                                            10963  2  521 
     59.546      7.035                                            10963  2  522 
     59.786      3.302                                            10963  2  523 
     60.135      7.318                                            10963  2  524 
     60.338      7.266                                            10963  2  525 
     60.609      8.668                                            10963  2  526 
     60.745     51.279                                            10963  2  527 
     60.880    155.652                                            10963  2  528 
     61.049      7.085                                            10963  2  529 
     61.151     15.882                                            10963  2  530 
     61.184     45.284                                            10963  2  531 
     61.286     89.374                                            10963  2  532 
     61.354     51.123                                            10963  2  533 
     61.523      6.963                                            10963  2  534 
     61.726    280.431                                            10963  2  535 
     61.895    224.508                                            10963  2  536 
     61.929     80.386                                            10963  2  537 
     62.030    283.295                                            10963  2  538 
     62.098    250.926                                            10963  2  539 
     62.267     92.064                                            10963  2  540 
     62.301     14.117                                            10963  2  541 
     62.606      5.216                                            10963  2  542 
     62.741     16.946                                            10963  2  543 
     63.012      5.112                                            10963  2  544 
     63.181     18.304                                            10963  2  545 
     63.350     41.789                                            10963  2  546 
     63.486     16.755                                            10963  2  547 
     63.689      3.469                                            10963  2  548 
     64.095      4.835                                            10963  2  549 
     64.399      4.758                                            10963  2  550 
     64.602      4.706                                            10963  2  551 
     64.772     13.486                                            10963  2  552 
     64.805     89.945                                            10963  2  553 
     64.873    214.923                                            10963  2  554 
     65.042     26.651                                            10963  2  555 
     65.212    176.603                                            10963  2  556 
     65.245     16.306                                            10963  2  557 
     65.448    113.309                                            10963  2  558 
     65.482     23.598                                            10963  2  559 
     65.651     73.553                                            10963  2  560 
     65.787     24.990                                            10963  2  561 
     65.787      7.344                                            10963  2  562 
     65.956      4.360                                            10963  2  563 
     66.058     20.510                                            10963  2  564 
     66.159     42.542                                            10963  2  565 
     66.294     14.567                                            10963  2  566 
     66.328      7.206                                            10963  2  567 
     66.430      5.709                                            10963  2  568 
     66.633      4.187                                            10963  2  569 
     66.768     32.092                                            10963  2  570 
     66.802     60.024                                            10963  2  571 
     66.937     29.108                                            10963  2  572 
     67.039     15.847                                            10963  2  573 
     67.208     58.450                                            10963  2  574 
     67.208    167.269                                            10963  2  575 
     67.377    193.696                                            10963  2  576 
     67.411    111.337                                            10963  2  577 
     67.547     76.009                                            10963  2  578 
     67.547    134.831                                            10963  2  579 
     67.716    231.843                                            10963  2  580 
     67.817     62.705                                            10963  2  581 
     67.885     21.513                                            10963  2  582 
     67.986      5.311                                            10963  2  583 
     68.156     21.444                                            10963  2  584 
     68.190     61.140                                            10963  2  585 
     68.257     92.004                                            10963  2  586 
     68.359     56.685                                            10963  2  587 
     68.393     15.501                                            10963  2  588 
     68.562      9.576                                            10963  2  589 
     68.731     30.120                                            10963  2  590 
     68.832     59.505                                            10963  2  591 
     68.866     88.907                                            10963  2  592 
     68.934    115.359                                            10963  2  593 
     69.036     59.453                                            10963  2  594 
     69.069     21.210                                            10963  2  595 
     69.306      3.503                                            10963  2  596 
     69.374     37.308                                            10963  2  597 
     69.475    125.515                                            10963  2  598 
     69.577    201.957                                            10963  2  599 
     69.679      1.938                                            10963  2  600 
     69.712     25.458                                            10963  2  601 
     69.848      0.424                                            10963  2  602 
     70.085      7.716                                            10963  2  603 
     70.355      9.117                                            10963  2  604 
     70.525     35.544                                            10963  2  605 
     70.660     10.510                                            10963  2  606 
     70.761     56.071                                            10963  2  607 
     70.897    113.387                                            10963  2  608 
     70.964     60.430                                            10963  2  609 
     71.066     11.877                                            10963  2  610 
     71.303      7.405                                            10963  2  611 
     71.472      4.420                                            10963  2  612 
     71.607     49.972                                            10963  2  613 
     71.709     24.947                                            10963  2  614 
     71.844     51.382                                            10963  2  615 
     71.980     18.996                                            10963  2  616 
     72.149     93.950                                            10963  2  617 
     72.183    126.293                                            10963  2  618 
     72.318     10.086                                            10963  2  619 
     72.352     93.898                                            10963  2  620 
     72.555      5.614                                            10963  2  621 
     72.589     23.252                                            10963  2  622 
     72.657     76.174                                            10963  2  623 
     72.724    177.624                                            10963  2  624 
     72.893     67.290                                            10963  2  625 
     72.961     27.568                                            10963  2  626 
     73.063     65.776                                            10963  2  627 
     73.130    102.522                                            10963  2  628 
     73.198     18.684                                            10963  2  629 
     73.333      3.945                                            10963  2  630 
     73.503     12.724                                            10963  2  631 
     73.503     52.429                                            10963  2  632 
     73.604     74.461                                            10963  2  633 
     73.706     50.907                                            10963  2  634 
     73.773      8.244                                            10963  2  635 
     73.909     12.621                                            10963  2  636 
     73.942     34.670                                            10963  2  637 
     74.179      8.140                                            10963  2  638 
     74.281     22.819                                            10963  2  639 
     74.382     43.381                                            10963  2  640 
     74.450    111.008                                            10963  2  641 
     74.585    112.444                                            10963  2  642 
     74.653     44.782                                            10963  2  643 
     74.788      5.043                                            10963  2  644 
     74.822     35.916                                            10963  2  645 
     75.025    168.212                                            10963  2  646 
     75.093    129.961                                            10963  2  647 
     75.127     41.720                                            10963  2  648 
     75.228     10.813                                            10963  2  649 
     75.330      0.493                                            10963  2  650 
     75.499     66.624                                            10963  2  651 
     75.601     72.480                                            10963  2  652 
     75.668     18.053                                            10963  2  653 
     75.838     -2.578                                            10963  2  654 
     76.074     13.538                                            10963  2  655 
     76.277     -1.220                                            10963  2  656 
     76.582      6.055                                            10963  2  657 
     76.717      8.962                                            10963  2  658 
     76.954     55.958                                            10963  2  659 
     77.157    163.256                                            10963  2  660 
     77.225    116.181                                            10963  2  661 
     77.327     44.099                                            10963  2  662 
     77.462     23.477                                            10963  2  663 
     77.597      5.796                                            10963  2  664 
     77.800     18.979                                            10963  2  665 
     77.936      4.239                                            10963  2  666 
     78.206      7.110                                            10963  2  667 
     78.240     46.806                                            10963  2  668 
     78.376    108.534                                            10963  2  669 
     78.443    123.222                                            10963  2  670 
     78.511     21.738                                            10963  2  671 
     78.680      4.048                                            10963  2  672 
     78.714     34.921                                            10963  2  673 
     78.849     89.296                                            10963  2  674 
     78.951      3.979                                            10963  2  675 
     78.985     21.617                                            10963  2  676 
     79.120    100.991                                            10963  2  677 
     79.255     58.311                                            10963  2  678 
     79.255      8.313                                            10963  2  679 
     79.526      3.832                                            10963  2  680 
     79.763     -0.640                                            10963  2  681 
     80.103     12.257                                            10963  2  682 
     80.374      7.809                                            10963  2  683 
     80.612      9.510                                            10963  2  684 
     80.749     22.636                                            10963  2  685 
     80.921     62.068                                            10963  2  686 
     81.059     89.228                                            10963  2  687 
     81.197    125.160                                            10963  2  688 
     81.364     84.773                                            10963  2  689 
     81.365    101.439                                            10963  2  690 
     81.469    141.763                                            10963  2  691 
     81.566     54.028                                            10963  2  692 
     81.597     13.672                                            10963  2  693 
     81.766     10.125                                            10963  2  694 
     81.868      6.594                                            10963  2  695 
     82.038      2.170                                            10963  2  696 
     82.208     13.534                                            10963  2  697 
     82.276      9.133                                            10963  2  698 
     82.582     14.326                                            10963  2  699 
     82.751      6.394                                            10963  2  700 
     82.853     16.896                                            10963  2  701 
     82.991     47.565                                            10963  2  702 
     83.028     91.413                                            10963  2  703 
     83.165    103.662                                            10963  2  704 
     83.230     57.159                                            10963  2  705 
     83.364     30.815                                            10963  2  706 
     83.401     75.541                                            10963  2  707 
     83.504     91.306                                            10963  2  708 
     83.536     64.107                                            10963  2  709 
     83.603     57.075                                            10963  2  710 
     83.741     92.129                                            10963  2  711 
     83.814    167.546                                            10963  2  712 
     83.906     20.166                                            10963  2  713 
     83.944     70.155                                            10963  2  714 
     83.974     10.502                                            10963  2  715 
     84.246     22.721                                            10963  2  716 
     84.347      5.155                                            10963  2  717 
     84.584      4.224                                            10963  2  718 
     84.653     19.997                                            10963  2  719 
     84.755     11.203                                            10963  2  720 
     84.859     55.913                                            10963  2  721 
     84.959     14.665                                            10963  2  722 
     84.960     37.470                                            10963  2  723 
     85.128      7.609                                            10963  2  724 
     85.332     15.457                                            10963  2  725 
     85.434      7.540                                            10963  2  726 
     85.739      4.840                                            10963  2  727 
     85.807     12.718                                            10963  2  728 
     85.977      3.909                                            10963  2  729 
     86.079     10.903                                            10963  2  730 
     86.215     17.012                                            10963  2  731 
     86.285     40.679                                            10963  2  732 
     86.387     54.690                                            10963  2  733 
     86.488     38.001                                            10963  2  734 
     86.522     33.608                                            10963  2  735 
     86.591     58.152                                            10963  2  736 
     86.728     73.909                                            10963  2  737 
     86.793     19.512                                            10963  2  738 
     86.795     56.351                                            10963  2  739 
     86.928     12.464                                            10963  2  740 
     87.065     24.713                                            10963  2  741 
     87.235     27.306                                            10963  2  742 
     87.371     30.784                                            10963  2  743 
     87.372     55.344                                            10963  2  744 
     87.609     36.870                                            10963  2  745 
     87.645     75.456                                            10963  2  746 
     87.751    142.094                                            10963  2  747 
     87.855    163.999                                            10963  2  748 
     87.951     78.018                                            10963  2  749 
     87.982     33.277                                            10963  2  750 
     88.185     16.565                                            10963  2  751 
     88.388      5.117                                            10963  2  752 
     88.592     10.333                                            10963  2  753 
     88.626     21.728                                            10963  2  754 
     88.729     30.476                                            10963  2  755 
     88.932     19.905                                            10963  2  756 
     89.068     29.522                                            10963  2  757 
     89.104     49.688                                            10963  2  758 
     89.273     40.879                                            10963  2  759 
     89.342     60.160                                            10963  2  760 
     89.481    111.003                                            10963  2  761 
     89.687    144.287                                            10963  2  762 
     89.752     91.644                                            10963  2  763 
     89.817     49.527                                            10963  2  764 
     89.886     69.685                                            10963  2  765 
     90.026    139.825                                            10963  2  766 
     90.198    164.346                                            10963  2  767 
     90.228    115.219                                            10963  2  768 
     90.296    102.924                                            10963  2  769 
     90.496     59.898                                            10963  2  770 
     90.630     18.643                                            10963  2  771 
     90.633     69.516                                            10963  2  772 
     90.765      6.332                                            10963  2  773 
     91.070      5.386                                            10963  2  774 
     91.274     13.234                                            10963  2  775 
     91.410      2.678                                            10963  2  776 
     91.478      6.171                                            10963  2  777 
     91.548     45.626                                            10963  2  778 
     91.684     50.858                                            10963  2  779 
     91.852     13.980                                            10963  2  780 
     91.887     28.006                                            10963  2  781 
     91.987      7.809                                            10963  2  782 
     92.157      4.263                                            10963  2  783 
     92.361      9.479                                            10963  2  784 
     92.568     69.955                                            10963  2  785 
     92.671     85.720                                            10963  2  786 
     92.705     83.081                                            10963  2  787 
     92.770     41.840                                            10963  2  788 
     92.938      7.594                                            10963  2  789 
     93.074     15.457                                            10963  2  790 
     93.278      9.271                                            10963  2  791 
     93.413      0.469                                            10963  2  792 
     93.617     14.457                                            10963  2  793 
     93.787     10.033                                            10963  2  794 
     93.990      2.970                                            10963  2  795 
     94.296     10.795                                            10963  2  796 
     94.433     20.412                                            10963  2  797 
     94.535     27.406                                            10963  2  798 
     94.672     43.164                                            10963  2  799 
     94.673     57.198                                            10963  2  800 
     94.844     74.702                                            10963  2  801 
     94.876     46.626                                            10963  2  802 
     95.047     67.639                                            10963  2  803 
     95.182     54.451                                            10963  2  804 
     95.213      5.324                                            10963  2  805 
     95.215     42.164                                            10963  2  806 
     95.484      0.877                                            10963  2  807 
     95.723     14.857                                            10963  2  808 
     95.825     23.605                                            10963  2  809 
     95.862     60.437                                            10963  2  810 
     96.101     79.680                                            10963  2  811 
     96.339     88.397                                            10963  2  812 
     96.408    100.662                                            10963  2  813 
     96.444    141.879                                            10963  2  814 
     96.612    114.650                                            10963  2  815 
     96.678     85.689                                            10963  2  816 
     96.775     10.233                                            10963  2  817 
     96.776     21.636                                            10963  2  818 
     96.910      3.185                                            10963  2  819 
     97.252     26.791                                            10963  2  820 
     97.353     18.874                                            10963  2  821 
     97.421     27.629                                            10963  2  822 
     97.524     39.009                                            10963  2  823 
     97.763     52.989                                            10963  2  824 
     97.863     32.792                                            10963  2  825 
     97.864     44.195                                            10963  2  826 
     97.964     23.998                                            10963  2  827 
     98.067     34.500                                            10963  2  828 
     98.133      6.417                                            10963  2  829 
     98.268     -2.385                                            10963  2  830 
     98.473      5.463                                            10963  2  831 
     98.608      2.801                                            10963  2  832 
     98.745     15.050                                            10963  2  833 
     98.914      0.100                                            10963  2  834 
     99.016      0.077                                            10963  2  835 
     99.085     16.727                                            10963  2  836 
     99.221     29.853                                            10963  2  837 
     99.393     55.251                                            10963  2  838 
     99.527     28.030                                            10963  2  839 
     99.627      4.324                                            10963  2  840 
     99.661     -0.069                                            10963  2  841 
     99.865      4.270                                            10963  2  842 
    100.086    120.354                                            10963  2  843 
    100.354    171.681                                            10963  2  844 
    100.366     38.348                                            10963  2  845 
    100.438    112.094                                            10963  2  846 
    100.559      5.310                                            10963  2  847 
    100.763      9.440                                            10963  2  848 
    100.815     14.749                                            10963  2  849 
    100.880     63.717                                            10963  2  850 
    101.086     75.516                                            10963  2  851 
    101.120     15.929                                            10963  2  852 
    101.375     21.829                                            10963  2  853 
    101.384     52.507                                            10963  2  854 
    101.685     41.888                                            10963  2  855 
    101.853     97.345                                            10963  2  856 
    102.083     16.519                                            10963  2  857 
    102.338     22.419                                            10963  2  858 
    102.689      8.850                                            10963  2  859 
    102.891      7.080                                            10963  2  860 
    103.056     54.277                                            10963  2  861 
    103.175    113.864                                            10963  2  862 
    103.279    121.534                                            10963  2  863 
    103.419     80.236                                            10963  2  864 
    103.509     42.478                                            10963  2  865 
    103.655     20.059                                            10963  2  866 
    103.821     69.617                                            10963  2  867 
    104.087    111.504                                            10963  2  868 
    104.113     28.909                                            10963  2  869 
    104.359      3.540                                            10963  2  870 
    104.521     38.348                                            10963  2  871 
    104.597    125.664                                            10963  2  872 
    104.753    136.283                                            10963  2  873 
    104.816      7.080                                            10963  2  874 
    105.215         9.                                            10963  2  875 
    105.273         6.                                            10963  2  876 
    105.377         6.                                            10963  2  877 
    105.421        12.                                            10963  2  878 
    105.499        18.                                            10963  2  879 
    105.509        26.                                            10963  2  880 
    105.562        43.                                            10963  2  881 
    105.603        60.                                            10963  2  882 
    105.657        74.                                            10963  2  883 
    105.736        76.                                            10963  2  884 
    105.789        51.                                            10963  2  885 
    105.806        31.                                            10963  2  886 
    105.877        20.                                            10963  2  887 
    105.949         7.                                            10963  2  888 
    106.041         6.                                            10963  2  889 
    106.076         4.                                            10963  2  890 
    106.143        12.                                            10963  2  891 
    106.188        15.                                            10963  2  892 
    106.232        22.                                            10963  2  893 
    106.304        10.                                            10963  2  894 
    106.320        36.                                            10963  2  895 
    106.388        39.                                            10963  2  896 
    106.403        67.                                            10963  2  897 
    106.436        75.                                            10963  2  898 
    106.484       109.                                            10963  2  899 
    106.527       118.                                            10963  2  900 
    106.601       144.                                            10963  2  901 
    106.620       116.                                            10963  2  902 
    106.627       130.                                            10963  2  903 
    106.704       102.                                            10963  2  904 
    106.773        57.                                            10963  2  905 
    106.838        27.                                            10963  2  906 
    106.866         9.                                            10963  2  907 
    106.958         5.                                            10963  2  908 
    107.095         7.                                            10963  2  909 
    107.175        11.                                            10963  2  910 
    107.289        13.                                            10963  2  911 
    107.325         6.                                            10963  2  912 
    107.447        22.                                            10963  2  913 
    107.462         7.                                            10963  2  914 
    107.528        17.                                            10963  2  915 
    107.553         9.                                            10963  2  916 
    107.632        16.                                            10963  2  917 
    107.657         6.                                            10963  2  918 
    107.724        12.                                            10963  2  919 
    107.779        21.                                            10963  2  920 
    107.841        47.                                            10963  2  921 
    107.848        23.                                            10963  2  922 
    107.925        33.                                            10963  2  923 
    107.939        69.                                            10963  2  924 
    108.018        70.                                            10963  2  925 
    108.109        75.                                            10963  2  926 
    108.122        70.                                            10963  2  927 
    108.191        67.                                            10963  2  928 
    108.240        58.                                            10963  2  929 
    108.275        53.                                            10963  2  930 
    108.330        20.                                            10963  2  931 
    108.354        13.                                            10963  2  932 
    108.490        21.                                            10963  2  933 
    108.540         6.                                            10963  2  934 
    108.587         2.                                            10963  2  935 
    108.677         6.                                            10963  2  936 
    108.779        10.                                            10963  2  937 
    108.826         7.                                            10963  2  938 
    108.941         4.                                            10963  2  939 
    108.975         7.                                            10963  2  940 
    109.030        15.                                            10963  2  941 
    109.074        24.                                            10963  2  942 
    109.143        21.                                            10963  2  943 
    109.183        46.                                            10963  2  944 
    109.214        58.                                            10963  2  945 
    109.262        48.                                            10963  2  946 
    109.306        57.                                            10963  2  947 
    109.367        42.                                            10963  2  948 
    109.394        27.                                            10963  2  949 
    109.420        14.                                            10963  2  950 
    109.491         6.                                            10963  2  951 
    109.569        14.                                            10963  2  952 
    109.570         9.                                            10963  2  953 
    109.611        28.                                            10963  2  954 
    109.687        43.                                            10963  2  955 
    109.720        52.                                            10963  2  956 
    109.772        71.                                            10963  2  957 
    109.792        83.                                            10963  2  958 
    109.842       111.                                            10963  2  959 
    109.894       130.                                            10963  2  960 
    109.964       126.                                            10963  2  961 
    109.968       109.                                            10963  2  962 
    110.032        86.                                            10963  2  963 
    110.085        56.                                            10963  2  964 
    110.141        17.                                            10963  2  965 
    110.186        22.                                            10963  2  966 
    110.304         9.                                            10963  2  967 
    110.370        19.                                            10963  2  968 
    110.403        25.                                            10963  2  969 
    110.436        29.                                            10963  2  970 
    110.481        34.                                            10963  2  971 
    110.535        44.                                            10963  2  972 
    110.595        36.                                            10963  2  973 
    110.634        19.                                            10963  2  974 
    110.694         8.                                            10963  2  975 
    110.764         2.                                            10963  2  976 
    110.844         3.                                            10963  2  977 
    110.945        12.                                            10963  2  978 
    111.073         3.                                            10963  2  979 
    111.118         6.                                            10963  2  980 
    111.257         4.                                            10963  2  981 
    111.276        17.                                            10963  2  982 
    111.379        16.                                            10963  2  983 
    111.393         8.                                            10963  2  984 
    111.434        26.                                            10963  2  985 
    111.487        42.                                            10963  2  986 
    111.538        68.                                            10963  2  987 
    111.552       100.                                            10963  2  988 
    111.592       124.                                            10963  2  989 
    111.632       145.                                            10963  2  990 
    111.708       160.                                            10963  2  991 
    111.749       135.                                            10963  2  992 
    111.780       147.                                            10963  2  993 
    111.816        97.                                            10963  2  994 
    111.928        65.                                            10963  2  995 
    111.930        57.                                            10963  2  996 
    111.996        24.                                            10963  2  997 
    112.019        69.                                            10963  2  998 
    112.055        61.                                            10963  2  999 
    112.131        79.                                            10963  2 1000 
    112.157       110.                                            10963  2 1001 
    112.161       138.                                            10963  2 1002 
    112.251       144.                                            10963  2 1003 
    112.354       100.                                            10963  2 1004 
    112.371        80.                                            10963  2 1005 
    112.403        48.                                            10963  2 1006 
    112.490        20.                                            10963  2 1007 
    112.667         1.                                            10963  2 1008 
    112.735         4.                                            10963  2 1009 
    113.796     41.888                                            10963  2 1010 
    113.945     33.038                                            10963  2 1011 
    114.150     40.118                                            10963  2 1012 
    114.244     15.339                                            10963  2 1013 
    114.494      2.950                                            10963  2 1014 
    114.702     19.469                                            10963  2 1015 
    115.002      7.670                                            10963  2 1016 
    115.006     19.469                                            10963  2 1017 
    115.318     48.378                                            10963  2 1018 
    115.328     80.826                                            10963  2 1019 
    115.668     30.088                                            10963  2 1020 
    115.675     57.227                                            10963  2 1021 
    115.885     79.646                                            10963  2 1022 
    116.016      8.850                                            10963  2 1023 
    116.021     25.369                                            10963  2 1024 
    116.267      1.770                                            10963  2 1025 
    116.524     14.159                                            10963  2 1026 
    116.729     21.829                                            10963  2 1027 
    116.942     55.457                                            10963  2 1028 
    117.186     22.419                                            10963  2 1029 
    117.300     66.667                                            10963  2 1030 
    117.509     90.265                                            10963  2 1031 
    117.603     64.897                                            10963  2 1032 
    117.696     35.398                                            10963  2 1033 
    117.844     20.649                                            10963  2 1034 
    118.055     50.737                                            10963  2 1035 
    118.268     86.136                                            10963  2 1036 
    118.356     39.528                                            10963  2 1037 
    118.668     66.667                                            10963  2 1038 
    118.764     48.378                                            10963  2 1039 
    118.903      4.130                                            10963  2 1040 
    119.260     11.799                                            10963  2 1041 
    119.410      3.540                                            10963  2 1042 
    119.714      4.720                                            10963  2 1043 
    119.972     20.649                                            10963  2 1044 
    120.283     44.838                                            10963  2 1045 
    120.488     51.327                                            10963  2 1046 
    120.499     91.445                                            10963  2 1047 
    120.658    113.864                                            10963  2 1048 
    120.837     30.678                                            10963  2 1049 
    121.048     62.537                                            10963  2 1050 
    121.097     53.687                                            10963  2 1051 
    121.143     37.758                                            10963  2 1052 
    121.290     23.009                                            10963  2 1053 
    121.349     49.558                                            10963  2 1054 
    121.514     94.985                                            10963  2 1055 
    121.629    143.363                                            10963  2 1056 
    121.788    164.602                                            10963  2 1057 
    121.917     86.136                                            10963  2 1058 
    122.000     24.189                                            10963  2 1059 
    122.151     20.649                                            10963  2 1060 
    122.201     18.879                                            10963  2 1061 
    122.301     14.749                                            10963  2 1062 
    122.351     11.209                                            10963  2 1063 
    122.469     66.667                                            10963  2 1064 
    122.693    142.183                                            10963  2 1065 
    122.837    113.864                                            10963  2 1066 
    122.857      6.490                                            10963  2 1067 
    122.975     65.487                                            10963  2 1068 
    123.210      2.360                                            10963  2 1069 
    123.415     10.029                                            10963  2 1070 
    123.569     17.109                                            10963  2 1071 
    123.717      4.130                                            10963  2 1072 
    123.820     10.029                                            10963  2 1073 
    124.125     12.389                                            10963  2 1074 
    124.230     25.369                                            10963  2 1075 
    124.341     57.227                                            10963  2 1076 
    124.483     22.419                                            10963  2 1077 
    124.579      4.130                                            10963  2 1078 
    124.783      7.670                                            10963  2 1079 
    124.787     21.829                                            10963  2 1080 
    125.042     28.909                                            10963  2 1081 
    125.201     53.687                                            10963  2 1082 
    125.398     32.448                                            10963  2 1083 
    125.495     16.519                                            10963  2 1084 
    125.601     34.218                                            10963  2 1085 
    125.760     57.227                                            10963  2 1086 
    125.969     80.236                                            10963  2 1087 
    126.103     17.699                                            10963  2 1088 
    126.203     14.159                                            10963  2 1089 
    126.303     10.029                                            10963  2 1090 
    126.556      7.080                                            10963  2 1091 
    126.760     11.799                                            10963  2 1092 
    126.920     38.938                                            10963  2 1093 
    126.977     61.947                                            10963  2 1094 
    127.131     66.667                                            10963  2 1095 
    127.224     38.938                                            10963  2 1096 
    127.424     28.319                                            10963  2 1097 
    127.472     18.879                                            10963  2 1098 
    127.678     33.038                                            10963  2 1099 
    128.028     14.749                                            10963  2 1100 
    128.031     27.139                                            10963  2 1101 
    128.136     39.528                                            10963  2 1102 
    128.399     71.976                                            10963  2 1103 
    130.206     20.876                                            10963  2 1104 
    130.311     40.475                                            10963  2 1105 
    130.468     63.483                                            10963  2 1106 
    130.667     48.137                                            10963  2 1107 
    130.765     31.090                                            10963  2 1108 
    130.963      9.778                                            10963  2 1109 
    131.215      3.380                                            10963  2 1110 
    131.418      7.210                                            10963  2 1111 
    131.827     27.655                                            10963  2 1112 
    131.977     18.277                                            10963  2 1113 
    132.131     30.631                                            10963  2 1114 
    132.238     58.753                                            10963  2 1115 
    132.439     53.209                                            10963  2 1116 
    132.736     21.241                                            10963  2 1117 
    132.740     43.826                                            10963  2 1118 
    132.937     16.123                                            10963  2 1119 
    132.990     28.053                                            10963  2 1120 
    133.394     24.208                                            10963  2 1121 
    133.444     19.520                                            10963  2 1122 
    133.701     39.968                                            10963  2 1123 
    133.803     44.227                                            10963  2 1124 
    133.852     38.686                                            10963  2 1125 
    134.001     21.211                                            10963  2 1126 
    134.052     26.750                                            10963  2 1127 
    134.356     27.168                                            10963  2 1128 
    134.409     38.247                                            10963  2 1129 
    134.511     44.210                                            10963  2 1130 
    134.709     21.194                                            10963  2 1131 
    134.860     16.077                                            10963  2 1132 
    135.124     71.042                                            10963  2 1133 
    135.369     34.815                                            10963  2 1134 
    135.527     61.657                                            10963  2 1135 
    135.680     69.750                                            10963  2 1136 
    135.775     41.623                                            10963  2 1137 
    135.870      8.382                                            10963  2 1138 
    136.122      5.393                                            10963  2 1139 
    136.426      7.517                                            10963  2 1140 
    136.578      4.956                                            10963  2 1141 
    137.033      4.519                                            10963  2 1142 
    137.142     46.704                                            10963  2 1143 
    137.297     60.337                                            10963  2 1144 
    137.401     74.397                                            10963  2 1145 
    137.549     56.069                                            10963  2 1146 
    137.643     18.567                                            10963  2 1147 
    137.691      8.765                                            10963  2 1148 
    137.845     16.858                                            10963  2 1149 
    137.999     30.490                                            10963  2 1150 
    138.153     41.992                                            10963  2 1151 
    138.252     29.632                                            10963  2 1152 
    138.450      8.747                                            10963  2 1153 
    138.453     23.661                                            10963  2 1154 
    138.655     22.804                                            10963  2 1155 
    138.709     36.439                                            10963  2 1156 
    138.911     38.565                                            10963  2 1157 
    138.957     12.996                                            10963  2 1158 
    139.056      4.897                                            10963  2 1159 
    139.259      4.466                                            10963  2 1160 
    139.313     20.658                                            10963  2 1161 
    139.415     27.900                                            10963  2 1162 
    139.674     55.592                                            10963  2 1163 
    139.922     34.706                                            10963  2 1164 
    140.072     24.901                                            10963  2 1165 
    140.128     52.598                                            10963  2 1166 
    140.332     57.281                                            10963  2 1167 
    140.380     46.200                                            10963  2 1168 
    140.628     21.052                                            10963  2 1169 
    140.784     43.634                                            10963  2 1170 
    140.934     34.681                                            10963  2 1171 
    140.940     61.102                                            10963  2 1172 
    141.135     28.285                                            10963  2 1173 
    141.298     82.400                                            10963  2 1174 
    141.664    140.772                                            10963  2 1175 
    141.816    144.177                                            10963  2 1176 
    142.006     82.383                                            10963  2 1177 
    142.045     23.149                                            10963  2 1178 
    142.247     19.309                                            10963  2 1179 
    142.347     15.898                                            10963  2 1180 
    142.349     27.829                                            10963  2 1181 
    142.505     44.445                                            10963  2 1182 
    142.653     26.970                                            10963  2 1183 
    142.959     39.747                                            10963  2 1184 
    143.054      9.915                                            10963  2 1185 
    143.266     59.341                                            10963  2 1186 
    143.363     37.180                                            10963  2 1187 
    143.611     10.754                                            10963  2 1188 
    143.663     17.997                                            10963  2 1189 
    143.918     29.496                                            10963  2 1190 
    144.066     11.595                                            10963  2 1191 
    144.221     26.080                                            10963  2 1192 
    144.318      7.328                                            10963  2 1193 
    144.625     20.957                                            10963  2 1194 
    144.825     10.725                                            10963  2 1195 
    144.978     17.113                                            10963  2 1196 
    145.181     22.648                                            10963  2 1197 
    145.335     30.741                                            10963  2 1198 
    145.444     70.369                                            10963  2 1199 
    145.550     92.525                                            10963  2 1200 
    145.697     68.658                                            10963  2 1201 
    145.702     95.078                                            10963  2 1202 
    145.741     38.828                                            10963  2 1203 
    145.894     43.938                                            10963  2 1204 
    146.052     75.894                                            10963  2 1205 
    146.203     70.351                                            10963  2 1206 
    146.297     36.258                                            10963  2 1207 
    146.395     17.079                                            10963  2 1208 
    146.494      8.128                                            10963  2 1209 
    146.847      5.137                                            10963  2 1210 
    147.000     11.099                                            10963  2 1211 
    147.103     20.471                                            10963  2 1212 
    147.412     45.606                                            10963  2 1213 
    147.564     47.733                                            10963  2 1214 
    147.763     31.109                                            10963  2 1215 
    148.013     15.336                                            10963  2 1216 
    148.015     26.415                                            10963  2 1217 
    148.069     41.755                                            10963  2 1218 
    148.172     53.258                                            10963  2 1219 
    148.376     61.776                                            10963  2 1220 
    148.672     20.434                                            10963  2 1221 
    148.721     12.336                                            10963  2 1222 
    149.023      3.806                                            10963  2 1223 
    149.125      8.917                                            10963  2 1224 
    149.378     12.320                                            10963  2 1225 
    149.633     19.132                                            10963  2 1226 
    149.832      5.065                                            10963  2 1227 
    149.935     11.455                                            10963  2 1228 
    150.039     25.941                                            10963  2 1229 
    150.196     51.505                                            10963  2 1230 
    150.402     69.824                                            10963  2 1231 
    150.653     59.591                                            10963  2 1232 
    150.697     29.334                                            10963  2 1233 
    150.946      9.726                                            10963  2 1234 
    151.299      4.178                                            10963  2 1235 
    151.301     13.553                                            10963  2 1236 
    151.562     53.603                                            10963  2 1237 
    151.814     50.614                                            10963  2 1238 
    151.964     39.105                                            10963  2 1239 
    152.115     33.562                                            10963  2 1240 
    152.223     67.650                                            10963  2 1241 
    152.426     71.054                                            10963  2 1242 
    152.473     54.008                                            10963  2 1243 
    152.622     39.941                                            10963  2 1244 
    152.772     30.989                                            10963  2 1245 
    152.972     20.757                                            10963  2 1246 
    153.178     39.076                                            10963  2 1247 
    153.476     10.518                                            10963  2 1248 
    153.732     24.148                                            10963  2 1249 
    153.841     64.628                                            10963  2 1250 
    153.998     92.749                                            10963  2 1251 
    154.148     81.240                                            10963  2 1252 
    154.237     23.284                                            10963  2 1253 
    154.293     50.981                                            10963  2 1254 
    154.438     13.904                                            10963  2 1255 
    154.540     21.572                                            10963  2 1256 
    154.902     59.063                                            10963  2 1257 
    155.263     91.441                                            10963  2 1258 
    155.410     68.852                                            10963  2 1259 
    155.609     52.654                                            10963  2 1260 
    155.756     29.639                                            10963  2 1261 
    155.854     12.165                                            10963  2 1262 
    156.160     25.794                                            10963  2 1263 
    156.517     38.144                                            10963  2 1264 
    156.667     31.322                                            10963  2 1265 
    156.767     22.371                                            10963  2 1266 
    157.018     14.694                                            10963  2 1267 
    157.276     38.552                                            10963  2 1268 
    157.282     68.381                                            10963  2 1269 
    157.381     59.856                                            10963  2 1270 
    157.586     70.931                                            10963  2 1271 
    157.835     50.896                                            10963  2 1272 
    157.933     38.110                                            10963  2 1273 
    158.080     12.112                                            10963  2 1274 
    158.081     19.782                                            10963  2 1275 
    158.382      5.287                                            10963  2 1276 
    158.687     12.950                                            10963  2 1277 
    158.740     23.602                                            10963  2 1278 
    158.897     49.166                                            10963  2 1279 
    159.001     64.079                                            10963  2 1280 
    159.207     82.397                                            10963  2 1281 
    159.303     58.105                                            10963  2 1282 
    159.453     47.022                                            10963  2 1283 
    159.602     33.382                                            10963  2 1284 
    159.801     19.315                                            10963  2 1285 
    160.003     13.246                                            10963  2 1286 
    160.638     31.683                                            10963  2 1287 
    160.651     41.487                                            10963  2 1288 
    162.096     57.585                                            10963  2 1289 
    162.836      3.424                                            10963  2 1290 
    163.521     58.743                                            10963  2 1291 
    164.142     67.610                                            10963  2 1292 
    165.156     65.503                                            10963  2 1293 
    165.688      7.609                                            10963  2 1294 
    165.931     37.019                                            10963  2 1295 
    166.570     58.491                                            10963  2 1296 
    167.919      2.927                                            10963  2 1297 
    167.956     30.938                                            10963  2 1298 
    168.783     40.970                                            10963  2 1299 
    169.034     76.450                                            10963  2 1300 
    169.658     86.717                                            10963  2 1301 
    170.612     40.025                                            10963  2 1302 
    171.409     27.882                                            10963  2 1303 
    171.585      7.806                                            10963  2 1304 
    172.644     39.079                                            10963  2 1305 
    172.888     69.657                                            10963  2 1306 
    174.073     43.739                                            10963  2 1307 
    175.482     32.759                                            10963  2 1308 
    175.854      7.547                                            10963  2 1309 
    176.083     26.687                                            10963  2 1310 
    176.310     43.959                                            10963  2 1311 
    176.978     87.373                                            10963  2 1312 
    178.733     31.339                                            10963  2 1313 
    178.910     11.963                                            10963  2 1314 
    179.353     38.805                                            10963  2 1315 
    180.137     16.858                                            10963  2 1316 
    180.570     36.697                                            10963  2 1317 
    181.249     88.281                                            10963  2 1318 
    181.393     44.161                                            10963  2 1319 
    181.773     24.318                                            10963  2 1320 
    182.834     56.991                                            10963  2 1321 
    183.258     70.294                                            10963  2 1322 
    184.246     48.579                                            10963  2 1323 
    184.792      0.956                                            10963  2 1324 
    185.670     49.738                                            10963  2 1325 
    187.706     51.359                                            10963  2 1326 
    187.861     15.877                                            10963  2 1327 
    189.124     47.382                                            10963  2 1328 
    190.305     18.663                                            10963  2 1329 
    190.558     56.011                                            10963  2 1330 
    191.754     38.263                                            10963  2 1331 
    192.321      6.046                                            10963  2 1332 
    192.999     56.696                                            10963  2 1333 
    194.161     13.738                                            10963  2 1334 
    194.605     41.513                                            10963  2 1335 
    195.250     67.187                                            10963  2 1336 
    196.649     48.971                                            10963  2 1337 
    196.800     10.220                                            10963  2 1338 
    198.074     50.829                                            10963  2 1339 
    198.628      8.575                                            10963  2 1340 
    199.261     26.312                                            10963  2 1341 
    199.458     21.175                                            10963  2 1342 
    200.045      4.365                                            10963  2 1343 
    200.899     34.939                                            10963  2 1344 
    200.929     56.648                                            10963  2 1345 
    201.550     65.281                                            10963  2 1346 
    201.690     17.660                                            10963  2 1347 
    202.715     23.957                                            10963  2 1348 
    203.591     70.871                                            10963  2 1349 
    205.201     58.956                                            10963  2 1350 
    205.342     12.036                                            10963  2 1351 
    206.010     55.683                                            10963  2 1352 
    206.551      4.092                                            10963  2 1353 
    207.017     48.441                                            10963  2 1354 
    208.825     32.323                                            10963  2 1355 
    209.012     20.183                                            10963  2 1356 
    210.265     44.452                                            10963  2 1357 
    211.043     18.537                                            10963  2 1358 
    212.312     54.477                                            10963  2 1359 
    213.070     13.856                                            10963  2 1360 
    213.703     30.426                                            10963  2 1361 
    214.296     17.817                                            10963  2 1362 
    215.146     45.590                                            10963  2 1363 
    215.725     22.243                                            10963  2 1364 
    215.984     64.259                                            10963  2 1365 
    217.182     47.445                                            10963  2 1366 
    217.340     13.830                                            10963  2 1367 
    218.345      5.187                                            10963  2 1368 
    218.564     16.624                                            10963  2 1369 
    219.192     30.159                                            10963  2 1370 
    219.811     36.924                                            10963  2 1371 
    220.627     39.020                                            10963  2 1372 
    221.228     32.247                                            10963  2 1373 
    221.438     37.381                                            10963  2 1374 
    222.006      6.098                                            10963  2 1375 
    222.026     21.038                                            10963  2 1376 
    223.453     24.064                                            10963  2 1377 
    224.671     22.422                                            10963  2 1378 
    224.707     49.500                                            10963  2 1379 
    225.059      8.414                                            10963  2 1380 
    227.100     14.471                                            10963  2 1381 
    227.289      3.498                                            10963  2 1382 
    227.353     51.118                                            10963  2 1383 
    228.552     35.938                                            10963  2 1384 
    229.127      9.323                                            10963  2 1385 
    229.600     59.508                                            10963  2 1386 
    230.189     43.864                                            10963  2 1387 
    231.162     10.945                                            10963  2 1388 
    231.189     30.786                                            10963  2 1389 
    232.821     35.445                                            10963  2 1390 
    234.018     18.397                                            10963  2 1391 
    234.657     39.869                                            10963  2 1392 
    235.235     16.055                                            10963  2 1393 
    236.449     11.846                                            10963  2 1394 
    236.474     30.287                                            10963  2 1395 
    236.846      4.607                                            10963  2 1396 
    238.314     37.512                                            10963  2 1397 
    239.092     11.363                                            10963  2 1398 
    239.357     57.114                                            10963  2 1399 
    240.593     69.711                                            10963  2 1400 
    240.815     83.249                                            10963  2 1401 
    241.782     46.361                                            10963  2 1402 
    241.952     21.850                                            10963  2 1403 
    242.616     61.529                                            10963  2 1404 
    243.782     21.606                                            10963  2 1405 
    244.172      8.998                                            10963  2 1406 
    244.612     33.972                                            10963  2 1407 
    245.598     11.324                                            10963  2 1408 
    246.033     32.330                                            10963  2 1409 
    246.884     60.569                                            10963  2 1410 
    247.474     45.393                                            10963  2 1411 
    248.250     18.077                                            10963  2 1412 
    248.481     38.384                                            10963  2 1413 
    249.107     50.285                                            10963  2 1414 
    250.688     16.195                                            10963  2 1415 
    250.915     33.934                                            10963  2 1416 
    251.548     51.204                                            10963  2 1417 
    252.185     71.275                                            10963  2 1418 
    253.778     46.522                                            10963  2 1419 
    253.922      1.936                                            10963  2 1420 
    254.143     15.707                                            10963  2 1421 
    254.580     37.880                                            10963  2 1422 
    255.793     33.204                                            10963  2 1423 
    256.166      7.758                                            10963  2 1424 
    258.027     31.089                                            10963  2 1425 
    258.405      9.611                                            10963  2 1426 
    258.861     46.257                                            10963  2 1427 
    260.083     48.351                                            10963  2 1428 
    260.882     37.141                                            10963  2 1429 
    261.055     14.964                                            10963  2 1430 
    261.496     40.405                                            10963  2 1431 
    262.512     39.699                                            10963  2 1432 
    263.288     12.149                                            10963  2 1433 
    263.302     22.187                                            10963  2 1434 
    264.531     29.182                                            10963  2 1435 
    265.326     15.872                                            10963  2 1436 
    265.968     39.911                                            10963  2 1437 
    266.177     43.878                                            10963  2 1438 
    267.386     35.467                                            10963  2 1439 
    268.384     21.922                                            10963  2 1440 
    268.777     11.649                                            10963  2 1441 
    269.595     15.146                                            10963  2 1442 
    269.819     30.784                                            10963  2 1443 
    270.650     43.851                                            10963  2 1444 
    270.845     37.314                                            10963  2 1445 
    272.051     27.269                                            10963  2 1446 
    272.435     10.226                                            10963  2 1447 
    274.283     23.987                                            10963  2 1448 
    274.307     41.961                                            10963  2 1449 
    274.496     31.222                                            10963  2 1450 
    275.284     12.543                                            10963  2 1451 
    276.136     41.250                                            10963  2 1452 
    277.374     54.548                                            10963  2 1453 
    277.969     43.573                                            10963  2 1454 
    278.140     19.062                                            10963  2 1455 
    278.365     35.167                                            10963  2 1456 
    279.764     17.185                                            10963  2 1457 
    280.164     12.747                                            10963  2 1458 
    280.391     30.253                                            10963  2 1459 
    281.035     55.226                                            10963  2 1460 
    282.856     48.912                                            10963  2 1461 
    283.251     40.273                                            10963  2 1462 
    283.632     21.363                                            10963  2 1463 
    284.069     44.003                                            10963  2 1464 
    285.248     13.183                                            10963  2 1465 
    286.099     40.956                                            10963  2 1466 
    286.464     10.608                                            10963  2 1467 
    287.298     25.776                                            10963  2 1468 
    287.478      8.034                                            10963  2 1469 
    288.338     43.276                                            10963  2 1470 
    289.144     37.903                                            10963  2 1471 
    289.554     40.234                                            10963  2 1472 
    290.122      9.185                                            10963  2 1473 
    290.375     45.832                                            10963  2 1474 
    291.600     50.026                                            10963  2 1475 
    291.974     25.747                                            10963  2 1476 
    293.035     58.187                                            10963  2 1477 
    294.000     20.366                                            10963  2 1478 
    294.262     63.782                                            10963  2 1479 
    294.426     34.836                                            10963  2 1480 
    295.823     15.219                                            10963  2 1481 
    295.872     51.634                                            10963  2 1482 
    296.854     25.717                                            10963  2 1483 
    297.079     42.056                                            10963  2 1484 
    298.305     46.484                                            10963  2 1485 
    298.878     18.936                                            10963  2 1486 
    298.900     35.275                                            10963  2 1487 
    299.275     11.697                                            10963  2 1488 
    299.852     10.723                                            10963  2 1489 
    303.229     58.738                                            10963  2 1490 
    305.189     34.728                                            10963  2 1491 
    308.003      7.687                                            10963  2 1492 
    315.070     23.999                                            10963  2 1493 
    315.437     55.467                                            10963  2 1494 
    316.455     40.781                                            10963  2 1495 
    320.417     47.305                                            10963  2 1496 
    320.538     38.680                                            10963  2 1497 
    322.912     42.874                                            10963  2 1498 
    323.309     14.669                                            10963  2 1499 
    323.916     29.121                                            10963  2 1500 
    327.849     37.743                                            10963  2 1501 
    329.283     51.029                                            10963  2 1502 
    331.286     23.988                                            10963  2 1503 
    332.654     41.936                                            10963  2 1504 
    335.011     47.295                                            10963  2 1505 
    339.256     33.773                                            10963  2 1506 
    340.366     12.560                                            10963  2 1507 
    342.463     36.335                                            10963  2 1508 
    347.581     18.383                                            10963  2 1509 
    347.806     59.874                                            10963  2 1510 
    350.479     42.856                                            10963  2 1511 
    353.577     53.110                                            10963  2 1512 
    354.875     18.611                                            10963  2 1513 
    357.845     37.956                                            10963  2 1514 
    363.708     24.666                                            10963  2 1515 
    365.946     38.417                                            10963  2 1516 
    366.252     16.739                                            10963  2 1517 
    366.612     48.673                                            10963  2 1518 
    368.530     27.693                                            10963  2 1519 
    371.107     17.435                                            10963  2 1520 
    375.456     54.028                                            10963  2 1521 
    377.715      8.806                                            10963  2 1522 
    380.409     47.731                                            10963  2 1523 
    384.014     22.088                                            10963  2 1524 
    385.035      7.169                                            10963  2 1525 
    391.793     45.392                                            10963  2 1526 
    392.795     31.872                                            10963  2 1527 
    394.696     12.058                                            10963  2 1528 
    396.895     28.606                                            10963  2 1529 
    400.164     26.739                                            10963  2 1530 
    401.179     12.286                                            10963  2 1531 
    403.368     29.534                                            10963  2 1532 
    407.386     32.095                                            10963  2 1533 
    407.662     12.515                                            10963  2 1534 
    409.627     45.614                                            10963  2 1535 
    413.209     21.602                                            10963  2 1536 
    413.777     38.851                                            10963  2 1537 
    420.240     40.478                                            10963  2 1538 
    420.490     22.763                                            10963  2 1539 
    420.903     50.967                                            10963  2 1540 
    425.493     12.969                                            10963  2 1541 
    426.671     44.437                                            10963  2 1542 
    427.389     50.963                                            10963  2 1543 
    431.647     36.508                                            10963  2 1544 
    435.176     16.226                                            10963  2 1545 
    435.589     44.431                                            10963  2 1546 
    439.197     18.554                                            10963  2 1547 
    439.818     32.074                                            10963  2 1548 
    441.341     39.066                                            10963  2 1549 
    443.697     44.425                                            10963  2 1550 
    444.719     29.506                                            10963  2 1551 
    448.608     41.159                                            10963  2 1552 
    451.914     36.727                                            10963  2 1553 
    452.128     21.576                                            10963  2 1554 
    457.629     33.926                                            10963  2 1555 
    459.451     19.706                                            10963  2 1556 
    460.015     37.188                                            10963  2 1557 
    463.232     39.051                                            10963  2 1558 
    464.345     17.605                                            10963  2 1559 
    467.933     50.703                                            10963  2 1560 
    471.646     17.367                                            10963  2 1561 
    472.981     37.646                                            10963  2 1562 
    476.547     14.800                                            10963  2 1563 
    477.850     37.409                                            10963  2 1564 
    477.889     34.612                                            10963  2 1565 
    482.833     29.015                                            10963  2 1566 
    483.302     53.256                                            10963  2 1567 
    485.068     42.999                                            10963  2 1568 
    487.018     19.688                                            10963  2 1569 
    488.702     15.258                                            10963  2 1570 
    490.789     39.732                                            10963  2 1571 
    491.020     23.415                                            10963  2 1572 
    494.092     35.534                                            10963  2 1573 
    495.110     20.848                                            10963  2 1574 
    496.504     36.931                                            10963  2 1575 
    498.868     41.824                                            10963  2 1576 
    500.743     23.874                                            10963  2 1577 
    502.223     33.897                                            10963  2 1578 
    505.371     40.654                                            10963  2 1579 
    507.295     19.208                                            10963  2 1580 
    509.513     34.358                                            10963  2 1581 
    511.877     39.251                                            10963  2 1582 
    512.944     21.069                                            10963  2 1583 
    513.534     36.686                                            10963  2 1584 
    516.154     23.398                                            10963  2 1585 
    517.533     40.646                                            10963  2 1586 
    520.267     19.199                                            10963  2 1587 
    521.715     31.553                                            10963  2 1588 
    523.901     49.033                                            10963  2 1589 
    528.949     35.977                                            10963  2 1590 
    530.440     45.299                                            10963  2 1591 
    531.674     15.229                                            10963  2 1592 
    532.859     46.230                                            10963  2 1593 
    534.806     23.152                                            10963  2 1594 
    537.031     37.836                                            10963  2 1595 
    537.297     18.955                                            10963  2 1596 
    540.380     30.375                                            10963  2 1597 
    543.794     18.251                                            10963  2 1598 
    545.894     41.793                                            10963  2 1599 
    546.942     25.009                                            10963  2 1600 
    550.884     32.932                                            10963  2 1601 
    551.111     16.848                                            10963  2 1602 
    551.649     36.194                                            10963  2 1603 
    554.252     24.072                                            10963  2 1604 
    555.243     11.251                                            10963  2 1605 
    557.554     19.874                                            10963  2 1606 
    560.633     31.526                                            10963  2 1607 
    563.305     14.509                                            10963  2 1608 
    566.013     52.502                                            10963  2 1609 
    568.942     17.302                                            10963  2 1610 
    569.598     28.257                                            10963  2 1611 
    572.218     14.969                                            10963  2 1612 
    574.607     17.998                                            10963  2 1613 
    576.767     37.343                                            10963  2 1614 
    576.846     31.749                                            10963  2 1615 
    580.322     15.197                                            10963  2 1616 
    581.793     25.918                                            10963  2 1617 
    585.138     18.690                                            10963  2 1618 
    587.363     33.373                                            10963  2 1619 
    588.401     17.289                                            10963  2 1620 
    589.838     30.341                                            10963  2 1621 
    591.503     27.310                                            10963  2 1622 
    593.978     24.278                                            10963  2 1623 
    594.555     40.828                                            10963  2 1624 
    598.209     11.688                                            10963  2 1625 
    600.310     35.229                                            10963  2 1626 
    602.072     25.205                                            10963  2 1627 
    602.952     20.309                                            10963  2 1628 
    603.517     37.791                                            10963  2 1629 
    607.534     40.353                                            10963  2 1630 
    611.726     30.560                                            10963  2 1631 
    611.835     22.868                                            10963  2 1632 
    612.754     15.175                                            10963  2 1633 
    615.718     34.986                                            10963  2 1634 
    620.823     17.967                                            10963  2 1635 
    621.328     39.644                                            10963  2 1636 
    624.132     13.302                                            10963  2 1637 
    625.563     26.821                                            10963  2 1638 
    632.850     27.515                                            10963  2 1639 
    636.271     14.926                                            10963  2 1640 
    638.489     30.076                                            10963  2 1641 
    642.648     22.614                                            10963  2 1642 
    646.749     19.348                                            10963  2 1643 
    649.817     31.700                                            10963  2 1644 
    650.733     24.240                                            10963  2 1645 
    655.516     30.064                                            10963  2 1646 
    655.621     22.605                                            10963  2 1647 
    659.491     35.656                                            10963  2 1648 
    664.553     21.667                                            10963  2 1649 
    664.632     16.072                                            10963  2 1650 
    669.382     24.228                                            10963  2 1651 
    671.689     33.084                                            10963  2 1652 
    671.913     17.233                                            10963  2 1653 
    674.184     28.653                                            10963  2 1654 
    678.136     35.877                                            10963  2 1655 
    680.756     22.588                                            10963  2 1656 
    683.234     19.323                                            10963  2 1657 
    683.933     27.248                                            10963  2 1658 
    688.598     41.464                                            10963  2 1659 
    690.545     18.386                                            10963  2 1660 
    694.464     27.940                                            10963  2 1661 
    700.894     31.899                                            10963  2 1662 
    702.618     24.672                                            10963  2 1663 
    707.591     16.976                                            10963  2 1664 
    710.601     33.524                                            10963  2 1665 
    710.677     28.163                                            10963  2 1666 
    714.025     20.701                                            10963  2 1667 
    718.719     32.819                                            10963  2 1668 
    719.714     19.765                                            10963  2 1669 
    723.653     27.921                                            10963  2 1670 
    726.669     44.002                                            10963  2 1671 
    729.266     32.346                                            10963  2 1672 
    729.433     20.458                                            10963  2 1673 
    731.705     31.878                                            10963  2 1674 
    735.920     20.453                                            10963  2 1675 
    737.351     33.972                                            10963  2 1676 
    740.660     29.308                                            10963  2 1677 
    744.839     20.448                                            10963  2 1678 
    745.567     26.274                                            10963  2 1679 
    748.751     30.468                                            10963  2 1680 
    751.118     35.128                                            10963  2 1681 
    754.348     36.059                                            10963  2 1682 
    756.892     28.132                                            10963  2 1683 
    757.752     24.635                                            10963  2 1684 
    763.323     32.090                                            10963  2 1685 
    763.477     21.134                                            10963  2 1686 
    766.536     34.186                                            10963  2 1687 
    769.074     26.725                                            10963  2 1688 
    773.856     32.549                                            10963  2 1689 
    775.514     29.984                                            10963  2 1690 
    777.313     17.395                                            10963  2 1691 
    780.284     36.741                                            10963  2 1692 
    782.769     33.009                                            10963  2 1693 
    785.972     35.804                                            10963  2 1694 
    787.007     19.953                                            10963  2 1695 
    788.487     29.975                                            10963  2 1696 
    792.307     46.523                                            10963  2 1697 
    795.679     37.429                                            10963  2 1698 
    797.225     42.790                                            10963  2 1699 
    799.257     13.651                                            10963  2 1700 
    800.600     33.464                                            10963  2 1701 
    800.807     18.778                                            10963  2 1702 
    802.267     30.199                                            10963  2 1703 
    808.836     24.367                                            10963  2 1704 
    811.363     17.606                                            10963  2 1705 
    811.809     43.479                                            10963  2 1706 
    815.266     28.326                                            10963  2 1707 
    819.139     41.143                                            10963  2 1708 
    824.172     29.252                                            10963  2 1709 
    824.238     24.590                                            10963  2 1710 
    828.912     38.107                                            10963  2 1711 
    830.602     33.210                                            10963  2 1712 
    831.564     22.487                                            10963  2 1713 
    832.300     27.848                                            10963  2 1714 
    838.638     38.333                                            10963  2 1715 
    842.134     20.382                                            10963  2 1716 
    843.549     35.066                                            10963  2 1717 
    850.269     18.512                                            10963  2 1718 
    852.481     34.128                                            10963  2 1719 
    860.549     36.920                                            10963  2 1720 
    860.717     25.032                                            10963  2 1721 
    866.317     30.389                                            10963  2 1722 
    868.854     22.928                                            10963  2 1723 
    872.767     32.949                                            10963  2 1724 
    873.686     25.256                                            10963  2 1725 
    875.137     37.376                                            10963  2 1726 
    880.878     32.710                                            10963  2 1727 
    882.625     23.852                                            10963  2 1728 
    886.587     30.376                                            10963  2 1729 
    889.758     35.502                                            10963  2 1730 
    894.084     16.152                                            10963  2 1731 
    894.708     29.438                                            10963  2 1732 
    900.489     21.975                                            10963  2 1733 
ENDDATA           1725          0                                 10963  2 1734 
ENDSUBENT         1733          0                                 10963  299999 
SUBENT        10963003   20220114                             149110963  3    1 
BIB                  7         25                                 10963  3    2 
REACTION  1(30-ZN-64(N,0),,EN)                                    10963  3    3 
          2(30-ZN-64(N,0),,L)                                     10963  3    4 
          3(((30-ZN-64(N,EL),,WID,,G)*((30-ZN-64(N,G),,WID)+      10963  3    5 
           (30-ZN-64(N,EL),,WID,,FCT)))/(30-ZN-64(N,TOT),,WID))   10963  3    6 
           Factor in elastic widths is neutron sensitivity factor.10963  3    7 
          4(30-ZN-64(N,G),,WID)                                   10963  3    8 
ANALYSIS   (SLA) Breit-Wigner                                     10963  3    9 
ERR-ANALYS (DATA-ERR) No comprehensive details on uncertainties.  10963  3   10 
           DATA-ERR description speaks only about the             10963  3   11 
           uncertainty in the resonance energy: The uncertainty   10963  3   12 
           in the resonance energies is estimated as +-E/1200,    10963  3   13 
           based on the assumption that the resonance peaks       10963  3   14 
           could be determined to about one-half the resolution   10963  3   15 
           width at all energies. From a comparison of the        10963  3   16 
           channel energies obtained in the present measurement   10963  3   17 
           with the energies from transmission measurements, we   10963  3   18 
           observed that the present energies are systematically  10963  3   19 
           lower than the transmission energies by about 0.1%.    10963  3   20 
           We tend to feel that the transmission values are more  10963  3   21 
           accurate in view of their higher energy resolution     10963  3   22 
           and consequently we have adopted these energy values.  10963  3   23 
ASSUMED    (ASSUM,30-ZN-64(N,EL),,WID,,G)                         10963  3   24 
FLAG       (1.) May be doublet or multiplet                       10963  3   25 
STATUS     (TABLE) Table I, page 686.                             10963  3   26 
HISTORY    (20210827A) BP: Included ERR-ANALYS and STATUS.        10963  3   27 
ENDBIB              25          0                                 10963  3   28 
COMMON               1          3                                 10963  3   29 
STAT-W G                                                          10963  3   30 
NO-DIM                                                            10963  3   31 
         1.                                                       10963  3   32 
ENDCOMMON            3          0                                 10963  3   33 
DATA                 7         35                                 10963  3   34 
DATA      1DATA      2DATA      3DATA-ERR  3DATA      4ASSUM      10963  3   35 
FLAG                                                              10963  3   36 
EV         NO-DIM     MILLI-EV   MILLI-EV   MILLI-EV   EV         10963  3   37 
NO-DIM                                                            10963  3   38 
      4170.         0.       662.         8.       676.       19.410963  3   39 
                                                                  10963  3   40 
     10775.         0.       480.         7.       452.        96.10963  3   41 
                                                                  10963  3   42 
     13019.         0.       976.        17.       927.       190.10963  3   43 
                                                                  10963  3   44 
     15212.         0.       738.        17.       713.       110.10963  3   45 
                                                                  10963  3   46 
     21316.         0.       323.        10.       308.        67.10963  3   47 
                                                                  10963  3   48 
     22676.         0.       490.        12.       474.        78.10963  3   49 
                                                                  10963  3   50 
     29100.         0.       491.        13.       492.        56.10963  3   51 
                                                                  10963  3   52 
     29640.         0.       462.        14.       433.        79.10963  3   53 
                                                                  10963  3   54 
     30708.         0.       680.        35.       602.       201.10963  3   55 
                                                                  10963  3   56 
     32450.         0.      1663.        53.      1472.       490.10963  3   57 
                                                                  10963  3   58 
     39278.         0.       597.        22.       606.        23.10963  3   59 
                                                                  10963  3   60 
     41010.         0.       648.        20.       642.        52.10963  3   61 
                                                                  10963  3   62 
     47955.         0.       637.        28.       585.       219.10963  3   63 
                                                                  10963  3   64 
     50700.         0.       350.        21.       317.       125.10963  3   65 
                                                                  10963  3   66 
     52120.         0.       416.        24.       381.       128.10963  3   67 
                                                                  10963  3   68 
     54300.         0.       853.        30.       850.        64.10963  3   69 
                                                                  10963  3   70 
     60882.         0.       356.        20.       377.         6.10963  3   71 
                                                                  10963  3   72 
     67440.         0.       890.        46.       867.       169.10963  3   73 
                                                                  10963  3   74 
     68932.         0.       186.        27.       181.        39.10963  3   75 
                                                                  10963  3   76 
     73135.         0.       181.        11.       206.        1.510963  3   77 
                                                                  10963  3   78 
     78345.         0.       558.        34.       564.        30.10963  3   79 
                                                                  10963  3   80 
     78738.         0.       213.        24.       205.        50.10963  3   81 
                                                                  10963  3   82 
     83570.         0.       574.        46.       533.       220.10963  3   83 
                                                                  10963  3   84 
     87350.         0.      1071.        75.      1042.       178.10963  3   85 
                                                                  10963  3   86 
     89520.         0.      1676.       116.      1600.       396.10963  3   87 
         1.                                                       10963  3   88 
     94832.         0.       571.        47.       535.       139.10963  3   89 
                                                                  10963  3   90 
     96555.         0.       652.        46.       657.        30.10963  3   91 
                                                                  10963  3   92 
    100220.         0.      1073.        60.                   1.510963  3   93 
         1.                                                       10963  3   94 
    108080.         0.       770.        73.       743.       128.10963  3   95 
                                                                  10963  3   96 
    109970.         0.       991.        61.      1087.        10.10963  3   97 
                                                                  10963  3   98 
    111680.         0.      1298.        75.      1343.        33.10963  3   99 
                                                                  10963  3  100 
    114075.         0.       420.        41.       397.       108.10963  3  101 
                                                                  10963  3  102 
    120432.         0.       634.        87.       626.        65.10963  3  103 
                                                                  10963  3  104 
    121757.         0.      1044.       137.      1020.       160.10963  3  105 
                                                                  10963  3  106 
    125130.         0.       456.        48.       588.         2.10963  3  107 
                                                                  10963  3  108 
ENDDATA             74          0                                 10963  3  109 
ENDSUBENT          108          0                                 10963  399999 
SUBENT        10963004   20220114                             149110963  4    1 
BIB                  6         24                                 10963  4    2 
REACTION  1(30-ZN-64(N,0),,EN)                                    10963  4    3 
          2(30-ZN-64(N,0),,L)                                     10963  4    4 
          3(30-ZN-64(N,G),,WID/STR)                               10963  4    5 
          4(30-ZN-64(N,EL),,WID,,G)                               10963  4    6 
          5(30-ZN-64(N,G),,WID)                                   10963  4    7 
ANALYSIS   (SLA) Breit-Wigner                                     10963  4    8 
ERR-ANALYS (DATA-ERR) No comprehensive details on uncertainties.  10963  4    9 
           DATA-ERR description speaks only about the             10963  4   10 
           uncertainty in the resonance energy: The uncertainty   10963  4   11 
           in the resonance energies is estimated as +-E/1200,    10963  4   12 
           based on the assumption that the resonance peaks       10963  4   13 
           could be determined to about one-half the resolution   10963  4   14 
           width at all energies. From a comparison of the        10963  4   15 
           channel energies obtained in the present measurement   10963  4   16 
           with the energies from transmission measurements, we   10963  4   17 
           observed that the present energies are systematically  10963  4   18 
           lower than the transmission energies by about 0.1%.    10963  4   19 
           We tend to feel that the transmission values are more  10963  4   20 
           accurate in view of their higher energy resolution     10963  4   21 
           and consequently we have adopted these energy values.  10963  4   22 
ASSUMED   4(ASSUM1,30-ZN-64(N,G),,WID)                            10963  4   23 
          5(ASSUM2,30-ZN-64(N,EL),,WID,,G)                        10963  4   24 
STATUS     (TABLE) Table II, page 687.                            10963  4   25 
HISTORY    (20210827A) BP: Included ERR-ANALYS and STATUS.        10963  4   26 
ENDBIB              24          0                                 10963  4   27 
NOCOMMON             0          0                                 10963  4   28 
DATA                11        193                                 10963  4   29 
DATA      1DATA-MIN  2DATA      3DATA-ERR  3DATA      4DATA-ERR  410963  4   30 
DATA      5DATA-ERR  5STAT-W G   ASSUM1    4ASSUM2    5           10963  4   31 
EV         NO-DIM     MILLI-EV   MILLI-EV   EV         EV         10963  4   32 
MILLI-EV   MILLI-EV   NO-DIM     MILLI-EV   EV                    10963  4   33 
      4185.         1.        4.2        1.2      0.005      0.00110963  4   34 
                               1.       220.                      10963  4   35 
      4480.         1.       35.4        1.1      0.040      0.00210963  4   36 
                               1.       220.                      10963  4   37 
      5199.         1.      200.5        2.7                      10963  4   38 
                               2.       220.       0.37           10963  4   39 
      5967.         1.       48.3        0.8                      10963  4   40 
       248.        13.         1.                  0.06           10963  4   41 
      6345.         1.        3.9        0.3      0.004      0.00110963  4   42 
                               1.       220.                      10963  4   43 
      6705.         1.        5.0        0.3      0.005      0.00110963  4   44 
                               1.       220.                      10963  4   45 
      8411.         1.      213.4        2.6                      10963  4   46 
       189.        11.         2.                  0.49           10963  4   47 
      8790.         1.      242.3        1.0       0.53       0.0510963  4   48 
                               2.       220.                      10963  4   49 
     10044.         1.        4.1        0.5      0.004      0.00110963  4   50 
                               1.       220.                      10963  4   51 
     10657.         1.        4.1        0.5      0.004      0.00110963  4   52 
                               1.       220.                      10963  4   53 
     10880.         1.        3.5        0.9      0.004      0.00110963  4   54 
                               1.       220.                      10963  4   55 
     11040.         1.       12.6        0.9      0.013      0.00110963  4   56 
                               1.       220.                      10963  4   57 
     12163.         1.       95.6        2.5       0.17       0.0110963  4   58 
                               1.       220.                      10963  4   59 
     12659.         1.        6.7        1.4      0.007      0.00110963  4   60 
                               1.       220.                      10963  4   61 
     13943.         1.      410.0        5.5                      10963  4   62 
       347.         7.         2.                   1.0           10963  4   63 
     14763.         1.        5.7        1.6      0.006      0.00210963  4   64 
                               1.       220.                      10963  4   65 
     16990.         1.      399.0        6.4                      10963  4   66 
       347.        10.         2.                  0.94           10963  4   67 
     18354.         1.        8.9        1.6      0.009      0.00210963  4   68 
                               1.       220.                      10963  4   69 
     18436.         1.      433.0        5.2                      10963  4   70 
       355.         7.         2.                   1.1           10963  4   71 
     18600.         1.       15.7        1.6      0.017      0.00110963  4   72 
                               1.       220.                      10963  4   73 
     20159.         1.      487.8        6.1                      10963  4   74 
       432.        10.         2.                   1.1           10963  4   75 
     21270.         1.      298.6        4.6       0.93       0.0510963  4   76 
                               2.       220.                      10963  4   77 
     21775.         1.       11.9        2.0      0.013      0.00210963  4   78 
                               1.       220.                      10963  4   79 
     22184.         1.      458.8        7.7                      10963  4   80 
       267.         8.         2.                   3.3           10963  4   81 
     23127.         1.       28.4        2.6      0.003      0.00310963  4   82 
                               1.       220.                      10963  4   83 
     25750.         1.      191.0        5.3       0.34       0.0210963  4   84 
                               1.       220.                      10963  4   85 
     26178.         1.      254.5        7.1                      10963  4   86 
       155.         5.         2.                   1.4           10963  4   87 
     28468.         1.      238.0        5.9                      10963  4   88 
       154.         5.         2.                   1.0           10963  4   89 
     28540.         1.      297.7        5.2       0.92       0.0510963  4   90 
                               2.       220.                      10963  4   91 
     28850.         1.       12.1        3.0      0.013      0.00310963  4   92 
                               1.       220.                      10963  4   93 
     29540.         1.      129.3        5.5       0.31       0.0310963  4   94 
                               1.       220.                      10963  4   95 
     30590.         1.      346.4        6.5       1.60       0.0110963  4   96 
                               2.       220.                      10963  4   97 
     30775.         1.      228.3        9.3       0.47       0.0410963  4   98 
                               2.       220.                      10963  4   99 
     31025.         1.       93.6        6.9       0.16       0.0210963  4  100 
                               1.       220.                      10963  4  101 
     31415.         1.       62.8        5.9       0.09       0.0110963  4  102 
                               1.       220.                      10963  4  103 
     32660.         1.       34.3        9.3       0.04       0.0110963  4  104 
                               1.       220.                      10963  4  105 
     35160.         1.      364.5        4.5        2.1        0.210963  4  106 
                               2.       220.                      10963  4  107 
     35255.         1.      182.3        4.1        1.1        0.110963  4  108 
                               1.       220.                      10963  4  109 
     35667.         1.      428.6       12.5                      10963  4  110 
       268.        16.         2.                   2.1           10963  4  111 
     35960.         1.       52.0        9.3       0.07       0.0210963  4  112 
                               1.       220.                      10963  4  113 
     36000.         1.       50.6        9.3       0.07       0.0210963  4  114 
                               1.       220.                      10963  4  115 
     36730.         1.      160.2       15.2        1.2        0.210963  4  116 
       184.        18.         1.                                 10963  4  117 
     36750.         1.      263.3       18.6       0.66       0.1210963  4  118 
                               2.       220.                      10963  4  119 
     37335.         1.      145.2        6.9       0.43       0.0610963  4  120 
                               1.       220.                      10963  4  121 
     38805.         1.       35.9        6.7       0.04       0.0110963  4  122 
                               1.       220.                      10963  4  123 
     39195.         1.       64.7       13.5       0.09       0.0310963  4  124 
                               1.       220.                      10963  4  125 
     39440.         1.      412.0        14.                      10963  4  126 
       210.        14.         2.                   20.           10963  4  127 
     39805.         1.      279.1        7.9        1.0        0.310963  4  128 
       194.         6.         2.                                 10963  4  129 
     40825.         1.      238.5       10.6       0.52       0.0510963  4  130 
                               1.       220.                      10963  4  131 
     40905.         1.       61.7       11.5       0.09       0.0210963  4  132 
                               1.       220.                      10963  4  133 
     42725.         1.       63.6        8.8       0.09       0.0210963  4  134 
                               1.       220.                      10963  4  135 
     42775.         1.       37.8        8.5       0.05       0.0110963  4  136 
                               1.       220.                      10963  4  137 
     43020.         1.      172.0        5.4       0.79       0.1110963  4  138 
                               1.       220.                      10963  4  139 
     43605.         1.       73.7        7.8       0.11       0.0210963  4  140 
                               1.       220.                      10963  4  141 
     43848.         1.       456.        15.                      10963  4  142 
       270.        10.         2.                   3.1           10963  4  143 
     44685.         1.       331.         6.        1.3        0.210963  4  144 
                               2.       220.                      10963  4  145 
     45150.         1.        71.         8.       0.10       0.0210963  4  146 
                               1.       220.                      10963  4  147 
     45640.         1.       140.         7.       0.38       0.0510963  4  148 
                               1.       220.                      10963  4  149 
     45775.         1.        57.         7.       0.08       0.0110963  4  150 
                               1.       220.                      10963  4  151 
     46205.         1.        15.         6.       0.02       0.0110963  4  152 
                               1.       220.                      10963  4  153 
     46495.         1.        14.         5.       0.02       0.0110963  4  154 
                               1.       220.                      10963  4  155 
     46845.         1.        52.        11.       0.07       0.0210963  4  156 
                               1.       220.                      10963  4  157 
     46911.         1.       542.        20.                      10963  4  158 
       284.        11.         2.                  11.8           10963  4  159 
     47035.         1.       131.         8.       0.32       0.0510963  4  160 
                               1.       220.                      10963  4  161 
     47360.         1.        10.         6.       0.01      0.00610963  4  162 
                               1.       220.                      10963  4  163 
     47630.         1.       279.        10.       0.76       0.0710963  4  164 
                               2.       220.                      10963  4  165 
     48270.         1.        29.         7.       0.03       0.0110963  4  166 
                               1.       220.                      10963  4  167 
     48970.         1.        19.         6.       0.02       0.0110963  4  168 
                               1.       220.                      10963  4  169 
     49690.         1.        55.        10.       0.07       0.0210963  4  170 
                               1.       220.                      10963  4  171 
     51245.         1.       194.         4.        1.6       0.2510963  4  172 
                               1.       220.                      10963  4  173 
     51875.         1.        30.         9.       0.04       0.0110963  4  174 
                               1.       220.                      10963  4  175 
     52425.         1.        56.        10.       0.08       0.0210963  4  176 
                               1.       220.                      10963  4  177 
     52560.         1.       114.        10.       0.23       0.0410963  4  178 
                               1.       220.                      10963  4  179 
     53709.         1.       575.        23.                      10963  4  180 
       299.        12.         2.                   14.           10963  4  181 
     54075.         1.       332.        10.       1.35       0.1610963  4  182 
                               2.       220.                      10963  4  183 
     54760.         1.       100.        11.       0.19       0.0410963  4  184 
                               1.       220.                      10963  4  185 
     56950.         1.       158.         8.       0.56       0.0910963  4  186 
                               1.       220.                      10963  4  187 
     57455.         1.        18.         9.       0.02       0.0110963  4  188 
                               1.       220.                      10963  4  189 
     57590.         1.        63.        10.       0.07       0.0210963  4  190 
                               1.       220.                      10963  4  191 
     58190.         1.        68.        11.       0.10       0.0210963  4  192 
                               1.       220.                      10963  4  193 
     58625.         1.       351.         8.       1.74       0.1810963  4  194 
                               2.       220.                      10963  4  195 
     59190.         1.       291.        11.       0.86       0.0910963  4  196 
                               2.       220.                      10963  4  197 
     60045.         1.       271.        12.       0.70       0.0810963  4  198 
                               2.       220.                      10963  4  199 
     61310.         1.       162.         8.       0.62       0.1210963  4  200 
                               1.       220.                      10963  4  201 
     61763.         1.       614.        26.                      10963  4  202 
       323.        14.         2.                   12.           10963  4  203 
     62135.         1.       392.         6.                      10963  4  204 
       219.         6.         2.                   16.           10963  4  205 
     63375.         1.        92.        13.       0.16       0.0410963  4  206 
                               1.       220.                      10963  4  207 
     64890.         1.       478.        26.                      10963  4  208 
       258.        14.         2.                    5.           10963  4  209 
     65160.         1.       539.        28.                      10963  4  210 
       546.        28.         1.                   18.           10963  4  211 
     65621.         1.       268.        19.                      10963  4  212 
       289.        22.         1.                   3.7           10963  4  213 
     65676.         1.       179.        17.                      10963  4  214 
       218.        25.         1.                   1.0           10963  4  215 
     66220.         1.        83.        14.       0.13       0.0310963  4  216 
                               1.       220.                      10963  4  217 
     66875.         1.       114.        14.       0.23       0.0610963  4  218 
                               1.       220.                      10963  4  219 
     67700.         1.       701.        36.                      10963  4  220 
       361.        19.         2.                   23.           10963  4  221 
     67850.         1.        72.        18.       0.11       0.0410963  4  222 
                               1.       220.                      10963  4  223 
     68320.         1.       197.         5.       0.70       0.0210963  4  224 
                               1.       220.                      10963  4  225 
     68975.         1.       175.        11.       0.85       0.2510963  4  226 
                               1.       220.                      10963  4  227 
     69554.         1.       508.        26.                      10963  4  228 
       304.        17.         2.                    3.           10963  4  229 
     70915.         1.       265.        14.       0.66       0.0910963  4  230 
                               2.       220.                      10963  4  231 
     71675.         1.        62.        13.       0.09       0.0310963  4  232 
                               1.       220.                      10963  4  233 
     71875.         1.       145.        13.       0.43       0.1110963  4  234 
                               1.       220.                      10963  4  235 
     72270.         1.       340.        11.       1.50        0.210963  4  236 
                               2.       220.                      10963  4  237 
     72800.         1.       550.        23.                      10963  4  238 
       280.        30.         2.                   17.           10963  4  239 
     73075.         1.       103.        21.       0.19       0.0710963  4  240 
                               1.       220.                      10963  4  241 
     73635.         1.       266.        21.                      10963  4  242 
       276.        25.         1.                    7.           10963  4  243 
     74540.         1.       306.        29.                      10963  4  244 
       309.        29.         1.                   29.           10963  4  245 
     74625.         1.       164.        15.       0.64       0.2210963  4  246 
                               1.       220.                      10963  4  247 
     74890.         1.        44.        17.       0.06       0.0310963  4  248 
                               1.       220.                      10963  4  249 
     75032.         1.       583.        30.                      10963  4  250 
       322.        16.         2.                    6.           10963  4  251 
     75200.         1.        73.        17.       0.11       0.0410963  4  252 
                               1.       220.                      10963  4  253 
     75510.         1.       104.        17.       0.20       0.0610963  4  254 
                               1.       220.                      10963  4  255 
     75635.         1.       180.         9.       0.99       0.2610963  4  256 
                               1.       220.                      10963  4  257 
     77116.         1.       623.        28.                      10963  4  258 
       341.        15.         2.                    6.           10963  4  259 
     77385.         1.       110.        13.       0.22       0.0510963  4  260 
                               1.       220.                      10963  4  261 
     78215.         1.        24.        18.       0.03       0.0210963  4  262 
                               1.       220.                      10963  4  263 
     78640.         1.        20.        15.       0.03      0.01710963  4  264 
                               1.       220.                      10963  4  265 
     79100.         1.       401.        25.                      10963  4  266 
       214.        13.         2.                    6.           10963  4  267 
     81060.         1.       186.         7.        1.2        0.310963  4  268 
                               1.       220.                      10963  4  269 
     81245.         1.       415.        26.                      10963  4  270 
       354.        20.         2.                    1.           10963  4  271 
     81461.         1.       466.        27.                      10963  4  272 
       263.        15.         2.                    4.           10963  4  273 
     83129.         1.       383.        27.                      10963  4  274 
       195.        14.         2.                   17.           10963  4  275 
     83715.         1.       108.        26.       0.21       0.0910963  4  276 
                               1.       220.                      10963  4  277 
     83845.         1.       334.        14.       1.38       0.2310963  4  278 
                               2.       220.                      10963  4  279 
     84210.         1.        29.        14.       0.03       0.0210963  4  280 
                               1.       220.                      10963  4  281 
     84885.         1.        68.        21.       0.10       0.0410963  4  282 
                               1.       220.                      10963  4  283 
     84970.         1.        59.        22.       0.08       0.0410963  4  284 
                               1.       220.                      10963  4  285 
     86340.         1.       164.        13.       0.64       0.1910963  4  286 
                               1.       220.                      10963  4  287 
     86500.         1.       129.        17.       0.31       0.1010963  4  288 
                               1.       220.                      10963  4  289 
     86717.         1.       325.        23.                      10963  4  290 
       172.        12.         2.                    4.           10963  4  291 
     87430.         1.       118.        30.       0.16       0.0610963  4  292 
                               2.       220.                      10963  4  293 
     87814.         1.       198.        21.        2.0        0.610963  4  294 
                               1.       220.                      10963  4  295 
     89100.         1.        46.        32.       0.06       0.0410963  4  296 
                               1.       220.                      10963  4  297 
     90260.         1.       842.        75.                      10963  4  298 
       424.        38.         2.                   51.           10963  4  299 
     90345.         1.       328.        24.       1.29       0.3710963  4  300 
                               2.       220.                      10963  4  301 
     90545.         1.       216.        33.       0.42       0.1310963  4  302 
                               2.       220.                      10963  4  303 
     91745.         1.       257.        20.       0.62       0.1210963  4  304 
                               2.       220.                      10963  4  305 
     92682.         1.       546.        36.                      10963  4  306 
       278.        19.         2.                   16.           10963  4  307 
     93145.         1.        65.        36.       0.09       0.0410963  4  308 
                               1.       220.                      10963  4  309 
     93680.         1.        66.        20.       0.09       0.0410963  4  310 
                               1.       220.                      10963  4  311 
     95080.         1.       280.        21.                      10963  4  312 
       295.        25.         1.                   3.5           10963  4  313 
     95940.         1.       169.        18.       0.73       0.3310963  4  314 
                               1.       220.                      10963  4  315 
     96115.         1.       331.        18.       1.33       0.3010963  4  316 
                               2.       220.                      10963  4  317 
     96357.         1.       648.        45.                      10963  4  318 
       332.        24.         2.                   28.           10963  4  319 
     97200.         1.       150.        18.       0.47       0.1710963  4  320 
                               1.       220.                      10963  4  321 
     97525.         1.       157.        17.       0.55       0.2110963  4  322 
                               1.       220.                      10963  4  323 
     97775.         1.       274.        22.       0.73       0.1510963  4  324 
                               2.       220.                      10963  4  325 
     98025.         1.       133.        23.       0.19       0.0510963  4  326 
                               2.       220.                      10963  4  327 
     98775.         1.        43.        26.       0.05       0.0310963  4  328 
                               1.       220.                      10963  4  329 
     99365.         1.       235.        29.       0.50       0.0610963  4  330 
                               2.       220.                      10963  4  331 
    100984.         1.       348.        19.       1.60       0.4010963  4  332 
                               2.       220.                      10963  4  333 
    101365.         1.       252.        27.       0.59       0.1510963  4  334 
                               2.       220.                      10963  4  335 
    101820.         1.       592.        50.                      10963  4  336 
                                                    24.           10963  4  337 
    102305.         1.        74.        30.       0.11       0.0710963  4  338 
                               1.       220.                      10963  4  339 
    102525.         1.        65.        30.       0.09       0.0510963  4  340 
                               1.       220.                      10963  4  341 
    103055.         1.       214.        47.       0.42       0.1810963  4  342 
                               2.       220.                      10963  4  343 
    103345.         1.       709.        71.                      10963  4  344 
                                                    1.0           10963  4  345 
    103475.         1.       243.        32.       0.54       0.1610963  4  346 
                               2.       220.                      10963  4  347 
    103920.         1.       578.        60.                      10963  4  348 
                                                    0.9           10963  4  349 
    104600.         1.       939.        59.                      10963  4  350 
                                                    1.5           10963  4  351 
    105710.         1.       521.        47.                      10963  4  352 
       269.        25.         2.                    8.           10963  4  353 
    106542.         1.      1160.        68.                      10963  4  354 
                                                    33.           10963  4  355 
    107925.         1.       105.        37.       0.20       0.1410963  4  356 
                               1.       220.                      10963  4  357 
    109275.         1.       313.        25.       1.09       0.3010963  4  358 
                               2.       220.                      10963  4  359 
    110600.         1.       235.        30.       0.50       0.1410963  4  360 
                               2.       220.                      10963  4  361 
    112300.         1.      1074.        66.                      10963  4  362 
       683.        49.         2.                    5.           10963  4  363 
    113745.         1.       205.        25.       0.38       0.0910963  4  364 
                               2.       220.                      10963  4  365 
    115330.         1.       658.        44.                      10963  4  366 
       334.        23.         2.                   39.           10963  4  367 
    115705.         1.       322.        23.       1.21       0.3310963  4  368 
                               2.       220.                      10963  4  369 
    115875.         1.       333.        20.       1.37       0.3410963  4  370 
                               2.       220.                      10963  4  371 
    116475.         1.        75.        24.       0.11       0.0510963  4  372 
                               1.       220.                      10963  4  373 
    116865.         1.       474.        36.                      10963  4  374 
       254.        20.         2.                    7.           10963  4  375 
    117400.         1.       732.        48.                      10963  4  376 
       394.        26.         2.                   10.           10963  4  377 
    117585.         1.       210.        32.       0.40       0.1210963  4  378 
                               2.       220.                      10963  4  379 
    118015.         1.       281.        25.       0.77       0.1910963  4  380 
                               2.       220.                      10963  4  381 
    118220.         1.       344.        18.       1.58       0.3810963  4  382 
                               2.       220.                      10963  4  383 
    118500.         1.       377.        18.       5.00       0.4910963  4  384 
                               2.       220.                      10963  4  385 
    120125.         1.       228.        36.       0.47       0.1610963  4  386 
                               2.       220.                      10963  4  387 
    120600.         1.       344.        30.       1.57       0.6210963  4  388 
                               2.       220.                      10963  4  389 
    120955.         1.       350.        20.       1.72       0.4710963  4  390 
                               2.       220.                      10963  4  391 
    121575.         1.       951.       116.                      10963  4  392 
       483.        60.         2.                   62.           10963  4  393 
    122508.         1.      1128.        78.                      10963  4  394 
       598.        43.         2.                   18.           10963  4  395 
    122745.         1.       320.        33.       1.18       0.4510963  4  396 
                               2.       220.                      10963  4  397 
    124925.         1.       253.        34.       0.60       0.1910963  4  398 
                               2.       220.                      10963  4  399 
    125515.         1.       120.        39.       0.27       0.1910963  4  400 
                               1.       220.                      10963  4  401 
    125664.         1.       778.        61.                      10963  4  402 
       407.        37.         2.                   18.           10963  4  403 
    127045.         1.       616.        61.                      10963  4  404 
       364.        42.         2.                    4.           10963  4  405 
    127305.         1.       271.        37.       0.70       0.2510963  4  406 
                               2.       220.                      10963  4  407 
    127775.         1.       277.        46.       0.74       0.2510963  4  408 
                               2.       220.                      10963  4  409 
    128255.         1.       335.        29.       1.38       0.5010963  4  410 
                               2.       220.                      10963  4  411 
    128425.         1.       272.        42.       0.71       0.2910963  4  412 
                               2.       220.                      10963  4  413 
    130200.         1.       107.        53.       0.14       0.0910963  4  414 
                               2.       220.                      10963  4  415 
    130425.         1.       650.        74.                      10963  4  416 
                                                     1.           10963  4  417 
    130745.         1.       266.        35.       0.67       0.2210963  4  418 
                               2.       220.                      10963  4  419 
ENDDATA            390          0                                 10963  4  420 
ENDSUBENT          419          0                                 10963  499999 
ENDENTRY             4          0                                 1096399999999 
