ENTRY            10992   20130624                             13921099200000001 
SUBENT        10992001   20130624                             13921099200100001 
BIB                  9         18                                 1099200100002 
TITLE      Measurement of the 2.35-MeV window in O+n              1099200100003 
AUTHOR     (C.H.Johnson,J.L.Fowler,N.W.Hill,J.M.Ortolf)           1099200100004 
REFERENCE  (C,79KNOX,,807,197903)                                 1099200100005 
INSTITUTE  (1USAORL)                                              1099200100006 
FACILITY   (LINAC,1USAORL) ORELA                                  1099200100007 
PART-DET   (N,G)                                                  1099200100008 
DETECTOR   (SCIN) 2.0 cm-thick NE110 plastic scintillator.        1099200100009 
METHOD     (TOF,REC,PHD,TRN) 200-m flight path. The main effort   1099200100010 
           was devoted to cross section measurements near the 2.351099200100011 
           MeV minimum. The transmission for thin sample was      1099200100012 
           measured by alternating BeO sample with a matching Be  1099200100013 
           sample. A thick liquid oxygen scatterer was used to    1099200100014 
           obtain good statistics and small systematic            1099200100015 
           uncertainties near the 2.35 MeV resonance.             1099200100016 
HISTORY    (19830914C)                                            1099200100017 
           (20130624A) BP: Updated to new date formats,lower      1099200100018 
           case. corrections according last EXFOR rules and Dict. 1099200100019 
           Updated subentries 1-3, digitized Fig. 2,4.            1099200100020 
ENDBIB              18          0                                 1099200100021 
NOCOMMON             0          0                                 1099200100022 
ENDSUBENT           21          0                                 1099200199999 
SUBENT        10992002   20130624                             13921099200200001 
BIB                  3          3                                 1099200200002 
REACTION   (8-O-0(N,TOT),,SIG)                                    1099200200003 
SAMPLE     7.62-cm thick BeO and Be scatterers.                   1099200200004 
STATUS     (CURVE) Fig.2, page 808.                               1099200200005 
ENDBIB               3          0                                 1099200200006 
NOCOMMON             0          0                                 1099200200007 
DATA                 2         66                                 1099200200008 
EN         DATA                                                   1099200200009 
MEV        B                                                      1099200200010 
  2.032E+00  1.515E+00                                            1099200200011 
  2.047E+00  1.495E+00                                            1099200200012 
  2.065E+00  1.465E+00                                            1099200200013 
  2.082E+00  1.445E+00                                            1099200200014 
  2.097E+00  1.421E+00                                            1099200200015 
  2.113E+00  1.398E+00                                            1099200200016 
  2.128E+00  1.368E+00                                            1099200200017 
  2.148E+00  1.339E+00                                            1099200200018 
  2.166E+00  1.301E+00                                            1099200200019 
  2.182E+00  1.262E+00                                            1099200200020 
  2.200E+00  1.218E+00                                            1099200200021 
  2.214E+00  1.179E+00                                            1099200200022 
  2.223E+00  1.138E+00                                            1099200200023 
  2.233E+00  1.102E+00                                            1099200200024 
  2.240E+00  1.069E+00                                            1099200200025 
  2.250E+00  1.025E+00                                            1099200200026 
  2.259E+00  9.685E-01                                            1099200200027 
  2.269E+00  8.912E-01                                            1099200200028 
  2.278E+00  8.228E-01                                            1099200200029 
  2.287E+00  7.336E-01                                            1099200200030 
  2.297E+00  6.354E-01                                            1099200200031 
  2.306E+00  5.193E-01                                            1099200200032 
  2.316E+00  4.062E-01                                            1099200200033 
  2.325E+00  2.782E-01                                            1099200200034 
  2.333E+00  2.127E-01                                            1099200200035 
  2.338E+00  1.651E-01                                            1099200200036 
  2.341E+00  1.354E-01                                            1099200200037 
  2.346E+00  1.116E-01                                            1099200200038 
  2.350E+00  8.486E-02                                            1099200200039 
  2.359E+00  1.029E-01                                            1099200200040 
  2.369E+00  1.300E-01                                            1099200200041 
  2.372E+00  1.748E-01                                            1099200200042 
  2.378E+00  2.226E-01                                            1099200200043 
  2.378E+00  2.226E-01                                            1099200200044 
  2.382E+00  2.495E-01                                            1099200200045 
  2.390E+00  3.421E-01                                            1099200200046 
  2.400E+00  4.467E-01                                            1099200200047 
  2.412E+00  5.513E-01                                            1099200200048 
  2.423E+00  6.320E-01                                            1099200200049 
  2.433E+00  7.127E-01                                            1099200200050 
  2.445E+00  7.875E-01                                            1099200200051 
  2.456E+00  8.504E-01                                            1099200200052 
  2.466E+00  8.864E-01                                            1099200200053 
  2.478E+00  9.224E-01                                            1099200200054 
  2.488E+00  9.495E-01                                            1099200200055 
  2.499E+00  9.676E-01                                            1099200200056 
  2.515E+00  1.001E+00                                            1099200200057 
  2.538E+00  1.028E+00                                            1099200200058 
  2.559E+00  1.049E+00                                            1099200200059 
  2.583E+00  1.059E+00                                            1099200200060 
  2.607E+00  1.065E+00                                            1099200200061 
  2.629E+00  1.075E+00                                            1099200200062 
  2.654E+00  1.075E+00                                            1099200200063 
  2.679E+00  1.073E+00                                            1099200200064 
  2.702E+00  1.067E+00                                            1099200200065 
  2.726E+00  1.065E+00                                            1099200200066 
  2.751E+00  1.056E+00                                            1099200200067 
  2.776E+00  1.060E+00                                            1099200200068 
  2.801E+00  1.063E+00                                            1099200200069 
  2.827E+00  1.064E+00                                            1099200200070 
  2.855E+00  1.064E+00                                            1099200200071 
  2.881E+00  1.089E+00                                            1099200200072 
  2.908E+00  1.098E+00                                            1099200200073 
  2.935E+00  1.105E+00                                            1099200200074 
  2.963E+00  1.114E+00                                            1099200200075 
  2.990E+00  1.160E+00                                            1099200200076 
ENDDATA             68          0                                 1099200200077 
ENDSUBENT           76          0                                 1099200299999 
SUBENT        10992003   20130624                             13921099200300001 
BIB                  5          9                                 1099200300002 
REACTION   (8-O-0(N,TOT),,SIG)                                    1099200300003 
SAMPLE     Liquid oxygen. 99.8+-0.1 Percent purity.               1099200300004 
ANALYSIS   (SHAPE) R-matrix formalism only for the s-wave         1099200300005 
           resonance and describe the off-resonance cross         1099200300006 
           sections by empirical non-theoretical parameters       1099200300007 
            (three-, seven-parameter fits). From least-squares    1099200300008 
           fit to data from 13 runs at 2-3 MeV.                   1099200300009 
ERR-ANALYS (DATA-ERR) Uncertainty in impurity of oxygen sample.   1099200300010 
STATUS     (TABLE) Page 807.                                      1099200300011 
ENDBIB               9          0                                 1099200300012 
NOCOMMON             0          0                                 1099200300013 
DATA                 3          1                                 1099200300014 
EN         DATA       DATA-ERR                                    1099200300015 
MEV        MB         MB                                          1099200300016 
 2.3515     110.9      1.7                                        1099200300017 
ENDDATA              3          0                                 1099200300018 
ENDSUBENT           17          0                                 1099200399999 
SUBENT        10992004   20130624                             13921099200400001 
BIB                  4          4                                 1099200400002 
REACTION   (8-O-0(N,TOT),,SIG)                                    1099200400003 
SAMPLE     Liquid oxygen.                                         1099200400004 
ERR-ANALYS (DATA-ERR) Uncertainty in impurity of oxygen sample.   1099200400005 
STATUS     (CURVE) Fig.4, page 810.                               1099200400006 
ENDBIB               4          0                                 1099200400007 
NOCOMMON             0          0                                 1099200400008 
DATA                 3         46                                 1099200400009 
EN         DATA       DATA-ERR                                    1099200400010 
MEV        B          B                                           1099200400011 
  2.168E+00  1.151E+00  4.505E-02                                 1099200400012 
  2.181E+00  1.165E+00  4.734E-02                                 1099200400013 
  2.195E+00  1.105E+00  3.829E-02                                 1099200400014 
  2.208E+00  1.238E+00  3.829E-02                                 1099200400015 
  2.220E+00  1.156E+00  3.145E-02                                 1099200400016 
  2.234E+00  1.064E+00  3.152E-02                                 1099200400017 
  2.246E+00  1.103E+00  3.374E-02                                 1099200400018 
  2.255E+00  9.722E-01  2.247E-02                                 1099200400019 
  2.264E+00  9.140E-01  2.251E-02                                 1099200400020 
  2.274E+00  8.603E-01  2.258E-02                                 1099200400021 
  2.282E+00  7.705E-01                                            1099200400022 
  2.289E+00  6.851E-01                                            1099200400023 
  2.295E+00  6.290E-01                                            1099200400024 
  2.300E+00  5.638E-01                                            1099200400025 
  2.306E+00  5.077E-01                                            1099200400026 
  2.311E+00  4.155E-01                                            1099200400027 
  2.318E+00  3.616E-01                                            1099200400028 
  2.323E+00  2.875E-01                                            1099200400029 
  2.329E+00  2.268E-01                                            1099200400030 
  2.335E+00  1.753E-01                                            1099200400031 
  2.339E+00  1.371E-01                                            1099200400032 
  2.345E+00  1.193E-01                                            1099200400033 
  2.353E+00  1.039E-01                                            1099200400034 
  2.359E+00  1.222E-01                                            1099200400035 
  2.364E+00  1.427E-01                                            1099200400036 
  2.370E+00  1.881E-01                                            1099200400037 
  2.377E+00  2.358E-01                                            1099200400038 
  2.383E+00  3.060E-01                                            1099200400039 
  2.389E+00  3.671E-01                                            1099200400040 
  2.396E+00  4.261E-01                                            1099200400041 
  2.402E+00  4.917E-01                                            1099200400042 
  2.409E+00  5.574E-01                                            1099200400043 
  2.415E+00  5.893E-01                                            1099200400044 
  2.421E+00  6.640E-01                                            1099200400045 
  2.428E+00  7.387E-01                                            1099200400046 
  2.435E+00  7.683E-01                                            1099200400047 
  2.447E+00  8.478E-01  2.021E-02                                 1099200400048 
  2.457E+00  8.821E-01  2.243E-02                                 1099200400049 
  2.469E+00  9.277E-01  2.491E-02                                 1099200400050 
  2.479E+00  9.372E-01  2.021E-02                                 1099200400051 
  2.491E+00  9.490E-01  2.694E-02                                 1099200400052 
  2.504E+00  9.789E-01  2.247E-02                                 1099200400053 
  2.522E+00  1.027E+00  2.468E-02                                 1099200400054 
  2.538E+00  1.062E+00  2.468E-02                                 1099200400055 
  2.556E+00  1.105E+00  3.149E-02                                 1099200400056 
  2.572E+00  1.138E+00  3.378E-02                                 1099200400057 
ENDDATA             48          0                                 1099200400058 
ENDSUBENT           57          0                                 1099200499999 
ENDENTRY             4          0                                 1099299999999 
