ENTRY            11027   19790313                             00001102700000001 
SUBENT        11027001   19790313                             00001102700100001 
BIB                  6          8                                 1102700100002 
INSTITUTE  (1USAWIS)                                              1102700100003 
REFERENCE  (J,NP,83,65,6607)                                      1102700100004 
           (W,BARSCHALL,66)                                       1102700100005 
AUTHOR     (B.HOOP JR,H.H.BARSCHALL)                              1102700100006 
TITLE      SCATTERING OF NEUTRONS BY ALPHA PARTICLES.             1102700100007 
STATUS     (SCSRS)                                                1102700100008 
HISTORY    (760628T) TRANSLATED FROM SCISRS                       1102700100009 
           (820106A) CONVERTED TO REACTION FORMALISM              1102700100010 
ENDBIB               8          0                                 1102700100011 
NOCOMMON             0          0                                 1102700100012 
ENDSUBENT           11          0                                 1102700199999 
SUBENT        11027002   19860121                             00001102700200001 
BIB                  5          6                                 1102700200002 
REACTION   (2-HE-0(N,EL)2-HE-0,,DA)                               1102700200003 
DETECTOR              RECOIL COUNTER                              1102700200004 
ERR-ANALYS  DATA-ERR GIVEN IS STATISTICAL ERROR ONLY              1102700200005 
MONITOR    (2-HE-0(N,TOT),,SIG)                                   1102700200006 
HISTORY    (830817A) CORRECTED DATA HEADING, ADDED MONIT TO DATA. 1102700200007 
           (860121A) REACTION PRODUCT ADDED.                      1102700200008 
ENDBIB               6          0                                 1102700200009 
COMMON               1          3                                 1102700200010 
EN-NRM                                                            1102700200011 
MEV                                                               1102700200012 
 6.                                                               1102700200013 
ENDCOMMON            3          0                                 1102700200014 
DATA                 5        382                                 1102700200015 
EN         EN-RSL     COS-CM     DATA-CM    DATA-ERR              1102700200016 
MEV        MEV        NO-DIM     MB/SR      MB/SR                 1102700200017 
 8.02   +00 1.1    -01 0.62400    2.55   +02    3.  +00           1102700200018 
 8.02   +00 1.1    -01 0.53600    2.10   +02    3.  +00           1102700200019 
 8.02   +00 1.1    -01 0.45000    1.79   +02    2.  +00           1102700200020 
 8.02   +00 1.1    -01 0.36200    1.49   +02    2.  +00           1102700200021 
 8.02   +00 1.1    -01 0.27600    1.27   +02    2.  +00           1102700200022 
 8.02   +00 1.1    -01 0.18900    1.02   +02    2.  +00           1102700200023 
 8.02   +00 1.1    -01 0.10200    8.23   +01   16.  -01           1102700200024 
 8.02   +00 1.1    -01 0.01500    6.66   +01   21.  -01           1102700200025 
 8.02   +00 1.1    -01-0.0700     5.50   +01   13.  -01           1102700200026 
 8.02   +00 1.1    -01-0.1600     4.23   +01   11.  -01           1102700200027 
 8.02   +00 1.1    -01-0.2500     3.71   +01   11.  -01           1102700200028 
 8.02   +00 1.1    -01-0.3300     3.14   +01   10.  -01           1102700200029 
 8.02   +00 1.1    -01-0.4200     3.01   +01    7.  -01           1102700200030 
 8.02   +00 1.1    -01-0.5100     3.07   +01   10.  -01           1102700200031 
 8.02   +00 1.1    -01-0.5900     3.73   +01   10.  -01           1102700200032 
 8.02   +00 1.1    -01-0.6800     4.31   +01   11.  -01           1102700200033 
 8.02   +00 1.1    -01-0.7700     5.46   +01   13.  -01           1102700200034 
 8.02   +00 1.1    -01-0.8500     6.34   +01   14.  -01           1102700200035 
 1.000  +01 7.     -02 0.64400    2.35   +02    4.  +00           1102700200036 
 1.000  +01 7.     -02 0.57600    2.00   +02    3.  +00           1102700200037 
 1.000  +01 7.     -02 0.50800    1.69   +02    3.  +00           1102700200038 
 1.000  +01 7.     -02 0.43800    1.49   +02    3.  +00           1102700200039 
 1.000  +01 7.     -02 0.36800    1.27   +02    3.  +00           1102700200040 
 1.000  +01 7.     -02 0.30000    1.08   +02    2.  +00           1102700200041 
 1.000  +01 7.     -02 0.23200    9.48   +01   21.  -01           1102700200042 
 1.000  +01 7.     -02 0.16200    7.61   +01   19.  -01           1102700200043 
 1.000  +01 7.     -02 0.09300    6.49   +01   18.  -01           1102700200044 
 1.000  +01 7.     -02 0.02400    5.30   +01   17.  -01           1102700200045 
 1.000  +01 7.     -02-0.0500     4.34   +01   16.  -01           1102700200046 
 1.000  +01 7.     -02-0.1100     3.63   +01   15.  -01           1102700200047 
 1.000  +01 7.     -02-0.1800     2.77   +01   12.  -01           1102700200048 
 1.000  +01 7.     -02-0.2500     2.47   +01   13.  -01           1102700200049 
 1.000  +01 7.     -02-0.3200     1.94   +01   12.  -01           1102700200050 
 1.000  +01 7.     -02-0.3900     1.80   +01   12.  -01           1102700200051 
 1.000  +01 7.     -02-0.4600     1.83   +01   11.  -01           1102700200052 
 1.000  +01 7.     -02-0.5300     2.30   +01   11.  -01           1102700200053 
 1.000  +01 7.     -02-0.5900     2.63   +01   10.  -01           1102700200054 
 1.000  +01 7.     -02-0.6600     3.17   +01   11.  -01           1102700200055 
 1.000  +01 7.     -02-0.7300     3.87   +01   12.  -01           1102700200056 
 1.000  +01 7.     -02-0.8000     4.77   +01   13.  -01           1102700200057 
 1.238  +01 5.     -02 0.71000    2.22   +02    3.  +00           1102700200058 
 1.238  +01 5.     -02 0.62400    1.89   +02    3.  +00           1102700200059 
 1.238  +01 5.     -02 0.53600    1.59   +02    2.  +00           1102700200060 
 1.238  +01 5.     -02 0.44800    1.32   +02    2.  +00           1102700200061 
 1.238  +01 5.     -02 0.36200    1.12   +02    2.  +00           1102700200062 
 1.238  +01 5.     -02 0.27600    9.13   +01   17.  -01           1102700200063 
 1.238  +01 5.     -02 0.18800    7.14   +01   16.  -01           1102700200064 
 1.238  +01 5.     -02 0.10200    5.83   +01   15.  -01           1102700200065 
 1.238  +01 5.     -02 0.01600    4.36   +01   13.  -01           1102700200066 
 1.238  +01 5.     -02-0.0700     3.46   +01   10.  -01           1102700200067 
 1.238  +01 5.     -02-0.1600     2.61   +01    9.  -01           1102700200068 
 1.238  +01 5.     -02-0.2500     2.09   +01    8.  -01           1102700200069 
 1.238  +01 5.     -02-0.3300     1.67   +01    7.  -01           1102700200070 
 1.238  +01 5.     -02-0.4200     1.51   +01    7.  -01           1102700200071 
 1.238  +01 5.     -02-0.5100     1.68   +01    6.  -01           1102700200072 
 1.238  +01 5.     -02-0.5900     2.08   +01    7.  -01           1102700200073 
 1.238  +01 5.     -02-0.6800     2.91   +01    8.  -01           1102700200074 
 1.238  +01 5.     -02-0.7700     3.91   +01   10.  -01           1102700200075 
 1.505  +01 6.     -02 0.80000    2.46   +02    4.  +00           1102700200076 
 1.505  +01 6.     -02 0.73400    1.94   +02    3.  +00           1102700200077 
 1.505  +01 6.     -02 0.66600    1.70   +02    3.  +00           1102700200078 
 1.505  +01 6.     -02 0.60000    1.48   +02    2.  +00           1102700200079 
 1.505  +01 6.     -02 0.53400    1.26   +02    2.  +00           1102700200080 
 1.505  +01 6.     -02 0.46600    1.09   +02    2.  +00           1102700200081 
 1.505  +01 6.     -02 0.40000    9.80   +01   17.  -01           1102700200082 
 1.505  +01 6.     -02 0.33400    8.15   +01   15.  -01           1102700200083 
 1.505  +01 6.     -02 0.26600    7.39   +01   16.  -01           1102700200084 
 1.505  +01 6.     -02 0.20000    5.90   +01   14.  -01           1102700200085 
 1.505  +01 6.     -02 0.13400    4.80   +01   15.  -01           1102700200086 
 1.505  +01 6.     -02 0.06600    3.98   +01   15.  -01           1102700200087 
 1.505  +01 6.     -02 0.00000    2.97   +01   14.  -01           1102700200088 
 1.505  +01 6.     -02-0.0660     2.78   +01   13.  -01           1102700200089 
 1.505  +01 6.     -02-0.1340     2.10   +01   10.  -01           1102700200090 
 1.505  +01 6.     -02-0.2000     1.82   +01    8.  -01           1102700200091 
 1.505  +01 6.     -02-0.2660     1.34   +01    8.  -01           1102700200092 
 1.505  +01 6.     -02-0.3340     1.13   +01    8.  -01           1102700200093 
 1.505  +01 6.     -02-0.4000     9.3    +00    8.  -01           1102700200094 
 1.505  +01 6.     -02-0.4660     1.01   +01    7.  -01           1102700200095 
 1.505  +01 6.     -02-0.5340     1.31   +01    8.  -01           1102700200096 
 1.505  +01 6.     -02-0.6000     1.46   +01    8.  -01           1102700200097 
 1.505  +01 6.     -02-0.6660     1.73   +01    7.  -01           1102700200098 
 1.505  +01 6.     -02-0.7340     2.17   +01    7.  -01           1102700200099 
 1.505  +01 6.     -02-0.8000     3.00   +01    9.  -01           1102700200100 
 1.774  +01 1.2    -01 0.70600    1.70   +02    2.  +00           1102700200101 
 1.774  +01 1.2    -01 0.64200    1.42   +02    2.  +00           1102700200102 
 1.774  +01 1.2    -01 0.59000    1.21   +02    2.  +00           1102700200103 
 1.774  +01 1.2    -01 0.51600    1.036  +02   15.  -01           1102700200104 
 1.774  +01 1.2    -01 0.45200    8.73   +01   13.  -01           1102700200105 
 1.774  +01 1.2    -01 0.39000    7.29   +01   12.  -01           1102700200106 
 1.774  +01 1.2    -01 0.32600    6.20   +01   11.  -01           1102700200107 
 1.774  +01 1.2    -01 0.26400    5.33   +01   10.  -01           1102700200108 
 1.774  +01 1.2    -01 0.20000    4.53   +01   10.  -01           1102700200109 
 1.774  +01 1.2    -01 0.13600    3.78   +01    8.  -01           1102700200110 
 1.774  +01 1.2    -01 0.07200    3.21   +01    8.  -01           1102700200111 
 1.774  +01 1.2    -01 0.01000    2.74   +01    7.  -01           1102700200112 
 1.774  +01 1.2    -01-0.0540     2.17   +01    6.  -01           1102700200113 
 1.774  +01 1.2    -01-0.1160     1.87   +01    6.  -01           1102700200114 
 1.774  +01 1.2    -01-0.1780     1.52   +01    5.  -01           1102700200115 
 1.774  +01 1.2    -01-0.2420     1.25   +01    4.  -01           1102700200116 
 1.774  +01 1.2    -01-0.3060     1.13   +01    4.  -01           1102700200117 
 1.774  +01 1.2    -01-0.3660     1.02   +01    3.  -01           1102700200118 
 1.774  +01 1.2    -01-0.4320     1.07   +01    4.  -01           1102700200119 
 1.774  +01 1.2    -01-0.4960     1.18   +01    4.  -01           1102700200120 
 1.774  +01 1.2    -01-0.5560     1.43   +01    4.  -01           1102700200121 
 1.774  +01 1.2    -01-0.6220     1.68   +01    4.  -01           1102700200122 
 1.774  +01 1.2    -01-0.6860     2.20   +01    5.  -01           1102700200123 
 1.774  +01 1.2    -01-0.7480     2.58   +01    5.  -01           1102700200124 
 1.774  +01 1.2    -01-0.8100     2.94   +01    5.  -01           1102700200125 
 1.926  +01 1.0    -01 0.66100    1.41   +02    1.  +00           1102700200126 
 1.926  +01 1.0    -01 0.61000    1.26   +02    2.  +00           1102700200127 
 1.926  +01 1.0    -01 0.53200    1.03   +02    1.  +00           1102700200128 
 1.926  +01 1.0    -01 0.45200    9.08   +01   13.  -01           1102700200129 
 1.926  +01 1.0    -01 0.37400    7.26   +01   10.  -01           1102700200130 
 1.926  +01 1.0    -01 0.29600    5.67   +01    9.  -01           1102700200131 
 1.926  +01 1.0    -01 0.21800    4.43   +01    8.  -01           1102700200132 
 1.926  +01 1.0    -01 0.14000    3.28   +01    7.  -01           1102700200133 
 1.926  +01 1.0    -01 0.06200    2.64   +01    7.  -01           1102700200134 
 1.926  +01 1.0    -01-0.0170     2.00   +01    6.  -01           1102700200135 
 1.926  +01 1.0    -01-0.0950     1.53   +01    5.  -01           1102700200136 
 1.926  +01 1.0    -01-0.1730     1.06   +01    4.  -01           1102700200137 
 1.926  +01 1.0    -01-0.2510     8.28   +00   34.  -02           1102700200138 
 1.926  +01 1.0    -01-0.3280     7.55   +00   35.  -02           1102700200139 
 1.926  +01 1.0    -01-0.4070     6.15   +00   31.  -02           1102700200140 
 1.926  +01 1.0    -01-0.4850     7.05   +00   33.  -02           1102700200141 
 1.926  +01 1.0    -01-0.5640     8.56   +00   33.  -02           1102700200142 
 1.926  +01 1.0    -01-0.6410     1.08   +01    3.  -01           1102700200143 
 1.926  +01 1.0    -01-0.7200     1.44   +01    4.  -01           1102700200144 
 1.926  +01 1.0    -01-0.7980     1.92   +01    4.  -01           1102700200145 
 1.926  +01 1.0    -01-0.8760     2.49   +01    5.  -01           1102700200146 
 2.091  +01 9.     -02 0.56800    1.025  +02   13.  -01           1102700200147 
 2.091  +01 9.     -02 0.52000    9.22   +01   14.  -01           1102700200148 
 2.091  +01 9.     -02 0.44800    7.89   +01   11.  -01           1102700200149 
 2.091  +01 9.     -02 0.37600    6.53   +01   10.  -01           1102700200150 
 2.091  +01 9.     -02 0.30600    5.15   +01    7.  -01           1102700200151 
 2.091  +01 9.     -02 0.23400    3.97   +01    7.  -01           1102700200152 
 2.091  +01 9.     -02 0.16200    3.26   +01    7.  -01           1102700200153 
 2.091  +01 9.     -02 0.09000    2.59   +01    6.  -01           1102700200154 
 2.091  +01 9.     -02 0.01800    2.00   +01    6.  -01           1102700200155 
 2.091  +01 9.     -02-0.0540     1.52   +01    6.  -01           1102700200156 
 2.091  +01 9.     -02-0.1260     1.06   +01    4.  -01           1102700200157 
 2.091  +01 9.     -02-0.1960     8.48   +00   41.  -02           1102700200158 
 2.091  +01 9.     -02-0.2700     7.08   +00   38.  -02           1102700200159 
 2.091  +01 9.     -02-0.3420     5.82   +00   35.  -02           1102700200160 
 2.091  +01 9.     -02-0.4140     5.70   +00   30.  -02           1102700200161 
 2.091  +01 9.     -02-0.4840     7.07   +00   33.  -02           1102700200162 
 2.091  +01 9.     -02-0.5560     8.28   +00   32.  -02           1102700200163 
 2.091  +01 9.     -02-0.6300     1.12   +01    4.  -01           1102700200164 
 2.091  +01 9.     -02-0.7020     1.43   +01    4.  -01           1102700200165 
 2.091  +01 9.     -02-0.7740     1.85   +01    4.  -01           1102700200166 
 2.091  +01 9.     -02-0.8460     2.34   +01    5.  -01           1102700200167 
 2.185  +01 4.     -02 0.53400    8.78   +01   13.  -01           1102700200168 
 2.185  +01 4.     -02 0.48700    7.33   +01   12.  -01           1102700200169 
 2.185  +01 4.     -02 0.41000    6.17   +01   11.  -01           1102700200170 
 2.185  +01 4.     -02 0.33300    5.13   +01   10.  -01           1102700200171 
 2.185  +01 4.     -02 0.25700    4.27   +01    8.  -01           1102700200172 
 2.185  +01 4.     -02 0.17900    3.40   +01    7.  -01           1102700200173 
 2.185  +01 4.     -02 0.10200    2.55   +01    7.  -01           1102700200174 
 2.185  +01 4.     -02 0.02500    2.09   +01    6.  -01           1102700200175 
 2.185  +01 4.     -02-0.0520     1.56   +01    5.  -01           1102700200176 
 2.185  +01 4.     -02-0.1280     1.20   +01    4.  -01           1102700200177 
 2.185  +01 4.     -02-0.2060     9.51   +00   29.  -02           1102700200178 
 2.185  +01 4.     -02-0.2820     7.43   +00   21.  -02           1102700200179 
 2.185  +01 4.     -02-0.3580     6.43   +00   17.  -02           1102700200180 
 2.185  +01 4.     -02-0.4370     6.91   +00   16.  -02           1102700200181 
 2.185  +01 4.     -02-0.5130     7.29   +00   18.  -02           1102700200182 
 2.185  +01 4.     -02-0.5890     9.46   +00   23.  -02           1102700200183 
 2.185  +01 4.     -02-0.6670     1.19   +01    3.  -01           1102700200184 
 2.185  +01 4.     -02-0.7440     1.58   +01    3.  -01           1102700200185 
 2.200  +01 4.     -02 0.56400    8.44   +01   13.  -01           1102700200186 
 2.200  +01 4.     -02 0.48700    7.20   +01   12.  -01           1102700200187 
 2.200  +01 4.     -02 0.41000    6.03   +01   11.  -01           1102700200188 
 2.200  +01 4.     -02 0.33300    4.92   +01   10.  -01           1102700200189 
 2.200  +01 4.     -02 0.25700    3.98   +01    8.  -01           1102700200190 
 2.200  +01 4.     -02 0.17900    3.16   +01    7.  -01           1102700200191 
 2.200  +01 4.     -02 0.10200    2.54   +01    7.  -01           1102700200192 
 2.200  +01 4.     -02 0.02500    1.97   +01    6.  -01           1102700200193 
 2.200  +01 4.     -02-0.0520     1.53   +01    5.  -01           1102700200194 
 2.200  +01 4.     -02-0.1280     1.22   +01    4.  -01           1102700200195 
 2.200  +01 4.     -02-0.2060     9.25   +00   29.  -02           1102700200196 
 2.200  +01 4.     -02-0.2820     7.37   +00   21.  -02           1102700200197 
 2.200  +01 4.     -02-0.3580     6.61   +00   17.  -02           1102700200198 
 2.200  +01 4.     -02-0.4370     6.72   +00   16.  -02           1102700200199 
 2.200  +01 4.     -02-0.5130     7.67   +00   18.  -02           1102700200200 
 2.200  +01 4.     -02-0.5890     9.53   +00   23.  -02           1102700200201 
 2.200  +01 4.     -02-0.6670     1.108  +01   27.  -02           1102700200202 
 2.200  +01 4.     -02-0.7440     1.41   +01    3.  -01           1102700200203 
 2.205  +01 4.     -02 0.56400    8.74   +01   14.  -01           1102700200204 
 2.205  +01 4.     -02 0.48700    7.25   +01   12.  -01           1102700200205 
 2.205  +01 4.     -02 0.15400    2.92   +01    7.  -01           1102700200206 
 2.205  +01 4.     -02 0.10200    2.57   +01    7.  -01           1102700200207 
 2.205  +01 4.     -02 0.02500    2.00   +01    6.  -01           1102700200208 
 2.205  +01 4.     -02-0.0520     1.71   +01    5.  -01           1102700200209 
 2.205  +01 4.     -02-0.1280     1.23   +01    4.  -01           1102700200210 
 2.205  +01 4.     -02-0.2060     1.01   +01    3.  -01           1102700200211 
 2.205  +01 4.     -02-0.2820     8.26   +00   32.  -02           1102700200212 
 2.205  +01 4.     -02-0.3580     7.76   +00   19.  -02           1102700200213 
 2.205  +01 4.     -02-0.4370     7.05   +00   17.  -02           1102700200214 
 2.205  +01 4.     -02-0.5130     7.62   +00   18.  -02           1102700200215 
 2.205  +01 4.     -02-0.5890     9.58   +00   23.  -02           1102700200216 
 2.205  +01 4.     -02-0.6670     1.21   +01    3.  -01           1102700200217 
 2.205  +01 4.     -02-0.7440     1.42   +01    3.  -01           1102700200218 
 2.210  +01 4.     -02 0.56400    9.22   +01    9.  -01           1102700200219 
 2.210  +01 4.     -02 0.48700    7.20   +01    7.  -01           1102700200220 
 2.210  +01 4.     -02 0.15400    2.64   +01    5.  -01           1102700200221 
 2.210  +01 4.     -02 0.10200    2.23   +01    4.  -01           1102700200222 
 2.210  +01 4.     -02 0.02500    1.71   +01    4.  -01           1102700200223 
 2.210  +01 4.     -02-0.0520     1.43   +01    3.  -01           1102700200224 
 2.210  +01 4.     -02-0.1280     1.25   +01    3.  -01           1102700200225 
 2.210  +01 4.     -02-0.2060     1.15   +01    3.  -01           1102700200226 
 2.210  +01 4.     -02-0.2820     1.11   +01    2.  -01           1102700200227 
 2.210  +01 4.     -02-0.3580     1.10   +01    2.  -01           1102700200228 
 2.210  +01 4.     -02-0.4370     1.17   +01    2.  -01           1102700200229 
 2.210  +01 4.     -02-0.5130     1.29   +01    2.  -01           1102700200230 
 2.210  +01 4.     -02-0.5890     1.38   +01    2.  -01           1102700200231 
 2.210  +01 4.     -02-0.6670     1.42   +01    3.  -01           1102700200232 
 2.210  +01 4.     -02-0.7440     1.55   +01    3.  -01           1102700200233 
 2.213  +01 4.     -02 0.56400    9.05   +01    9.  -01           1102700200234 
 2.213  +01 4.     -02 0.48700    6.79   +01    7.  -01           1102700200235 
 2.213  +01 4.     -02 0.15400    2.02   +01    3.  -01           1102700200236 
 2.213  +01 4.     -02 0.10200    1.69   +01    3.  -01           1102700200237 
 2.213  +01 4.     -02 0.02500    1.46   +01    3.  -01           1102700200238 
 2.213  +01 4.     -02-0.0520     1.19   +01    2.  -01           1102700200239 
 2.213  +01 4.     -02-0.1280     1.20   +01    3.  -01           1102700200240 
 2.213  +01 4.     -02-0.2060     1.16   +01    3.  -01           1102700200241 
 2.213  +01 4.     -02-0.2820     1.23   +01    3.  -01           1102700200242 
 2.213  +01 4.     -02-0.3580     1.38   +01    3.  -01           1102700200243 
 2.213  +01 4.     -02-0.4370     1.52   +01    3.  -01           1102700200244 
 2.213  +01 4.     -02-0.5130     1.62   +01    3.  -01           1102700200245 
 2.213  +01 4.     -02-0.5890     1.78   +01    3.  -01           1102700200246 
 2.213  +01 4.     -02-0.6670     1.81   +01    3.  -01           1102700200247 
 2.213  +01 4.     -02-0.7440     1.72   +01    3.  -01           1102700200248 
 2.220  +01 4.     -02 0.56400    9.08   +01    9.  -01           1102700200249 
 2.220  +01 4.     -02 0.48700    7.18   +01    7.  -01           1102700200250 
 2.220  +01 4.     -02 0.15400    2.28   +01    3.  -01           1102700200251 
 2.220  +01 4.     -02 0.10200    1.84   +01    3.  -01           1102700200252 
 2.220  +01 4.     -02 0.02500    1.48   +01    3.  -01           1102700200253 
 2.220  +01 4.     -02-0.0520     1.24   +01    3.  -01           1102700200254 
 2.220  +01 4.     -02-0.1280     1.19   +01    3.  -01           1102700200255 
 2.220  +01 4.     -02-0.2060     1.18   +01    3.  -01           1102700200256 
 2.220  +01 4.     -02-0.2820     1.28   +01    3.  -01           1102700200257 
 2.220  +01 4.     -02-0.3580     1.39   +01    3.  -01           1102700200258 
 2.220  +01 4.     -02-0.4370     1.53   +01    3.  -01           1102700200259 
 2.220  +01 4.     -02-0.5130     1.65   +01    3.  -01           1102700200260 
 2.220  +01 4.     -02-0.5890     1.79   +01    3.  -01           1102700200261 
 2.220  +01 4.     -02-0.6670     1.84   +01    3.  -01           1102700200262 
 2.220  +01 4.     -02-0.7440     1.81   +01    3.  -01           1102700200263 
 2.226  +01 4.     -02 0.56400    9.36   +01   15.  -01           1102700200264 
 2.226  +01 4.     -02 0.48700    7.35   +01   12.  -01           1102700200265 
 2.226  +01 4.     -02 0.15400    2.49   +01    6.  -01           1102700200266 
 2.226  +01 4.     -02 0.10200    2.14   +01    6.  -01           1102700200267 
 2.226  +01 4.     -02 0.02500    1.78   +01    5.  -01           1102700200268 
 2.226  +01 4.     -02-0.0520     1.45   +01    5.  -01           1102700200269 
 2.226  +01 4.     -02-0.1280     1.23   +01    4.  -01           1102700200270 
 2.226  +01 4.     -02-0.2060     1.13   +01    4.  -01           1102700200271 
 2.226  +01 4.     -02-0.2820     1.10   +01    3.  -01           1102700200272 
 2.226  +01 4.     -02-0.3580     1.18   +01    3.  -01           1102700200273 
 2.226  +01 4.     -02-0.4370     1.31   +01    3.  -01           1102700200274 
 2.226  +01 4.     -02-0.5130     1.36   +01    3.  -01           1102700200275 
 2.226  +01 4.     -02-0.5890     1.59   +01    4.  -01           1102700200276 
 2.226  +01 4.     -02-0.6670     1.63   +01    4.  -01           1102700200277 
 2.226  +01 4.     -02-0.7440     1.84   +01    5.  -01           1102700200278 
 2.245  +01 4.     -02 0.56400    8.68   +01   15.  -01           1102700200279 
 2.245  +01 4.     -02 0.48700    7.18   +01   12.  -01           1102700200280 
 2.245  +01 4.     -02 0.17900    3.00   +01    6.  -01           1102700200281 
 2.245  +01 4.     -02 0.10200    2.26   +01    6.  -01           1102700200282 
 2.245  +01 4.     -02 0.02500    1.75   +01    5.  -01           1102700200283 
 2.245  +01 4.     -02-0.0520     1.50   +01    5.  -01           1102700200284 
 2.245  +01 4.     -02-0.1280     1.17   +01    4.  -01           1102700200285 
 2.245  +01 4.     -02-0.2060     1.07   +01    4.  -01           1102700200286 
 2.245  +01 4.     -02-0.2820     1.02   +01    3.  -01           1102700200287 
 2.245  +01 4.     -02-0.3580     9.57   +00    3.  -01           1102700200288 
 2.245  +01 4.     -02-0.4370     1.05   +01    3.  -01           1102700200289 
 2.245  +01 4.     -02-0.5130     1.11   +01    3.  -01           1102700200290 
 2.245  +01 4.     -02-0.5890     1.32   +01    4.  -01           1102700200291 
 2.245  +01 4.     -02-0.6670     1.53   +01    4.  -01           1102700200292 
 2.245  +01 4.     -02-0.7440     1.76   +01    5.  -01           1102700200293 
 2.364  +01 1.0    -01 0.45700    6.19   +01   41.  -01           1102700200294 
 2.364  +01 1.0    -01 0.38200    4.60   +01   29.  -01           1102700200295 
 2.364  +01 1.0    -01 0.30800    3.76   +01   21.  -01           1102700200296 
 2.364  +01 1.0    -01 0.06200    1.63   +01    8.  -01           1102700200297 
 2.364  +01 1.0    -01 0.01200    1.37   +01    6.  -01           1102700200298 
 2.364  +01 1.0    -01-0.0620     1.02   +01    5.  -01           1102700200299 
 2.364  +01 1.0    -01-0.1370     8.75   +00    8.  -01           1102700200300 
 2.364  +01 1.0    -01-0.2100     7.52   +00   45.  -02           1102700200301 
 2.364  +01 1.0    -01-0.2840     6.44   +00   36.  -02           1102700200302 
 2.364  +01 1.0    -01-0.3550     6.63   +00   34.  -02           1102700200303 
 2.364  +01 1.0    -01-0.4330     7.76   +00   37.  -02           1102700200304 
 2.364  +01 1.0    -01-0.5040     8.89   +00   38.  -02           1102700200305 
 2.364  +01 1.0    -01-0.5800     1.03   +01    4.  -01           1102700200306 
 2.364  +01 1.0    -01-0.6550     1.24   +01    3.  -01           1102700200307 
 2.364  +01 1.0    -01-0.7290     1.37   +01    3.  -01           1102700200308 
 2.364  +01 1.0    -01-0.8030     1.68   +01    4.  -01           1102700200309 
 2.364  +01 1.0    -01-0.8780     1.83   +01    4.  -01           1102700200310 
 2.369  +01 6.     -02 0.38600    5.05   +01   35.  -01           1102700200311 
 2.369  +01 6.     -02 0.33200    4.52   +01   30.  -01           1102700200312 
 2.369  +01 6.     -02-0.0450     1.08   +01    8.  -01           1102700200313 
 2.369  +01 6.     -02-0.1200     7.70   +00   72.  -02           1102700200314 
 2.369  +01 6.     -02-0.2000     9.50   +00   60.  -02           1102700200315 
 2.369  +01 6.     -02-0.2800     6.88   +00   51.  -02           1102700200316 
 2.369  +01 6.     -02-0.3600     7.53   +00   48.  -02           1102700200317 
 2.369  +01 6.     -02-0.4400     7.53   +00   45.  -02           1102700200318 
 2.369  +01 6.     -02-0.5200     8.46   +00   42.  -02           1102700200319 
 2.369  +01 6.     -02-0.6000     9.90   +00   40.  -02           1102700200320 
 2.369  +01 6.     -02-0.6800     1.29   +01    4.  -01           1102700200321 
 2.369  +01 6.     -02-0.7600     1.47   +01    4.  -01           1102700200322 
 2.369  +01 6.     -02-0.8400     1.74   +01    5.  -01           1102700200323 
 2.466  +01 1.1    -01 0.43200    7.16   +01   27.  -01           1102700200324 
 2.466  +01 1.1    -01 0.35800    4.50   +01   20.  -01           1102700200325 
 2.466  +01 1.1    -01 0.28400    3.50   +01   18.  -01           1102700200326 
 2.466  +01 1.1    -01-0.0380     1.24   +01    6.  -01           1102700200327 
 2.466  +01 1.1    -01-0.0860     1.08   +01    4.  -01           1102700200328 
 2.466  +01 1.1    -01-0.1620     8.82   +00   37.  -02           1102700200329 
 2.466  +01 1.1    -01-0.2360     7.07   +00   31.  -02           1102700200330 
 2.466  +01 1.1    -01-0.3100     6.65   +00   31.  -02           1102700200331 
 2.466  +01 1.1    -01-0.3840     6.75   +00   32.  -02           1102700200332 
 2.466  +01 1.1    -01-0.4560     7.08   +00   29.  -02           1102700200333 
 2.466  +01 1.1    -01-0.5320     8.39   +00   29.  -02           1102700200334 
 2.466  +01 1.1    -01-0.6040     8.99   +00   28.  -02           1102700200335 
 2.466  +01 1.1    -01-0.6800     1.05   +01    3.  -01           1102700200336 
 2.466  +01 1.1    -01-0.7540     1.24   +01    3.  -01           1102700200337 
 2.466  +01 1.1    -01-0.8280     1.37   +01    3.  -01           1102700200338 
 2.566  +01 1.2    -01 0.40800    4.59   +01   12.  -01           1102700200339 
 2.566  +01 1.2    -01 0.33400    3.30   +01   10.  -01           1102700200340 
 2.566  +01 1.2    -01 0.26000    2.47   +01    7.  -01           1102700200341 
 2.566  +01 1.2    -01 0.18600    2.05   +01    5.  -01           1102700200342 
 2.566  +01 1.2    -01-0.1860     7.4    +00    3.  -01           1102700200343 
 2.566  +01 1.2    -01-0.2600     6.3    +00    2.  -01           1102700200344 
 2.566  +01 1.2    -01-0.3340     5.9    +00    2.  -01           1102700200345 
 2.566  +01 1.2    -01-0.4080     5.7    +00    2.  -01           1102700200346 
 2.566  +01 1.2    -01-0.4820     6.1    +00    2.  -01           1102700200347 
 2.566  +01 1.2    -01-0.5560     7.1    +00    2.  -01           1102700200348 
 2.566  +01 1.2    -01-0.6300     7.7    +00    2.  -01           1102700200349 
 2.566  +01 1.2    -01-0.7040     8.0    +00    2.  -01           1102700200350 
 2.566  +01 1.2    -01-0.7780     9.0    +00    2.  -01           1102700200351 
 2.566  +01 1.2    -01-0.8520     9.7    +00    2.  -01           1102700200352 
 2.663  +01 6.     -02 0.43000    4.10   +01   15.  -01           1102700200353 
 2.663  +01 6.     -02 0.35800    2.79   +01   11.  -01           1102700200354 
 2.663  +01 6.     -02 0.28400    2.48   +01    8.  -01           1102700200355 
 2.663  +01 6.     -02 0.21400    2.12   +01    7.  -01           1102700200356 
 2.663  +01 6.     -02 0.14000    1.81   +01    5.  -01           1102700200357 
 2.663  +01 6.     -02 0.09100    1.58   +01    4.  -01           1102700200358 
 2.663  +01 6.     -02-0.3240     6.6    +00    2.  -01           1102700200359 
 2.663  +01 6.     -02-0.3960     6.1    +00    2.  -01           1102700200360 
 2.663  +01 6.     -02-0.4700     6.6    +00    2.  -01           1102700200361 
 2.663  +01 6.     -02-0.5440     6.8    +00    2.  -01           1102700200362 
 2.663  +01 6.     -02-0.6150     7.6    +00    2.  -01           1102700200363 
 2.663  +01 6.     -02-0.6900     8.4    +00    2.  -01           1102700200364 
 2.663  +01 6.     -02-0.7640     8.9    +00    2.  -01           1102700200365 
 2.855  +01 1.4    -01 0.15600    1.56   +01    7.  -01           1102700200366 
 2.855  +01 1.4    -01 0.08600    1.10   +01    6.  -01           1102700200367 
 2.855  +01 1.4    -01 0.00600    9.08   +00   38.  -02           1102700200368 
 2.855  +01 1.4    -01-0.3480     6.14   +00   21.  -02           1102700200369 
 2.855  +01 1.4    -01-0.4240     5.71   +00   21.  -02           1102700200370 
 2.855  +01 1.4    -01-0.5060     5.90   +00   21.  -02           1102700200371 
 2.855  +01 1.4    -01-0.5860     6.75   +00   22.  -02           1102700200372 
 2.855  +01 1.4    -01-0.6660     6.49   +00   21.  -02           1102700200373 
 2.855  +01 1.4    -01-0.7500     6.91   +00   22.  -02           1102700200374 
 2.855  +01 1.4    -01-0.8300     7.10   +00   21.  -02           1102700200375 
 2.855  +01 1.4    -01-0.8860     7.19   +00   19.  -02           1102700200376 
 2.857  +01 7.     -02 0.28200    2.32   +01   12.  -01           1102700200377 
 2.857  +01 7.     -02 0.20600    1.78   +01   10.  -01           1102700200378 
 2.857  +01 7.     -02 0.13000    1.60   +01    7.  -01           1102700200379 
 2.857  +01 7.     -02 0.05400    1.11   +01    5.  -01           1102700200380 
 2.857  +01 7.     -02-0.0220     9.77   +00   38.  -02           1102700200381 
 2.857  +01 7.     -02-0.4280     6.32   +00   32.  -02           1102700200382 
 2.857  +01 7.     -02-0.4780     5.96   +00   22.  -02           1102700200383 
 2.857  +01 7.     -02-0.5560     5.73   +00   21.  -02           1102700200384 
 2.857  +01 7.     -02-0.6320     5.96   +00   22.  -02           1102700200385 
 2.857  +01 7.     -02-0.7080     6.00   +00   20.  -02           1102700200386 
 2.857  +01 7.     -02-0.7840     6.56   +00   20.  -02           1102700200387 
 3.071  +01 1.0    -01 0.26600    2.26   +01   28.  -01           1102700200388 
 3.071  +01 1.0    -01 0.18000    1.60   +01   20.  -01           1102700200389 
 3.071  +01 1.0    -01 0.09400    1.55   +01   14.  -01           1102700200390 
 3.071  +01 1.0    -01 0.00600    1.52   +01    9.  -01           1102700200391 
 3.071  +01 1.0    -01-0.0800     9.9    +00    5.  -01           1102700200392 
 3.071  +01 1.0    -01-0.1360     8.8    +00    3.  -01           1102700200393 
 3.071  +01 1.0    -01-0.4260     5.05   +00   21.  -02           1102700200394 
 3.071  +01 1.0    -01-0.5100     4.97   +00   20.  -02           1102700200395 
 3.071  +01 1.0    -01-0.5980     5.08   +00   18.  -02           1102700200396 
 3.071  +01 1.0    -01-0.6840     5.32   +00   19.  -02           1102700200397 
 3.071  +01 1.0    -01-0.7700     6.25   +00   19.  -02           1102700200398 
 3.071  +01 1.0    -01-0.8560     6.60   +00   25.  -02           1102700200399 
ENDDATA            384          0                                 1102700200400 
ENDSUBENT          399          0                                 1102700299999 
SUBENT        11027003   19790313                             00001102700300001 
BIB                  3          5                                 1102700300002 
REACTION  1(2-HE-4(N,0),,EN)                                      1102700300003 
          2(2-HE-4(N,EL),,WID/RED,,RMT)                           1102700300004 
ASSUMED    INTERACTION RADIUS OF 5 FERMI WAS USED                 1102700300005 
COMMENT    NEUTRON WIDTH CALCULATED BY THE COMPILER FROM THE      1102700300006 
           R-MATRIX PARAMETER GAMMA GIVEN IN THE REFERENCE        1102700300007 
ENDBIB               5          0                                 1102700300008 
NOCOMMON             0          0                                 1102700300009 
DATA                 6          1                                 1102700300010 
DATA-CM   1DATA-ERR  1DATA-CM   2DATA-ERR  2MOMENTUM L SPIN J     1102700300011 
MEV        KEV        KEV        PER-CENT   NO-DIM     NO-DIM     1102700300012 
 17.669     10.        50.        25.        2.         1.5       1102700300013 
ENDDATA              3          0                                 1102700300014 
ENDSUBENT           13          0                                 1102700399999 
ENDENTRY             3          0                                 1102799999999 
