ENTRY            11234   19800820                             00001123400000001 
SUBENT        11234001   19800820                             00001123400100001 
BIB                  7          9                                 1123400100002 
INSTITUTE  (1USACOL,1USABNL)                                      1123400100003 
REFERENCE  (J,PR,119,1291,60)                                     1123400100004 
AUTHOR     (G.J.SAFFORD,T.I.TAYLOR,B.M.RUSTAD,W.W.HAVENS)         1123400100005 
TITLE      PRECISION DETERMINATION OF THE SLOW NEUTRON ABSORPTION 1123400100006 
           CROSS SECTION OF B10.                                  1123400100007 
COMMENT    SEE NUC.SCI.ENG. 9, 99 (1961) FOR NORMAL B ABSORPTION  1123400100008 
STATUS     (SCSRS)                                                1123400100009 
HISTORY    (760929T) TRANSLATED FROM SCISRS                       1123400100010 
           (800820A) CONVERTED TO REACTION FORMALISM              1123400100011 
ENDBIB               9          0                                 1123400100012 
NOCOMMON             0          0                                 1123400100013 
ENDSUBENT           12          0                                 1123400199999 
SUBENT        11234002   19800820                             00001123400200001 
BIB                  3          3                                 1123400200002 
REACTION   (5-B-0(N,TOT),,SIG)                                    1123400200003 
FACILITY   (SPECC)    CRYSTAL SPECTROMETER                        1123400200004 
SAMPLE     ANL-BNL STANDARD BORON, 19.8 PERCENT B-10.             1123400200005 
ENDBIB               3          0                                 1123400200006 
NOCOMMON             0          0                                 1123400200007 
DATA                 2         10                                 1123400200008 
EN         DATA                                                   1123400200009 
MEV        B                                                      1123400200010 
 4.6    -09 1.793  +03                                            1123400200011 
 7.0    -09 1.445  +03                                            1123400200012 
 9.0    -09 1.279  +03                                            1123400200013 
 1.32   -08 1.060  +03                                            1123400200014 
 1.86   -08 8.94   +02                                            1123400200015 
 2.60   -08 7.57   +02                                            1123400200016 
 3.50   -08 6.52   +02                                            1123400200017 
 5.00   -08 5.44   +02                                            1123400200018 
 9.00   -08 4.06   +02                                            1123400200019 
 1.010  -07 3.832  +02                                            1123400200020 
ENDDATA             12          0                                 1123400200021 
ENDSUBENT           20          0                                 1123400299999 
SUBENT        11234003   19800820                             00001123400300001 
BIB                  3          3                                 1123400300002 
REACTION   (5-B-10(N,ABS),,SIG)                                   1123400300003 
STATUS     (DEP)       FROM TOTAL MEASUREMENT.                    1123400300004 
FACILITY   (SPECC)    CRYSTAL SPECTROMETER                        1123400300005 
ENDBIB               3          0                                 1123400300006 
NOCOMMON             0          0                                 1123400300007 
DATA                 3          1                                 1123400300008 
EN         DATA       DATA-ERR                                    1123400300009 
MEV        B          B                                           1123400300010 
 2.53   -08 3.838  +03 1.1    +01                                 1123400300011 
ENDDATA              3          0                                 1123400300012 
ENDSUBENT           11          0                                 1123400399999 
SUBENT        11234004   19800820                             00001123400400001 
BIB                  3          3                                 1123400400002 
REACTION   (5-B-10(N,TOT),,SIG)                                   1123400400003 
FACILITY   (SPECC)    CRYSTAL SPECTROMETER                        1123400400004 
SAMPLE     SAMPLES 99.88 AND 92.84 PERCENT B-10.                  1123400400005 
ENDBIB               3          0                                 1123400400006 
NOCOMMON             0          0                                 1123400400007 
DATA                 2         10                                 1123400400008 
EN         DATA                                                   1123400400009 
MEV        B                                                      1123400400010 
 4.6    -09 8.960  +03                                            1123400400011 
 7.0    -09 7.243  +03                                            1123400400012 
 9.0    -09 6.414  +03                                            1123400400013 
 1.32   -08 5.298  +03                                            1123400400014 
 1.86   -08 4.476  +03                                            1123400400015 
 2.60   -08 3.775  +03                                            1123400400016 
 3.50   -08 3.260  +03                                            1123400400017 
 5.00   -08 2.719  +03                                            1123400400018 
 9.00   -08 2.030  +03                                            1123400400019 
 1.010  -07 1.920  +03                                            1123400400020 
ENDDATA             12          0                                 1123400400021 
ENDSUBENT           20          0                                 1123400499999 
ENDENTRY             4          0                                 1123499999999 
