ENTRY            11400   19820324                             00001140000000001 
SUBENT        11400001   19820324                             00001140000100001 
BIB                  6          8                                 1140000100002 
INSTITUTE  (1USAWIS)                                              1140000100003 
REFERENCE  (J,PR,107,1065,57)                                     1140000100004 
AUTHOR     (R.B.WALTON,J.D.CLEMENT,F.BORELI)                      1140000100005 
TITLE      INTERACTION OF NEUTRONS WITH OXYGEN AND A STUDY OF THE 1140000100006 
           C13(ALPHA,N) REACTION.                                 1140000100007 
STATUS     (SCSRS)                                                1140000100008 
HISTORY    (760714T) TRANSLATED FROM SCISRS                       1140000100009 
           (820324A) CONVERTED TO REACTION FORMALISM              1140000100010 
ENDBIB               8          0                                 1140000100011 
NOCOMMON             0          0                                 1140000100012 
ENDSUBENT           11          0                                 1140000199999 
SUBENT        11400002   19820324                             00001140000200001 
BIB                  3          3                                 1140000200002 
REACTION   (8-O-0(N,A),,SIG)                                      1140000200003 
DETECTOR   (PROPC)    PROPORTIONAL COUNTER                        1140000200004 
ERR-ANALYS RELATIVE ERROR GIVEN                                   1140000200005 
ENDBIB               3          0                                 1140000200006 
COMMON               2          3                                 1140000200007 
EN-RSL     DATA-ERR                                               1140000200008 
KEV        PER-CENT                                               1140000200009 
 35.        15.                                                   1140000200010 
ENDCOMMON            3          0                                 1140000200011 
DATA                 2        106                                 1140000200012 
EN         DATA                                                   1140000200013 
MEV        B                                                      1140000200014 
 3.962  +00 5.20   -02                                            1140000200015 
 3.987  +00 7.10   -02                                            1140000200016 
 4.002  +00 7.50   -02                                            1140000200017 
 4.018  +00 7.60   -02                                            1140000200018 
 4.033  +00 7.30   -02                                            1140000200019 
 4.049  +00 7.30   -02                                            1140000200020 
 4.059  +00 7.00   -02                                            1140000200021 
 4.069  +00 6.60   -02                                            1140000200022 
 4.085  +00 7.00   -02                                            1140000200023 
 4.105  +00 8.40   -02                                            1140000200024 
 4.115  +00 9.40   -02                                            1140000200025 
 4.125  +00 1.08   -01                                            1140000200026 
 4.140  +00 1.25   -01                                            1140000200027 
 4.146  +00 1.23   -01                                            1140000200028 
 4.154  +00 1.29   -01                                            1140000200029 
 4.163  +00 1.24   -01                                            1140000200030 
 4.185  +00 1.17   -01                                            1140000200031 
 4.204  +00 1.15   -01                                            1140000200032 
 4.223  +00 1.00   -01                                            1140000200033 
 4.242  +00 1.04   -01                                            1140000200034 
 4.262  +00 9.80   -02                                            1140000200035 
 4.281  +00 1.13   -01                                            1140000200036 
 4.300  +00 9.00   -02                                            1140000200037 
 4.320  +00 7.10   -02                                            1140000200038 
 4.337  +00 6.10   -02                                            1140000200039 
 4.357  +00 4.80   -02                                            1140000200040 
 4.376  +00 4.40   -02                                            1140000200041 
 4.394  +00 2.50   -02                                            1140000200042 
 4.396  +00 3.60   -02                                            1140000200043 
 4.409  +00 2.70   -02                                            1140000200044 
 4.422  +00 2.80   -02                                            1140000200045 
 4.436  +00 3.90   -02                                            1140000200046 
 4.444  +00 4.60   -02                                            1140000200047 
 4.453  +00 4.50   -02                                            1140000200048 
 4.463  +00 4.70   -02                                            1140000200049 
 4.471  +00 3.80   -02                                            1140000200050 
 4.482  +00 3.30   -02                                            1140000200051 
 4.491  +00 3.40   -02                                            1140000200052 
 4.499  +00 4.80   -02                                            1140000200053 
 4.509  +00 4.90   -02                                            1140000200054 
 4.518  +00 5.40   -02                                            1140000200055 
 4.528  +00 5.00   -02                                            1140000200056 
 4.537  +00 4.00   -02                                            1140000200057 
 4.546  +00 3.10   -02                                            1140000200058 
 4.554  +00 3.00   -02                                            1140000200059 
 4.564  +00 3.30   -02                                            1140000200060 
 4.574  +00 4.00   -02                                            1140000200061 
 4.582  +00 4.60   -02                                            1140000200062 
 4.592  +00 5.20   -02                                            1140000200063 
 4.601  +00 6.60   -02                                            1140000200064 
 4.609  +00 8.10   -02                                            1140000200065 
 4.619  +00 1.01   -01                                            1140000200066 
 4.628  +00 9.40   -02                                            1140000200067 
 4.638  +00 8.00   -02                                            1140000200068 
 4.646  +00 6.30   -02                                            1140000200069 
 4.655  +00 4.00   -02                                            1140000200070 
 4.677  +00 3.10   -02                                            1140000200071 
 4.681  +00 2.80   -02                                            1140000200072 
 4.699  +00 2.80   -02                                            1140000200073 
 4.716  +00 3.10   -02                                            1140000200074 
 4.733  +00 3.40   -02                                            1140000200075 
 4.748  +00 3.50   -02                                            1140000200076 
 4.752  +00 4.00   -02                                            1140000200077 
 4.766  +00 4.70   -02                                            1140000200078 
 4.779  +00 5.30   -02                                            1140000200079 
 4.792  +00 5.80   -02                                            1140000200080 
 4.806  +00 6.50   -02                                            1140000200081 
 4.819  +00 7.50   -02                                            1140000200082 
 4.831  +00 8.10   -02                                            1140000200083 
 4.842  +00 7.80   -02                                            1140000200084 
 4.845  +00 8.60   -02                                            1140000200085 
 4.851  +00 7.50   -02                                            1140000200086 
 4.857  +00 8.00   -02                                            1140000200087 
 4.864  +00 6.80   -02                                            1140000200088 
 4.870  +00 7.40   -02                                            1140000200089 
 4.883  +00 6.80   -02                                            1140000200090 
 4.884  +00 4.50   -02                                            1140000200091 
 4.897  +00 5.60   -02                                            1140000200092 
 4.909  +00 6.10   -02                                            1140000200093 
 4.923  +00 6.60   -02                                            1140000200094 
 4.924  +00 6.80   -02                                            1140000200095 
 4.935  +00 7.10   -02                                            1140000200096 
 4.949  +00 8.30   -02                                            1140000200097 
 4.962  +00 8.80   -02                                            1140000200098 
 4.973  +00 1.18   -01                                            1140000200099 
 4.994  +00 1.39   -01                                            1140000200100 
 5.005  +00 1.34   -01                                            1140000200101 
 5.006  +00 1.71   -01                                            1140000200102 
 5.017  +00 1.81   -01                                            1140000200103 
 5.028  +00 1.84   -01                                            1140000200104 
 5.029  +00 1.73   -01                                            1140000200105 
 5.037  +00 1.84   -01                                            1140000200106 
 5.048  +00 1.90   -01                                            1140000200107 
 5.059  +00 1.73   -01                                            1140000200108 
 5.070  +00 1.53   -01                                            1140000200109 
 5.081  +00 1.27   -01                                            1140000200110 
 5.091  +00 1.42   -01                                            1140000200111 
 5.102  +00 1.45   -01                                            1140000200112 
 5.113  +00 1.59   -01                                            1140000200113 
 5.121  +00 1.39   -01                                            1140000200114 
 5.134  +00 1.03   -01                                            1140000200115 
 5.144  +00 6.80   -02                                            1140000200116 
 5.155  +00 4.40   -02                                            1140000200117 
 5.176  +00 2.80   -02                                            1140000200118 
 5.196  +00 2.20   -02                                            1140000200119 
 5.219  +00 2.30   -02                                            1140000200120 
ENDDATA            108          0                                 1140000200121 
ENDSUBENT          120          0                                 1140000299999 
SUBENT        11400003   19820324                             00001140000300001 
BIB                  4          4                                 1140000300002 
REACTION   (8-O-0(N,TOT),,SIG)                                    1140000300003 
SAMPLE     SN-O(2) AND SN SAMPLES.                                1140000300004 
DETECTOR   (HORBU) HORNYAK BUTTON.                                1140000300005 
ERR-ANALYS (ERR-S) STATISTICAL ERROR.                             1140000300006 
ENDBIB               4          0                                 1140000300007 
COMMON               1          3                                 1140000300008 
ERR-S                                                             1140000300009 
PER-CENT                                                          1140000300010 
 6.                                                               1140000300011 
ENDCOMMON            3          0                                 1140000300012 
DATA                 3         47                                 1140000300013 
EN         EN-RSL     DATA                                        1140000300014 
MEV        MEV        B                                           1140000300015 
 3.410  +00 8.0    -02 3.17   +00                                 1140000300016 
 3.440  +00 8.0    -02 3.07   +00                                 1140000300017 
 3.470  +00 8.0    -02 3.14   +00                                 1140000300018 
 3.490  +00 8.0    -02 3.11   +00                                 1140000300019 
 3.510  +00 8.0    -02 3.18   +00                                 1140000300020 
 3.530  +00 8.0    -02 3.24   +00                                 1140000300021 
 3.560  +00 8.0    -02 3.19   +00                                 1140000300022 
 3.590  +00 8.0    -02 3.24   +00                                 1140000300023 
 3.610  +00 8.0    -02 3.12   +00                                 1140000300024 
 3.630  +00 8.0    -02 3.32   +00                                 1140000300025 
 3.660  +00 8.0    -02 3.18   +00                                 1140000300026 
 3.680  +00 8.0    -02 3.22   +00                                 1140000300027 
 3.700  +00 8.0    -02 3.50   +00                                 1140000300028 
 3.730  +00 8.0    -02 3.76   +00                                 1140000300029 
 3.750  +00 8.0    -02 3.54   +00                                 1140000300030 
 3.770  +00 8.0    -02 3.03   +00                                 1140000300031 
 3.790  +00 8.0    -02 2.77   +00                                 1140000300032 
 3.820  +00 8.0    -02 2.88   +00                                 1140000300033 
 3.840  +00 8.0    -02 2.52   +00                                 1140000300034 
 3.840  +00 8.0    -02 2.68   +00                                 1140000300035 
 3.870  +00 8.0    -02 2.36   +00                                 1140000300036 
 3.870  +00 8.0    -02 2.28   +00                                 1140000300037 
 3.896  +00 8.0    -02 2.50   +00                                 1140000300038 
 3.900  +00 4.0    -02 2.38   +00                                 1140000300039 
 3.920  +00 4.0    -02 2.17   +00                                 1140000300040 
 3.940  +00 4.0    -02 2.32   +00                                 1140000300041 
 3.970  +00 4.0    -02 1.95   +00                                 1140000300042 
 3.980  +00 4.0    -02 1.98   +00                                 1140000300043 
 4.000  +00 4.0    -02 1.94   +00                                 1140000300044 
 4.030  +00 4.0    -02 1.38   +00                                 1140000300045 
 4.050  +00 4.0    -02 1.28   +00                                 1140000300046 
 4.080  +00 4.0    -02 1.44   +00                                 1140000300047 
 4.100  +00 4.0    -02 1.48   +00                                 1140000300048 
 4.130  +00 4.0    -02 1.86   +00                                 1140000300049 
 4.150  +00 4.0    -02 2.04   +00                                 1140000300050 
 4.180  +00 4.0    -02 2.15   +00                                 1140000300051 
 4.200  +00 4.0    -02 1.94   +00                                 1140000300052 
 4.230  +00 4.0    -02 1.77   +00                                 1140000300053 
 4.250  +00 4.0    -02 1.50   +00                                 1140000300054 
 4.280  +00 4.0    -02 2.10   +00                                 1140000300055 
 4.310  +00 4.0    -02 3.06   +00                                 1140000300056 
 4.340  +00 4.0    -02 2.71   +00                                 1140000300057 
 4.370  +00 4.0    -02 2.25   +00                                 1140000300058 
 4.390  +00 4.0    -02 2.16   +00                                 1140000300059 
 4.410  +00 4.0    -02 1.17   +00                                 1140000300060 
 4.430  +00 4.0    -02 2.09   +00                                 1140000300061 
 4.450  +00 4.0    -02 1.52   +00                                 1140000300062 
ENDDATA             49          0                                 1140000300063 
ENDSUBENT           62          0                                 1140000399999 
SUBENT        11400004   19820324                             00001140000400001 
BIB                  1          1                                 1140000400002 
REACTION   (8-O-16(N,0),,EN)                                      1140000400003 
ENDBIB               1          0                                 1140000400004 
NOCOMMON             0          0                                 1140000400005 
DATA                 1          4                                 1140000400006 
DATA                                                              1140000400007 
MEV                                                               1140000400008 
 3.75                                                             1140000400009 
 4.19                                                             1140000400010 
 4.32                                                             1140000400011 
 4.44                                                             1140000400012 
ENDDATA              6          0                                 1140000400013 
ENDSUBENT           12          0                                 1140000499999 
ENDENTRY             4          0                                 1140099999999 
