ENTRY            11430   19820813                             00001143000000001 
SUBENT        11430001   19820813                             00001143000100001 
BIB                  6          8                                 1143000100002 
INSTITUTE  (1USAANL)                                              1143000100003 
REFERENCE  (J,PR,118,533,60)                                      1143000100004 
AUTHOR     (R.O.LANE,J.E.MONAHAN)                                 1143000100005 
TITLE      DIFFERENTIAL CROSS SECTIONS FOR NEUTRON RESONANCE      1143000100006 
           SCATTERING FROM NA23.                                  1143000100007 
STATUS     (SCSRS)                                                1143000100008 
HISTORY    (761016T) TRANSLATED FROM SCISRS                       1143000100009 
           (820813A) CONVERTED TO REACTION FORMALISM              1143000100010 
ENDBIB               8          0                                 1143000100011 
COMMON               1          3                                 1143000100012 
EN-RSL                                                            1143000100013 
KEV                                                               1143000100014 
 25.                                                              1143000100015 
ENDCOMMON            3          0                                 1143000100016 
ENDSUBENT           15          0                                 1143000199999 
SUBENT        11430002   19820813                             00001143000200001 
BIB                  4          4                                 1143000200002 
REACTION   (11-NA-23(N,SCT)11-NA-23,,DA,,LEG/RS)                  1143000200003 
STATUS     (DEP)                                                  1143000200004 
DETECTOR   (MTANK)    MODERATING TANK DETECTOR                    1143000200005 
MONITOR    (6-C-0(N,EL),,SIG)                                     1143000200006 
ENDBIB               4          0                                 1143000200007 
NOCOMMON             0          0                                 1143000200008 
DATA                 3        304                                 1143000200009 
EN         NUMBER-CM  DATA                                        1143000200010 
MEV        NO-DIM     NO-DIM                                      1143000200011 
 2.09   -01    1.      1.93   -01                                 1143000200012 
 2.09   -01    2.     -1.     -03                                 1143000200013 
 2.09   -01    3.      4.1    -02                                 1143000200014 
 2.09   -01    4.      2.     -03                                 1143000200015 
 2.19   -01    1.      1.15   -01                                 1143000200016 
 2.19   -01    2.     -3.     -03                                 1143000200017 
 2.19   -01    3.     -1.5    -02                                 1143000200018 
 2.19   -01    4.      4.5    -02                                 1143000200019 
 2.32   -01    1.      1.26   -01                                 1143000200020 
 2.32   -01    2.      2.51   -01                                 1143000200021 
 2.32   -01    3.     -3.0    -02                                 1143000200022 
 2.33   -01    4.      6.5    -02                                 1143000200023 
 2.43   -01    1.      4.27   -01                                 1143000200024 
 2.43   -01    2.      2.63   -01                                 1143000200025 
 2.43   -01    3.      6.     -03                                 1143000200026 
 2.43   -01    4.     -8.0    -02                                 1143000200027 
 2.56   -01    1.      3.92   -01                                 1143000200028 
 2.56   -01    2.      1.86   -01                                 1143000200029 
 2.56   -01    3.      1.5    -02                                 1143000200030 
 2.56   -01    4.     -9.3    -02                                 1143000200031 
 2.67   -01    1.      3.43   -01                                 1143000200032 
 2.67   -01    2.      1.61   -01                                 1143000200033 
 2.67   -01    3.      6.     -03                                 1143000200034 
 2.67   -01    4.      1.87   -01                                 1143000200035 
 2.84   -01    1.      2.71   -01                                 1143000200036 
 2.84   -01    2.      7.6    -02                                 1143000200037 
 2.84   -01    3.     -2.05   -01                                 1143000200038 
 2.84   -01    4.      1.7    -02                                 1143000200039 
 2.95   -01    1.      1.16   -01                                 1143000200040 
 2.95   -01    2.      6.8    -02                                 1143000200041 
 2.95   -01    3.      1.10   -01                                 1143000200042 
 2.95   -01    4.     -6.5    -02                                 1143000200043 
 3.06   -01    1.      1.62   -01                                 1143000200044 
 3.06   -01    2.      1.7    -02                                 1143000200045 
 3.06   -01    3.      1.33   -01                                 1143000200046 
 3.06   -01    4.     -1.25   -01                                 1143000200047 
 3.17   -01    1.      7.4    -02                                 1143000200048 
 3.17   -01    2.      5.     -03                                 1143000200049 
 3.17   -01    3.      9.     -03                                 1143000200050 
 3.17   -01    4.      9.4    -02                                 1143000200051 
 3.28   -01    1.     -4.5    -02                                 1143000200052 
 3.28   -01    2.      6.0    -02                                 1143000200053 
 3.28   -01    3.     -3.6    -02                                 1143000200054 
 3.28   -01    4.      1.93   -01                                 1143000200055 
 3.56   -01    1.     -1.45   -01                                 1143000200056 
 3.56   -01    2.      8.9    -02                                 1143000200057 
 3.56   -01    3.     -2.8    -02                                 1143000200058 
 3.56   -01    4.      1.17   -01                                 1143000200059 
 3.77   -01    1.      1.2    -02                                 1143000200060 
 3.77   -01    2.     -3.9    -02                                 1143000200061 
 3.77   -01    3.      2.2    -02                                 1143000200062 
 3.77   -01    4.     -4.0    -02                                 1143000200063 
 3.89   -01    1.      1.95   -01                                 1143000200064 
 3.89   -01    2.      1.5    -02                                 1143000200065 
 3.89   -01    3.     -9.     -03                                 1143000200066 
 3.89   -01    4.     -4.4    -02                                 1143000200067 
 3.90   -01    1.      2.45   -01                                 1143000200068 
 3.90   -01    2.     -1.9    -02                                 1143000200069 
 3.90   -01    3.     -1.0    -02                                 1143000200070 
 3.90   -01    4.     -7.0    -02                                 1143000200071 
 4.00   -01    1.      3.95   -01                                 1143000200072 
 4.00   -01    2.      3.     -03                                 1143000200073 
 4.00   -01    3.      8.0    -02                                 1143000200074 
 4.00   -01    4.     -1.93   -01                                 1143000200075 
 4.01   -01    1.      4.08   -01                                 1143000200076 
 4.01   -01    2.     -2.5    -02                                 1143000200077 
 4.01   -01    3.      5.2    -02                                 1143000200078 
 4.01   -01    4.     -1.00   -01                                 1143000200079 
 4.09   -01    1.      3.59   -01                                 1143000200080 
 4.09   -01    2.     -9.4    -02                                 1143000200081 
 4.09   -01    3.      4.1    -02                                 1143000200082 
 4.09   -01    4.     -4.9    -02                                 1143000200083 
 4.12   -01    1.      2.96   -01                                 1143000200084 
 4.12   -01    2.     -2.5    -02                                 1143000200085 
 4.12   -01    3.      1.50   -01                                 1143000200086 
 4.12   -01    4.     -8.7    -02                                 1143000200087 
 4.20   -01    1.      1.97   -01                                 1143000200088 
 4.20   -01    2.     -3.0    -02                                 1143000200089 
 4.20   -01    3.      5.5    -02                                 1143000200090 
 4.20   -01    4.     -5.7    -02                                 1143000200091 
 4.23   -01    1.      2.22   -01                                 1143000200092 
 4.23   -01    2.     -1.1    -02                                 1143000200093 
 4.23   -01    3.      5.3    -02                                 1143000200094 
 4.23   -01    4.     -6.4    -02                                 1143000200095 
 4.33   -01    1.      6.7    -02                                 1143000200096 
 4.33   -01    2.      6.5    -02                                 1143000200097 
 4.33   -01    3.      7.     -03                                 1143000200098 
 4.33   -01    4.     -7.5    -02                                 1143000200099 
 4.34   -01    1.      8.5    -02                                 1143000200100 
 4.34   -01    2.      9.4    -02                                 1143000200101 
 4.34   -01    3.      1.9    -02                                 1143000200102 
 4.34   -01    4.      6.     -03                                 1143000200103 
 4.44   -01    1.      3.18   -01                                 1143000200104 
 4.44   -01    2.      3.4    -02                                 1143000200105 
 4.44   -01    3.      7.3    -02                                 1143000200106 
 4.44   -01    4.     -8.9    -02                                 1143000200107 
 4.54   -01    1.      3.74   -01                                 1143000200108 
 4.54   -01    2.      6.6    -02                                 1143000200109 
 4.54   -01    3.      3.     -03                                 1143000200110 
 4.54   -01    4.      6.3    -02                                 1143000200111 
 4.55   -01    1.      3.29   -01                                 1143000200112 
 4.55   -01    2.      3.3    -02                                 1143000200113 
 4.55   -01    3.     -2.5    -02                                 1143000200114 
 4.55   -01    4.     -4.     -03                                 1143000200115 
 4.75   -01    1.      1.91   -01                                 1143000200116 
 4.75   -01    2.      2.5    -02                                 1143000200117 
 4.75   -01    3.     -5.     -03                                 1143000200118 
 4.75   -01    4.     -6.     -03                                 1143000200119 
 4.86   -01    1.      1.51   -01                                 1143000200120 
 4.86   -01    2.      1.0    -02                                 1143000200121 
 4.86   -01    3.     -3.0    -02                                 1143000200122 
 4.86   -01    4.     -3.1    -02                                 1143000200123 
 4.94   -01    1.      3.0    -02                                 1143000200124 
 4.94   -01    2.      4.4    -02                                 1143000200125 
 4.94   -01    3.     -1.34   -01                                 1143000200126 
 4.94   -01    4.      9.6    -02                                 1143000200127 
 5.01   -01    1.      6.1    -02                                 1143000200128 
 5.01   -01    2.      2.6    -02                                 1143000200129 
 5.01   -01    3.     -2.8    -02                                 1143000200130 
 5.01   -01    4.      3.4    -02                                 1143000200131 
 5.07   -01    1.     -9.     -03                                 1143000200132 
 5.07   -01    2.     -2.7    -02                                 1143000200133 
 5.07   -01    3.     -1.01   -01                                 1143000200134 
 5.07   -01    4.      8.5    -02                                 1143000200135 
 5.17   -01    1.     -1.33   -01                                 1143000200136 
 5.17   -01    2.     -5.     -03                                 1143000200137 
 5.17   -01    3.     -3.3    -02                                 1143000200138 
 5.17   -01    4.      4.9    -02                                 1143000200139 
 5.19   -01    1.     -1.65   -01                                 1143000200140 
 5.19   -01    2.     -3.9    -02                                 1143000200141 
 5.19   -01    3.     -3.3    -02                                 1143000200142 
 5.19   -01    4.      4.3    -02                                 1143000200143 
 5.28   -01    1.     -1.33   -01                                 1143000200144 
 5.28   -01    2.      4.8    -02                                 1143000200145 
 5.28   -01    3.     -3.7    -02                                 1143000200146 
 5.28   -01    4.      4.     -03                                 1143000200147 
 5.29   -01    1.     -1.78   -01                                 1143000200148 
 5.29   -01    2.      1.5    -02                                 1143000200149 
 5.29   -01    3.      8.9    -02                                 1143000200150 
 5.29   -01    4.      1.4    -02                                 1143000200151 
 5.34   -01    1.     -2.07   -01                                 1143000200152 
 5.34   -01    2.      6.5    -02                                 1143000200153 
 5.34   -01    3.      2.0    -02                                 1143000200154 
 5.34   -01    4.      3.0    -02                                 1143000200155 
 5.39   -01    1.     -1.53   -01                                 1143000200156 
 5.39   -01    2.      7.0    -02                                 1143000200157 
 5.39   -01    3.     -3.5    -02                                 1143000200158 
 5.39   -01    4.      7.9    -02                                 1143000200159 
 5.44   -01    1.     -1.27   -01                                 1143000200160 
 5.44   -01    2.      2.4    -02                                 1143000200161 
 5.44   -01    3.      3.2    -02                                 1143000200162 
 5.44   -01    4.      6.9    -02                                 1143000200163 
 5.54   -01    1.     -9.8    -02                                 1143000200164 
 5.54   -01    2.      7.25   -02                                 1143000200165 
 5.54   -01    3.      3.25   -02                                 1143000200166 
 5.54   -01    4.      4.65   -02                                 1143000200167 
 5.64   -01    1.     -1.12   -01                                 1143000200168 
 5.64   -01    2.      7.5    -02                                 1143000200169 
 5.64   -01    3.     -5.4    -02                                 1143000200170 
 5.64   -01    4.      9.6    -02                                 1143000200171 
 5.66   -01    1.     -1.22   -01                                 1143000200172 
 5.66   -01    2.      5.1    -02                                 1143000200173 
 5.66   -01    3.     -1.     -03                                 1143000200174 
 5.66   -01    4.      2.7    -02                                 1143000200175 
 5.77   -01    1.     -1.26   -01                                 1143000200176 
 5.77   -01    2.      9.5    -02                                 1143000200177 
 5.77   -01    3.      0.     +00                                 1143000200178 
 5.77   -01    4.      2.4    -02                                 1143000200179 
 5.87   -01    1.     -8.8    -02                                 1143000200180 
 5.87   -01    2.      1.43   -01                                 1143000200181 
 5.87   -01    3.      2.9    -02                                 1143000200182 
 5.87   -01    4.      1.0    -02                                 1143000200183 
 5.89   -01    1.     -4.3    -02                                 1143000200184 
 5.89   -01    2.      1.96   -01                                 1143000200185 
 5.89   -01    3.      5.4    -02                                 1143000200186 
 5.89   -01    4.     -5.     -03                                 1143000200187 
 5.92   -01    1.      8.     -03                                 1143000200188 
 5.92   -01    2.      1.93   -01                                 1143000200189 
 5.92   -01    3.      1.0    -02                                 1143000200190 
 5.92   -01    4.      5.     -03                                 1143000200191 
 5.98   -01    1.      1.26   -01                                 1143000200192 
 5.98   -01    2.      2.17   -01                                 1143000200193 
 5.98   -01    3.     -5.     -03                                 1143000200194 
 5.98   -01    4.      6.1    -02                                 1143000200195 
 6.04   -01    1.      2.17   -01                                 1143000200196 
 6.04   -01    2.      2.61   -01                                 1143000200197 
 6.04   -01    3.     -2.0    -02                                 1143000200198 
 6.04   -01    4.     -1.0    -02                                 1143000200199 
 6.05   -01    1.      2.22   -01                                 1143000200200 
 6.05   -01    2.      2.55   -01                                 1143000200201 
 6.05   -01    3.      0.     +00                                 1143000200202 
 6.05   -01    4.      4.5    -02                                 1143000200203 
 6.18   -01    1.      1.45   -01                                 1143000200204 
 6.18   -01    2.      2.55   -01                                 1143000200205 
 6.18   -01    3.      5.1    -02                                 1143000200206 
 6.18   -01    4.      1.2    -02                                 1143000200207 
 6.27   -01    1.      6.8    -02                                 1143000200208 
 6.27   -01    2.      3.11   -01                                 1143000200209 
 6.27   -01    3.      1.5    -02                                 1143000200210 
 6.27   -01    4.     -3.0    -02                                 1143000200211 
 6.38   -01    1.      1.     -03                                 1143000200212 
 6.38   -01    2.      3.32   -01                                 1143000200213 
 6.38   -01    3.     -5.2    -02                                 1143000200214 
 6.38   -01    4.      4.1    -02                                 1143000200215 
 6.47   -01    1.      6.6    -02                                 1143000200216 
 6.47   -01    2.      3.32   -01                                 1143000200217 
 6.47   -01    3.      5.2    -02                                 1143000200218 
 6.47   -01    4.      3.5    -02                                 1143000200219 
 6.58   -01    1.      7.5    -02                                 1143000200220 
 6.58   -01    2.      4.20   -01                                 1143000200221 
 6.58   -01    3.     -1.9    -02                                 1143000200222 
 6.58   -01    4.      6.     -03                                 1143000200223 
 6.68   -01    1.      1.16   -01                                 1143000200224 
 6.68   -01    2.      5.31   -01                                 1143000200225 
 6.68   -01    3.      1.14   -01                                 1143000200226 
 6.68   -01    4.     -5.     -03                                 1143000200227 
 6.79   -01    1.      2.25   -01                                 1143000200228 
 6.79   -01    2.      6.48   -01                                 1143000200229 
 6.79   -01    3.     -5.6    -02                                 1143000200230 
 6.79   -01    4.      1.15   -01                                 1143000200231 
 6.88   -01    1.      3.40   -01                                 1143000200232 
 6.88   -01    2.      7.04   -01                                 1143000200233 
 6.88   -01    3.      2.7    -02                                 1143000200234 
 6.88   -01    4.      6.4    -02                                 1143000200235 
 6.98   -01    1.      4.45   -01                                 1143000200236 
 6.98   -01    2.      7.72   -01                                 1143000200237 
 6.98   -01    3.      8.6    -02                                 1143000200238 
 6.98   -01    4.      9.     -03                                 1143000200239 
 7.09   -01    1.      5.89   -01                                 1143000200240 
 7.09   -01    2.      8.10   -01                                 1143000200241 
 7.09   -01    3.      8.3    -02                                 1143000200242 
 7.09   -01    4.      3.     -03                                 1143000200243 
 7.18   -01    1.      7.49   -01                                 1143000200244 
 7.18   -01    2.      8.35   -01                                 1143000200245 
 7.18   -01    3.      5.3    -02                                 1143000200246 
 7.18   -01    4.     -3.     -03                                 1143000200247 
 7.22   -01    1.      8.35   -01                                 1143000200248 
 7.22   -01    2.      8.03   -01                                 1143000200249 
 7.22   -01    3.      9.5    -02                                 1143000200250 
 7.22   -01    4.     -3.7    -02                                 1143000200251 
 7.28   -01    1.      8.61   -01                                 1143000200252 
 7.28   -01    2.      7.96   -01                                 1143000200253 
 7.28   -01    3.      7.4    -02                                 1143000200254 
 7.28   -01    4.      2.9    -02                                 1143000200255 
 7.32   -01    1.      8.95   -01                                 1143000200256 
 7.32   -01    2.      7.40   -01                                 1143000200257 
 7.32   -01    3.      6.9    -02                                 1143000200258 
 7.32   -01    4.     -1.1    -02                                 1143000200259 
 7.37   -01    1.      9.25   -01                                 1143000200260 
 7.37   -01    2.      7.26   -01                                 1143000200261 
 7.37   -01    3.      8.0    -02                                 1143000200262 
 7.37   -01    4.      2.9    -02                                 1143000200263 
 7.41   -01    1.      9.30   -01                                 1143000200264 
 7.41   -01    2.      6.21   -01                                 1143000200265 
 7.41   -01    3.      4.9    -02                                 1143000200266 
 7.41   -01    4.      3.5    -02                                 1143000200267 
 7.52   -01    1.      9.06   -01                                 1143000200268 
 7.52   -01    2.      4.06   -01                                 1143000200269 
 7.52   -01    3.      9.2    -02                                 1143000200270 
 7.52   -01    4.     -4.7    -02                                 1143000200271 
 7.57   -01    1.      8.65   -01                                 1143000200272 
 7.57   -01    2.      2.97   -01                                 1143000200273 
 7.57   -01    3.      9.5    -02                                 1143000200274 
 7.57   -01    4.      1.6    -02                                 1143000200275 
 7.61   -01    1.      8.26   -01                                 1143000200276 
 7.61   -01    2.      2.30   -01                                 1143000200277 
 7.61   -01    3.      2.05   -01                                 1143000200278 
 7.61   -01    4.     -6.8    -02                                 1143000200279 
 7.68   -01    1.      7.25   -01                                 1143000200280 
 7.68   -01    2.      2.03   -01                                 1143000200281 
 7.68   -01    3.      1.60   -01                                 1143000200282 
 7.68   -01    4.     -4.3    -02                                 1143000200283 
 7.72   -01    1.      7.18   -01                                 1143000200284 
 7.72   -01    2.      4.05   -01                                 1143000200285 
 7.72   -01    3.      2.51   -01                                 1143000200286 
 7.72   -01    4.     -6.1    -02                                 1143000200287 
 7.77   -01    1.      7.11   -01                                 1143000200288 
 7.77   -01    2.      4.35   -01                                 1143000200289 
 7.77   -01    3.      3.21   -01                                 1143000200290 
 7.77   -01    4.      1.1    -02                                 1143000200291 
 7.81   -01    1.      7.86   -01                                 1143000200292 
 7.81   -01    2.      4.52   -01                                 1143000200293 
 7.81   -01    3.      2.79   -01                                 1143000200294 
 7.81   -01    4.     -1.90   -01                                 1143000200295 
 7.88   -01    1.      7.85   -01                                 1143000200296 
 7.88   -01    2.      5.56   -01                                 1143000200297 
 7.88   -01    3.      2.46   -01                                 1143000200298 
 7.88   -01    4.      3.5    -02                                 1143000200299 
 7.92   -01    1.      8.75   -01                                 1143000200300 
 7.92   -01    2.      5.79   -01                                 1143000200301 
 7.92   -01    3.      1.50   -01                                 1143000200302 
 7.92   -01    4.     -8.0    -02                                 1143000200303 
 8.02   -01    1.      9.08   -01                                 1143000200304 
 8.02   -01    2.      6.16   -01                                 1143000200305 
 8.02   -01    3.      1.55   -01                                 1143000200306 
 8.02   -01    4.     -2.2    -02                                 1143000200307 
 8.12   -01    1.      9.06   -01                                 1143000200308 
 8.12   -01    2.      5.76   -01                                 1143000200309 
 8.12   -01    3.      1.12   -01                                 1143000200310 
 8.12   -01    4.      2.6    -02                                 1143000200311 
 8.20   -01    1.      9.10   -01                                 1143000200312 
 8.20   -01    2.      5.99   -01                                 1143000200313 
 8.20   -01    3.      6.1    -02                                 1143000200314 
 8.20   -01    4.      1.10   -01                                 1143000200315 
ENDDATA            306          0                                 1143000200316 
ENDSUBENT          315          0                                 1143000299999 
SUBENT        11430003   19820813                             00001143000300001 
BIB                  3          3                                 1143000300002 
REACTION   (11-NA-23(N,SCT)11-NA-23,,SIG)                         1143000300003 
STATUS     (DEP)       INTEGRATED ANGULAR DISTRIBUTION            1143000300004 
MONITOR    (6-C-0(N,EL),,SIG)                                     1143000300005 
ENDBIB               3          0                                 1143000300006 
NOCOMMON             0          0                                 1143000300007 
DATA                 3         76                                 1143000300008 
EN         EN-RSL     DATA                                        1143000300009 
MEV        MEV        B                                           1143000300010 
 2.09   -01 2.5    -02 4.36   +00                                 1143000300011 
 2.19   -01 2.5    -02 3.60   +00                                 1143000300012 
 2.32   -01 2.5    -02 5.17   +00                                 1143000300013 
 2.43   -01 2.5    -02 4.77   +00                                 1143000300014 
 2.56   -01 2.5    -02 3.85   +00                                 1143000300015 
 2.67   -01 2.5    -02 2.93   +00                                 1143000300016 
 2.84   -01 2.5    -02 2.33   +00                                 1143000300017 
 2.95   -01 2.5    -02 2.97   +00                                 1143000300018 
 3.06   -01 2.5    -02 3.51   +00                                 1143000300019 
 3.17   -01 2.5    -02 3.33   +00                                 1143000300020 
 3.28   -01 2.5    -02 2.97   +00                                 1143000300021 
 3.56   -01 2.5    -02 3.53   +00                                 1143000300022 
 3.77   -01 2.5    -02 3.62   +00                                 1143000300023 
 3.89   -01 2.5    -02 4.50   +00                                 1143000300024 
 3.90   -01 2.5    -02 4.55   +00                                 1143000300025 
 4.00   -01 2.5    -02 4.35   +00                                 1143000300026 
 4.01   -01 2.5    -02 4.24   +00                                 1143000300027 
 4.09   -01 2.5    -02 3.52   +00                                 1143000300028 
 4.12   -01 2.5    -02 3.53   +00                                 1143000300029 
 4.20   -01 2.5    -02 3.26   +00                                 1143000300030 
 4.23   -01 2.5    -02 3.43   +00                                 1143000300031 
 4.33   -01 2.5    -02 3.27   +00                                 1143000300032 
 4.34   -01 2.5    -02 3.24   +00                                 1143000300033 
 4.44   -01 2.5    -02 4.0    +00                                 1143000300034 
 4.54   -01 2.5    -02 3.46   +00                                 1143000300035 
 4.55   -01 2.5    -02 2.97   +00                                 1143000300036 
 4.75   -01 2.5    -02 2.43   +00                                 1143000300037 
 4.86   -01 2.5    -02 2.31   +00                                 1143000300038 
 4.94   -01 2.5    -02 2.16   +00                                 1143000300039 
 5.01   -01 2.5    -02 2.13   +00                                 1143000300040 
 5.07   -01 2.5    -02 2.04   +00                                 1143000300041 
 5.17   -01 2.5    -02 1.93   +00                                 1143000300042 
 5.19   -01 2.5    -02 1.78   +00                                 1143000300043 
 5.28   -01 2.5    -02 2.05   +00                                 1143000300044 
 5.29   -01 2.5    -02 2.23   +00                                 1143000300045 
 5.34   -01 2.5    -02 2.59   +00                                 1143000300046 
 5.39   -01 2.5    -02 2.98   +00                                 1143000300047 
 5.44   -01 2.5    -02 3.31   +00                                 1143000300048 
 5.54   -01 2.5    -02 3.55   +00                                 1143000300049 
 5.64   -01 2.5    -02 3.68   +00                                 1143000300050 
 5.66   -01 2.5    -02 3.57   +00                                 1143000300051 
 5.77   -01 2.5    -02 3.57   +00                                 1143000300052 
 5.87   -01 2.5    -02 3.92   +00                                 1143000300053 
 5.89   -01 2.5    -02 3.91   +00                                 1143000300054 
 5.92   -01 2.5    -02 4.15   +00                                 1143000300055 
 5.98   -01 2.5    -02 4.61   +00                                 1143000300056 
 6.04   -01 2.5    -02 4.63   +00                                 1143000300057 
 6.05   -01 2.5    -02 4.99   +00                                 1143000300058 
 6.18   -01 2.5    -02 4.06   +00                                 1143000300059 
 6.27   -01 2.5    -02 3.84   +00                                 1143000300060 
 6.38   -01 2.5    -02 4.16   +00                                 1143000300061 
 6.47   -01 2.5    -02 4.16   +00                                 1143000300062 
 6.58   -01 2.5    -02 4.46   +00                                 1143000300063 
 6.68   -01 2.5    -02 4.85   +00                                 1143000300064 
 6.79   -01 2.5    -02 5.81   +00                                 1143000300065 
 6.88   -01 2.5    -02 6.44   +00                                 1143000300066 
 6.98   -01 2.5    -02 6.85   +00                                 1143000300067 
 7.09   -01 2.5    -02 7.90   +00                                 1143000300068 
 7.18   -01 2.5    -02 8.24   +00                                 1143000300069 
 7.22   -01 2.5    -02 7.41   +00                                 1143000300070 
 7.28   -01 2.5    -02 7.03   +00                                 1143000300071 
 7.32   -01 2.5    -02 6.79   +00                                 1143000300072 
 7.37   -01 2.5    -02 6.39   +00                                 1143000300073 
 7.41   -01 2.5    -02 5.97   +00                                 1143000300074 
 7.52   -01 2.5    -02 4.89   +00                                 1143000300075 
 7.57   -01 2.5    -02 4.31   +00                                 1143000300076 
 7.61   -01 2.5    -02 4.37   +00                                 1143000300077 
 7.68   -01 2.5    -02 4.44   +00                                 1143000300078 
 7.72   -01 2.5    -02 5.46   +00                                 1143000300079 
 7.77   -01 2.5    -02 5.81   +00                                 1143000300080 
 7.81   -01 2.5    -02 5.90   +00                                 1143000300081 
 7.88   -01 2.5    -02 5.73   +00                                 1143000300082 
 7.92   -01 2.5    -02 5.84   +00                                 1143000300083 
 8.02   -01 2.5    -02 5.34   +00                                 1143000300084 
 8.12   -01 2.5    -02 4.94   +00                                 1143000300085 
 8.20   -01 2.5    -02 4.90   +00                                 1143000300086 
ENDDATA             78          0                                 1143000300087 
ENDSUBENT           86          0                                 1143000399999 
SUBENT        11430004   19820813                             00001143000400001 
BIB                  3          3                                 1143000400002 
REACTION   (11-NA-23(N,SCT)11-NA-23,,DA)                          1143000400003 
DETECTOR   (LONGC)    LONG COUNTER                                1143000400004 
MONITOR    (6-C-0(N,EL),,SIG)                                     1143000400005 
ENDBIB               3          0                                 1143000400006 
NOCOMMON             0          0                                 1143000400007 
DATA                 3        380                                 1143000400008 
EN         COS-CM     DATA                                        1143000400009 
MEV        NO-DIM     MB/SR                                       1143000400010 
 2.09   -01 0.90620    3.85   +02                                 1143000400011 
 2.09   -01 0.53800    3.61   +02                                 1143000400012 
 2.09   -01-0.0644     3.47   +02                                 1143000400013 
 2.09   -01-0.4242     3.39   +02                                 1143000400014 
 2.09   -01-0.8209     3.13   +02                                 1143000400015 
 2.19   -01 0.90620    2.94   +02                                 1143000400016 
 2.19   -01 0.53800    2.88   +02                                 1143000400017 
 2.19   -01-0.0644     2.92   +02                                 1143000400018 
 2.19   -01-0.4242     2.81   +02                                 1143000400019 
 2.19   -01-0.8209     2.76   +02                                 1143000400020 
 2.32   -01 0.90620    4.97   +02                                 1143000400021 
 2.32   -01 0.53800    4.13   +02                                 1143000400022 
 2.32   -01-0.0644     3.69   +02                                 1143000400023 
 2.32   -01-0.4242     3.68   +02                                 1143000400024 
 2.32   -01-0.8209     4.45   +02                                 1143000400025 
 2.43   -01 0.90620    5.51   +02                                 1143000400026 
 2.43   -01 0.53800    4.58   +02                                 1143000400027 
 2.43   -01-0.0644     3.16   +02                                 1143000400028 
 2.43   -01-0.4242     3.03   +02                                 1143000400029 
 2.43   -01-0.8209     3.25   +02                                 1143000400030 
 2.56   -01 0.90620    4.19   +02                                 1143000400031 
 2.56   -01 0.53800    3.65   +02                                 1143000400032 
 2.56   -01-0.0644     2.66   +02                                 1143000400033 
 2.56   -01-0.4242     2.58   +02                                 1143000400034 
 2.56   -01-0.8209     2.60   +02                                 1143000400035 
 2.67   -01 0.90620    3.22   +02                                 1143000400036 
 2.67   -01 0.53800    2.49   +02                                 1143000400037 
 2.67   -01-0.0644     2.30   +02                                 1143000400038 
 2.67   -01-0.4242     1.95   +02                                 1143000400039 
 2.67   -01-0.8209     1.90   +02                                 1143000400040 
 2.84   -01 0.90620    2.06   +02                                 1143000400041 
 2.84   -01 0.53800    2.17   +02                                 1143000400042 
 2.84   -01-0.0644     1.78   +02                                 1143000400043 
 2.84   -01-0.4242     1.50   +02                                 1143000400044 
 2.84   -01-0.8209     1.66   +02                                 1143000400045 
 2.95   -01 0.90620    2.62   +02                                 1143000400046 
 2.95   -01 0.53800    2.36   +02                                 1143000400047 
 2.95   -01-0.0644     2.23   +02                                 1143000400048 
 2.95   -01-0.4242     2.42   +02                                 1143000400049 
 2.95   -01-0.8209     2.39   +02                                 1143000400050 
 3.06   -01 0.90620    3.09   +02                                 1143000400051 
 3.06   -01 0.53800    2.89   +02                                 1143000400052 
 3.06   -01-0.0644     2.65   +02                                 1143000400053 
 3.06   -01-0.4242     2.90   +02                                 1143000400054 
 3.06   -01-0.8209     2.67   +02                                 1143000400055 
 3.17   -01 0.90620    2.71   +02                                 1143000400056 
 3.17   -01 0.53800    2.53   +02                                 1143000400057 
 3.17   -01-0.0644     2.74   +02                                 1143000400058 
 3.17   -01-0.4242     2.65   +02                                 1143000400059 
 3.17   -01-0.8209     2.62   +02                                 1143000400060 
 3.28   -01 0.90620    2.46   +02                                 1143000400061 
 3.28   -01 0.53800    2.17   +02                                 1143000400062 
 3.28   -01-0.0644     2.46   +02                                 1143000400063 
 3.28   -01-0.4242     2.28   +02                                 1143000400064 
 3.28   -01-0.8209     2.42   +02                                 1143000400065 
 3.56   -01 0.90620    2.48   +02                                 1143000400066 
 3.56   -01 0.53800    2.36   +02                                 1143000400067 
 3.56   -01-0.0644     2.82   +02                                 1143000400068 
 3.56   -01-0.4242     2.94   +02                                 1143000400069 
 3.56   -01-0.8209     3.43   +02                                 1143000400070 
 3.77   -01 0.90620    2.62   +02                                 1143000400071 
 3.77   -01 0.53800    2.78   +02                                 1143000400072 
 3.77   -01-0.0644     2.90   +02                                 1143000400073 
 3.77   -01-0.4242     3.04   +02                                 1143000400074 
 3.77   -01-0.8209     3.03   +02                                 1143000400075 
 3.89   -01 0.90620    3.88   +02                                 1143000400076 
 3.89   -01 0.53800    3.86   +02                                 1143000400077 
 3.89   -01-0.0644     3.49   +02                                 1143000400078 
 3.89   -01-0.4242     3.41   +02                                 1143000400079 
 3.89   -01-0.8209     3.31   +02                                 1143000400080 
 3.90   -01 0.90620    3.97   +02                                 1143000400081 
 3.90   -01 0.53800    4.04   +02                                 1143000400082 
 3.90   -01-0.0644     3.55   +02                                 1143000400083 
 3.90   -01-0.4242     3.42   +02                                 1143000400084 
 3.90   -01-0.8209     3.15   +02                                 1143000400085 
 4.00   -01 0.90620    4.32   +02                                 1143000400086 
 4.00   -01 0.53800    4.18   +02                                 1143000400087 
 4.00   -01-0.0644     3.20   +02                                 1143000400088 
 4.00   -01-0.4242     3.22   +02                                 1143000400089 
 4.00   -01-0.8209     2.67   +02                                 1143000400090 
 4.01   -01 0.90620    4.22   +02                                 1143000400091 
 4.01   -01 0.53800    4.02   +02                                 1143000400092 
 4.01   -01-0.0644     3.28   +02                                 1143000400093 
 4.01   -01-0.4242     3.08   +02                                 1143000400094 
 4.01   -01-0.8209     2.45   +02                                 1143000400095 
 4.09   -01 0.90620    3.28   +02                                 1143000400096 
 4.09   -01 0.53800    3.22   +02                                 1143000400097 
 4.09   -01-0.0644     2.87   +02                                 1143000400098 
 4.09   -01-0.4242     2.64   +02                                 1143000400099 
 4.09   -01-0.8209     2.02   +02                                 1143000400100 
 4.12   -01 0.90620    3.40   +02                                 1143000400101 
 4.12   -01 0.53800    3.06   +02                                 1143000400102 
 4.12   -01-0.0644     2.76   +02                                 1143000400103 
 4.12   -01-0.4242     2.81   +02                                 1143000400104 
 4.12   -01-0.8209     2.27   +02                                 1143000400105 
 4.20   -01 0.90620    2.81   +02                                 1143000400106 
 4.20   -01 0.53800    2.75   +02                                 1143000400107 
 4.20   -01-0.0644     2.58   +02                                 1143000400108 
 4.20   -01-0.4242     2.58   +02                                 1143000400109 
 4.20   -01-0.8209     2.32   +02                                 1143000400110 
 4.23   -01 0.90620    3.04   +02                                 1143000400111 
 4.23   -01 0.53800    2.94   +02                                 1143000400112 
 4.23   -01-0.0644     2.68   +02                                 1143000400113 
 4.23   -01-0.4242     2.67   +02                                 1143000400114 
 4.23   -01-0.8209     2.42   +02                                 1143000400115 
 4.33   -01 0.90620    2.63   +02                                 1143000400116 
 4.33   -01 0.53800    2.64   +02                                 1143000400117 
 4.33   -01-0.0644     2.45   +02                                 1143000400118 
 4.33   -01-0.4242     2.60   +02                                 1143000400119 
 4.33   -01-0.8209     2.77   +02                                 1143000400120 
 4.34   -01 0.90620    2.77   +02                                 1143000400121 
 4.34   -01 0.53800    2.55   +02                                 1143000400122 
 4.34   -01-0.0644     2.47   +02                                 1143000400123 
 4.34   -01-0.4242     2.53   +02                                 1143000400124 
 4.34   -01-0.8209     2.69   +02                                 1143000400125 
 4.44   -01 0.90620    3.91   +02                                 1143000400126 
 4.44   -01 0.53800    3.59   +02                                 1143000400127 
 4.44   -01-0.0644     3.02   +02                                 1143000400128 
 4.44   -01-0.4242     2.99   +02                                 1143000400129 
 4.44   -01-0.8209     2.64   +02                                 1143000400130 
 4.54   -01 0.90620    3.60   +02                                 1143000400131 
 4.54   -01 0.53800    3.11   +02                                 1143000400132 
 4.54   -01-0.0644     2.71   +02                                 1143000400133 
 4.54   -01-0.4242     2.37   +02                                 1143000400134 
 4.54   -01-0.8209     2.12   +02                                 1143000400135 
 4.55   -01 0.90620    2.87   +02                                 1143000400136 
 4.55   -01 0.53800    2.70   +02                                 1143000400137 
 4.55   -01-0.0644     2.31   +02                                 1143000400138 
 4.55   -01-0.4242     2.09   +02                                 1143000400139 
 4.55   -01-0.8209     1.91   +02                                 1143000400140 
 4.75   -01 0.90620    2.13   +02                                 1143000400141 
 4.75   -01 0.53800    2.05   +02                                 1143000400142 
 4.75   -01-0.0644     1.90   +02                                 1143000400143 
 4.75   -01-0.4242     1.84   +02                                 1143000400144 
 4.75   -01-0.8209     1.79   +02                                 1143000400145 
 4.86   -01 0.90620    1.91   +02                                 1143000400146 
 4.86   -01 0.53800    1.94   +02                                 1143000400147 
 4.86   -01-0.0644     1.81   +02                                 1143000400148 
 4.86   -01-0.4242     1.77   +02                                 1143000400149 
 4.86   -01-0.8209     1.76   +02                                 1143000400150 
 4.94   -01 0.90620    1.62   +02                                 1143000400151 
 4.94   -01 0.53800    1.69   +02                                 1143000400152 
 4.94   -01-0.0644     1.74   +02                                 1143000400153 
 4.94   -01-0.4242     1.62   +02                                 1143000400154 
 4.94   -01-0.8209     1.83   +02                                 1143000400155 
 5.01   -01 0.90620    1.62   +02                                 1143000400156 
 5.01   -01 0.53800    1.67   +02                                 1143000400157 
 5.01   -01-0.0644     1.74   +02                                 1143000400158 
 5.01   -01-0.4242     1.70   +02                                 1143000400159 
 5.01   -01-0.8209     1.70   +02                                 1143000400160 
 5.07   -01 0.90620    1.42   +02                                 1143000400161 
 5.07   -01 0.53800    1.55   +02                                 1143000400162 
 5.07   -01-0.0644     1.70   +02                                 1143000400163 
 5.07   -01-0.4242     1.61   +02                                 1143000400164 
 5.07   -01-0.8209     1.72   +02                                 1143000400165 
 5.17   -01 0.90620    1.24   +02                                 1143000400166 
 5.17   -01 0.53800    1.35   +02                                 1143000400167 
 5.17   -01-0.0644     1.57   +02                                 1143000400168 
 5.17   -01-0.4242     1.64   +02                                 1143000400169 
 5.17   -01-0.8209     1.81   +02                                 1143000400170 
 5.19   -01 0.90620    1.07   +02                                 1143000400171 
 5.19   -01 0.53800    1.22   +02                                 1143000400172 
 5.19   -01-0.0644     1.47   +02                                 1143000400173 
 5.19   -01-0.4242     1.55   +02                                 1143000400174 
 5.19   -01-0.8209     1.69   +02                                 1143000400175 
 5.28   -01 0.90620    1.34   +02                                 1143000400176 
 5.28   -01 0.53800    1.44   +02                                 1143000400177 
 5.28   -01-0.0644     1.59   +02                                 1143000400178 
 5.28   -01-0.4242     1.71   +02                                 1143000400179 
 5.28   -01-0.8209     1.97   +02                                 1143000400180 
 5.29   -01 0.90620    1.48   +02                                 1143000400181 
 5.29   -01 0.53800    1.45   +02                                 1143000400182 
 5.29   -01-0.0644     1.79   +02                                 1143000400183 
 5.29   -01-0.4242     2.03   +02                                 1143000400184 
 5.29   -01-0.8209     2.17   +02                                 1143000400185 
 5.34   -01 0.90620    1.68   +02                                 1143000400186 
 5.34   -01 0.53800    1.69   +02                                 1143000400187 
 5.34   -01-0.0644     2.03   +02                                 1143000400188 
 5.34   -01-0.4242     2.28   +02                                 1143000400189 
 5.34   -01-0.8209     2.63   +02                                 1143000400190 
 5.39   -01 0.90620    2.01   +02                                 1143000400191 
 5.39   -01 0.53800    2.02   +02                                 1143000400192 
 5.39   -01-0.0644     2.37   +02                                 1143000400193 
 5.39   -01-0.4242     2.50   +02                                 1143000400194 
 5.39   -01-0.8209     2.91   +02                                 1143000400195 
 5.44   -01 0.90620    2.29   +02                                 1143000400196 
 5.44   -01 0.53800    2.23   +02                                 1143000400197 
 5.44   -01-0.0644     2.69   +02                                 1143000400198 
 5.44   -01-0.4242     2.86   +02                                 1143000400199 
 5.44   -01-0.8209     3.10   +02                                 1143000400200 
 5.54   -01 0.90620    2.61   +02                                 1143000400201 
 5.54   -01 0.53800    2.46   +02                                 1143000400202 
 5.54   -01-0.0644     2.79   +02                                 1143000400203 
 5.54   -01-0.4242     3.01   +02                                 1143000400204 
 5.54   -01-0.8209     3.34   +02                                 1143000400205 
 5.64   -01 0.90620    2.58   +02                                 1143000400206 
 5.64   -01 0.53800    2.57   +02                                 1143000400207 
 5.64   -01-0.0644     2.93   +02                                 1143000400208 
 5.64   -01-0.4242     3.00   +02                                 1143000400209 
 5.64   -01-0.8209     3.49   +02                                 1143000400210 
 5.66   -01 0.90620    2.46   +02                                 1143000400211 
 5.66   -01 0.53800    2.49   +02                                 1143000400212 
 5.66   -01-0.0644     2.81   +02                                 1143000400213 
 5.66   -01-0.4242     3.03   +02                                 1143000400214 
 5.66   -01-0.8209     3.41   +02                                 1143000400215 
 5.77   -01 0.90620    2.53   +02                                 1143000400216 
 5.77   -01 0.53800    2.48   +02                                 1143000400217 
 5.77   -01-0.0644     2.75   +02                                 1143000400218 
 5.77   -01-0.4242     3.00   +02                                 1143000400219 
 5.77   -01-0.8209     3.48   +02                                 1143000400220 
 5.87   -01 0.90620    3.02   +02                                 1143000400221 
 5.87   -01 0.53800    2.77   +02                                 1143000400222 
 5.87   -01-0.0644     2.93   +02                                 1143000400223 
 5.87   -01-0.4242     3.25   +02                                 1143000400224 
 5.87   -01-0.8209     3.80   +02                                 1143000400225 
 5.89   -01 0.90620    3.27   +02                                 1143000400226 
 5.89   -01 0.53800    2.83   +02                                 1143000400227 
 5.89   -01-0.0644     2.82   +02                                 1143000400228 
 5.89   -01-0.4242     3.18   +02                                 1143000400229 
 5.89   -01-0.8209     3.76   +02                                 1143000400230 
 5.92   -01 0.90620    3.54   +02                                 1143000400231 
 5.92   -01 0.53800    3.13   +02                                 1143000400232 
 5.92   -01-0.0644     3.00   +02                                 1143000400233 
 5.92   -01-0.4242     3.24   +02                                 1143000400234 
 5.92   -01-0.8209     3.84   +02                                 1143000400235 
 5.98   -01 0.90620    4.39   +02                                 1143000400236 
 5.98   -01 0.53800    3.66   +02                                 1143000400237 
 5.98   -01-0.0644     3.35   +02                                 1143000400238 
 5.98   -01-0.4242     3.36   +02                                 1143000400239 
 5.98   -01-0.8209     3.90   +02                                 1143000400240 
 6.04   -01 0.90620    4.71   +02                                 1143000400241 
 6.04   -01 0.53800    3.97   +02                                 1143000400242 
 6.04   -01-0.0644     3.18   +02                                 1143000400243 
 6.04   -01-0.4242     3.19   +02                                 1143000400244 
 6.04   -01-0.8209     3.77   +02                                 1143000400245 
 6.05   -01 0.90620    5.17   +02                                 1143000400246 
 6.05   -01 0.53800    4.18   +02                                 1143000400247 
 6.05   -01-0.0644     3.52   +02                                 1143000400248 
 6.05   -01-0.4242     3.45   +02                                 1143000400249 
 6.05   -01-0.8209     3.98   +02                                 1143000400250 
 6.18   -01 0.90620    4.05   +02                                 1143000400251 
 6.18   -01 0.53800    3.24   +02                                 1143000400252 
 6.18   -01-0.0644     2.84   +02                                 1143000400253 
 6.18   -01-0.4242     2.99   +02                                 1143000400254 
 6.18   -01-0.8209     3.46   +02                                 1143000400255 
 6.27   -01 0.90620    3.66   +02                                 1143000400256 
 6.27   -01 0.53800    3.03   +02                                 1143000400257 
 6.27   -01-0.0644     2.55   +02                                 1143000400258 
 6.27   -01-0.4242     2.84   +02                                 1143000400259 
 6.27   -01-0.8209     3.60   +02                                 1143000400260 
 6.38   -01 0.90620    3.78   +02                                 1143000400261 
 6.38   -01 0.53800    3.15   +02                                 1143000400262 
 6.38   -01-0.0644     2.81   +02                                 1143000400263 
 6.38   -01-0.4242     3.02   +02                                 1143000400264 
 6.38   -01-0.8209     4.10   +02                                 1143000400265 
 6.47   -01 0.90620    4.13   +02                                 1143000400266 
 6.47   -01 0.53800    3.15   +02                                 1143000400267 
 6.47   -01-0.0644     2.81   +02                                 1143000400268 
 6.47   -01-0.4242     3.09   +02                                 1143000400269 
 6.47   -01-0.8209     3.88   +02                                 1143000400270 
 6.58   -01 0.90620    4.52   +02                                 1143000400271 
 6.58   -01 0.53800    3.52   +02                                 1143000400272 
 6.58   -01-0.0644     2.81   +02                                 1143000400273 
 6.58   -01-0.4242     3.11   +02                                 1143000400274 
 6.58   -01-0.8209     4.34   +02                                 1143000400275 
 6.68   -01 0.90620    5.59   +02                                 1143000400276 
 6.68   -01 0.53800    3.73   +02                                 1143000400277 
 6.68   -01-0.0644     2.84   +02                                 1143000400278 
 6.68   -01-0.4242     3.43   +02                                 1143000400279 
 6.68   -01-0.8209     4.76   +02                                 1143000400280 
 6.79   -01 0.90620    7.26   +02                                 1143000400281 
 6.79   -01 0.53800    4.83   +02                                 1143000400282 
 6.79   -01-0.0644     3.31   +02                                 1143000400283 
 6.79   -01-0.4242     3.35   +02                                 1143000400284 
 6.79   -01-0.8209     5.50   +02                                 1143000400285 
 6.88   -01 0.90620    8.88   +02                                 1143000400286 
 6.88   -01 0.53800    5.60   +02                                 1143000400287 
 6.88   -01-0.0644     3.42   +02                                 1143000400288 
 6.88   -01-0.4242     3.61   +02                                 1143000400289 
 6.88   -01-0.8209     5.74   +02                                 1143000400290 
 6.98   -01 0.90620    1.027  +03                                 1143000400291 
 6.98   -01 0.53800    6.25   +02                                 1143000400292 
 6.98   -01-0.0644     3.34   +02                                 1143000400293 
 6.98   -01-0.4242     3.68   +02                                 1143000400294 
 6.98   -01-0.8209     5.84   +02                                 1143000400295 
 7.09   -01 0.90620    1.275  +03                                 1143000400296 
 7.09   -01 0.53800    7.71   +02                                 1143000400297 
 7.09   -01-0.0644     3.70   +02                                 1143000400298 
 7.09   -01-0.4242     3.81   +02                                 1143000400299 
 7.09   -01-0.8209     6.08   +02                                 1143000400300 
 7.18   -01 0.90620    1.419  +03                                 1143000400301 
 7.18   -01 0.53800    8.70   +02                                 1143000400302 
 7.18   -01-0.0644     3.73   +02                                 1143000400303 
 7.18   -01-0.4242     3.42   +02                                 1143000400304 
 7.18   -01-0.8209     5.55   +02                                 1143000400305 
 7.22   -01 0.90620    1.313  +03                                 1143000400306 
 7.22   -01 0.53800    8.08   +02                                 1143000400307 
 7.22   -01-0.0644     3.37   +02                                 1143000400308 
 7.22   -01-0.4242     3.06   +02                                 1143000400309 
 7.22   -01-0.8209     4.47   +02                                 1143000400310 
 7.28   -01 0.90620    1.259  +03                                 1143000400311 
 7.28   -01 0.53800    7.65   +02                                 1143000400312 
 7.28   -01-0.0644     3.35   +02                                 1143000400313 
 7.28   -01-0.4242     2.76   +02                                 1143000400314 
 7.28   -01-0.8209     4.03   +02                                 1143000400315 
 7.32   -01 0.90620    1.204  +03                                 1143000400316 
 7.32   -01 0.53800    7.59   +02                                 1143000400317 
 7.32   -01-0.0644     3.30   +02                                 1143000400318 
 7.32   -01-0.4242     2.69   +02                                 1143000400319 
 7.32   -01-0.8209     3.63   +02                                 1143000400320 
 7.37   -01 0.90620    1.149  +03                                 1143000400321 
 7.37   -01 0.53800    7.13   +02                                 1143000400322 
 7.37   -01-0.0644     3.22   +02                                 1143000400323 
 7.37   -01-0.4242     2.50   +02                                 1143000400324 
 7.37   -01-0.8209     3.19   +02                                 1143000400325 
 7.41   -01 0.90620    1.034  +03                                 1143000400326 
 7.41   -01 0.53800    6.72   +02                                 1143000400327 
 7.41   -01-0.0644     3.26   +02                                 1143000400328 
 7.41   -01-0.4242     2.40   +02                                 1143000400329 
 7.41   -01-0.8209     2.72   +02                                 1143000400330 
 7.52   -01 0.90620    7.81   +02                                 1143000400331 
 7.52   -01 0.53800    5.52   +02                                 1143000400332 
 7.52   -01-0.0644     2.98   +02                                 1143000400333 
 7.52   -01-0.4242     2.34   +02                                 1143000400334 
 7.52   -01-0.8209     1.94   +02                                 1143000400335 
 7.57   -01 0.90620    6.57   +02                                 1143000400336 
 7.57   -01 0.53800    4.72   +02                                 1143000400337 
 7.57   -01-0.0644     2.90   +02                                 1143000400338 
 7.57   -01-0.4242     2.21   +02                                 1143000400339 
 7.57   -01-0.8209     1.59   +02                                 1143000400340 
 7.61   -01 0.90620    6.49   +02                                 1143000400341 
 7.61   -01 0.53800    4.67   +02                                 1143000400342 
 7.61   -01-0.0644     2.96   +02                                 1143000400343 
 7.61   -01-0.4242     2.56   +02                                 1143000400344 
 7.61   -01-0.8209     1.63   +02                                 1143000400345 
 7.68   -01 0.90620    6.17   +02                                 1143000400346 
 7.68   -01 0.53800    4.58   +02                                 1143000400347 
 7.68   -01-0.0644     3.09   +02                                 1143000400348 
 7.68   -01-0.4242     2.70   +02                                 1143000400349 
 7.68   -01-0.8209     1.92   +02                                 1143000400350 
 7.72   -01 0.90620    8.35   +02                                 1143000400351 
 7.72   -01 0.53800    5.49   +02                                 1143000400352 
 7.72   -01-0.0644     3.35   +02                                 1143000400353 
 7.72   -01-0.4242     3.26   +02                                 1143000400354 
 7.72   -01-0.8209     2.81   +02                                 1143000400355 
 7.77   -01 0.90620    9.20   +02                                 1143000400356 
 7.77   -01 0.53800    5.58   +02                                 1143000400357 
 7.77   -01-0.0644     3.63   +02                                 1143000400358 
 7.77   -01-0.4242     3.56   +02                                 1143000400359 
 7.77   -01-0.8209     2.97   +02                                 1143000400360 
 7.81   -01 0.90620    9.35   +02                                 1143000400361 
 7.81   -01 0.53800    6.27   +02                                 1143000400362 
 7.81   -01-0.0644     3.28   +02                                 1143000400363 
 7.81   -01-0.4242     3.45   +02                                 1143000400364 
 7.81   -01-0.8209     3.00   +02                                 1143000400365 
 7.88   -01 0.90620    9.61   +02                                 1143000400366 
 7.88   -01 0.53800    5.76   +02                                 1143000400367 
 7.88   -01-0.0644     3.32   +02                                 1143000400368 
 7.88   -01-0.4242     3.06   +02                                 1143000400369 
 7.88   -01-0.8209     2.93   +02                                 1143000400370 
 7.92   -01 0.90620    9.85   +02                                 1143000400371 
 7.92   -01 0.53800    6.46   +02                                 1143000400372 
 7.92   -01-0.0644     3.11   +02                                 1143000400373 
 7.92   -01-0.4242     2.76   +02                                 1143000400374 
 7.92   -01-0.8209     2.85   +02                                 1143000400375 
 8.02   -01 0.90620    9.31   +02                                 1143000400376 
 8.02   -01 0.53800    5.88   +02                                 1143000400377 
 8.02   -01-0.0644     2.86   +02                                 1143000400378 
 8.02   -01-0.4242     2.41   +02                                 1143000400379 
 8.02   -01-0.8209     2.51   +02                                 1143000400380 
 8.12   -01 0.90620    8.47   +02                                 1143000400381 
 8.12   -01 0.53800    5.44   +02                                 1143000400382 
 8.12   -01-0.0644     2.79   +02                                 1143000400383 
 8.12   -01-0.4242     2.19   +02                                 1143000400384 
 8.12   -01-0.8209     2.22   +02                                 1143000400385 
 8.20   -01 0.90620    8.47   +02                                 1143000400386 
 8.20   -01 0.53800    5.36   +02                                 1143000400387 
 8.20   -01-0.0644     2.83   +02                                 1143000400388 
 8.20   -01-0.4242     2.02   +02                                 1143000400389 
 8.20   -01-0.8209     2.18   +02                                 1143000400390 
ENDDATA            382          0                                 1143000400391 
ENDSUBENT          390          0                                 1143000499999 
ENDENTRY             4          0                                 1143099999999 
