ENTRY            11609   19830815                             00001160900000001 
SUBENT        11609001   19830815                             00001160900100001 
BIB                  6          7                                 1160900100002 
INSTITUTE  (1USARIC)                                              1160900100003 
REFERENCE  (J,NP,28,478,6111)                                     1160900100004 
AUTHOR     (R.BASS,H.P.HAENNI,T.W.BONNER,F.GABBARD)               1160900100005 
TITLE      DISINTEGRATION OF K39 BY FAST NEUTRONS.                1160900100006 
STATUS     (SCSRS)                                                1160900100007 
HISTORY    (760718T) TRANSLATED FROM SCISRS                       1160900100008 
           (830815A) CONVERTED TO REACTION FORMALISM              1160900100009 
ENDBIB               7          0                                 1160900100010 
NOCOMMON             0          0                                 1160900100011 
ENDSUBENT           10          0                                 1160900199999 
SUBENT        11609002   19830815                             00001160900200001 
BIB                  4          5                                 1160900200002 
REACTION   (19-K-39(N,A)17-CL-36,PAR,SIG)                         1160900200003 
N-SOURCE   (P-T) T(P,N) SOURCE                                    1160900200004 
DETECTOR   (SCIN)     SCINTILLATING CRYSTAL                       1160900200005 
CORRECTION PUBLISHED VALUES INCREASED 25 PERCENT DUE TO FLUX      1160900200006 
            MEASUREMENT ERROR - BASS,PRIV.COMM.(1964).            1160900200007 
ENDBIB               5          0                                 1160900200008 
COMMON               1          3                                 1160900200009 
E-LVL                                                             1160900200010 
MEV                                                               1160900200011 
    0.                                                            1160900200012 
ENDCOMMON            3          0                                 1160900200013 
DATA                 4         30                                 1160900200014 
EN         EN-RSL     DATA       DATA-ERR                         1160900200015 
MEV        MEV        B          PER-CENT                         1160900200016 
 2.30   +00 7.     -02 4.125  -03   25.                           1160900200017 
 2.35   +00 7.     -02 5.000  -03   25.                           1160900200018 
 2.40   +00 7.     -02 5.625  -03   25.                           1160900200019 
 2.45   +00 7.     -02 6.000  -03   25.                           1160900200020 
 2.50   +00 7.     -02 6.625  -03   25.                           1160900200021 
 2.55   +00 7.     -02 8.250  -03   25.                           1160900200022 
 2.60   +00 7.     -02 9.250  -03   25.                           1160900200023 
 2.65   +00 7.     -02 1.063  -02                                 1160900200024 
 2.70   +00 7.     -02 1.238  -02                                 1160900200025 
 2.75   +00 7.     -02 1.413  -02                                 1160900200026 
 2.80   +00 7.     -02 1.700  -02                                 1160900200027 
 2.85   +00 7.     -02 2.113  -02                                 1160900200028 
 2.90   +00 7.     -02 2.325  -02                                 1160900200029 
 2.95   +00 7.     -02 2.125  -02                                 1160900200030 
 3.01   +00 7.     -02 2.275  -02                                 1160900200031 
 3.06   +00 7.     -02 2.125  -02                                 1160900200032 
 3.11   +00 7.     -02 3.000  -02                                 1160900200033 
 3.17   +00 7.     -02 3.125  -02                                 1160900200034 
 3.22   +00 7.     -02 3.875  -02                                 1160900200035 
 3.27   +00 7.     -02 3.250  -02                                 1160900200036 
 3.33   +00 7.     -02 4.250  -02                                 1160900200037 
 3.38   +00 7.     -02 5.000  -02                                 1160900200038 
 3.44   +00 7.     -02 4.500  -02                                 1160900200039 
 3.49   +00 7.     -02 4.500  -02                                 1160900200040 
 3.55   +00 7.     -02 5.000  -02                                 1160900200041 
 3.60   +00 7.     -02 5.875  -02                                 1160900200042 
 3.66   +00 7.     -02 7.125  -02                                 1160900200043 
 3.72   +00 7.     -02 7.000  -02                                 1160900200044 
 3.77   +00 7.     -02 6.000  -02                                 1160900200045 
 3.83   +00 7.     -02 5.750  -02                                 1160900200046 
ENDDATA             32          0                                 1160900200047 
ENDSUBENT           46          0                                 1160900299999 
SUBENT        11609003   19830815                             00001160900300001 
BIB                  3          4                                 1160900300002 
REACTION   (19-K-39(N,P)18-AR-39,PAR,SIG)                         1160900300003 
DETECTOR   (SCIN)     SCINTILLATING CRYSTAL                       1160900300004 
CORRECTION PUBLISHED VALUES INCREASED 25 PERCENT DUE TO FLUX      1160900300005 
            MEASUREMENT ERROR - BASS,PRIV.COMM.(1964).            1160900300006 
ENDBIB               4          0                                 1160900300007 
COMMON               1          3                                 1160900300008 
E-LVL                                                             1160900300009 
MEV                                                               1160900300010 
    0.                                                            1160900300011 
ENDCOMMON            3          0                                 1160900300012 
DATA                 4        406                                 1160900300013 
EN         EN-RSL     DATA       DATA-ERR                         1160900300014 
MEV        MEV        B          PER-CENT                         1160900300015 
 1.458  +00 1.0    -02 1.925  -02                                 1160900300016 
 1.465  +00 1.0    -02 1.875  -02                                 1160900300017 
 1.471  +00 1.0    -02 1.675  -02                                 1160900300018 
 1.476  +00 1.0    -02 2.800  -02                                 1160900300019 
 1.482  +00 1.0    -02 2.900  -02                                 1160900300020 
 1.488  +00 1.0    -02 2.475  -02                                 1160900300021 
 1.493  +00 1.0    -02 2.075  -02                                 1160900300022 
 1.500  +00 1.0    -02 1.963  -02                                 1160900300023 
 1.506  +00 1.0    -02 1.638  -02                                 1160900300024 
 1.513  +00 1.0    -02 1.700  -02                                 1160900300025 
 1.519  +00 1.0    -02 2.250  -02                                 1160900300026 
 1.526  +00 1.0    -02 2.025  -02                                 1160900300027 
 1.530  +00 1.0    -02 1.963  -02                                 1160900300028 
 1.535  +00 1.0    -02 1.650  -02                                 1160900300029 
 1.542  +00 1.0    -02 2.013  -02                                 1160900300030 
 1.547  +00 1.0    -02 2.313  -02                                 1160900300031 
 1.553  +00 1.0    -02 1.963  -02                                 1160900300032 
 1.558  +00 1.0    -02 2.325  -02                                 1160900300033 
 1.565  +00 1.0    -02 2.538  -02                                 1160900300034 
 1.569  +00 1.0    -02 2.625  -02                                 1160900300035 
 1.577  +00 1.0    -02 2.463  -02                                 1160900300036 
 1.583  +00 1.0    -02 3.150  -02                                 1160900300037 
 1.587  +00 1.0    -02 3.888  -02                                 1160900300038 
 1.594  +00 1.0    -02 3.850  -02                                 1160900300039 
 1.602  +00 1.0    -02 2.838  -02                                 1160900300040 
 1.607  +00 1.0    -02 2.550  -02                                 1160900300041 
 1.613  +00 1.0    -02 2.350  -02                                 1160900300042 
 1.619  +00 1.0    -02 2.325  -02   20.                           1160900300043 
 1.626  +00 1.0    -02 2.45   -02   20.                           1160900300044 
 1.631  +00 1.0    -02 4.550  -02                                 1160900300045 
 1.638  +00 1.0    -02 6.063  -02                                 1160900300046 
 1.645  +00 1.0    -02 5.013  -02                                 1160900300047 
 1.649  +00 1.0    -02 3.988  -02                                 1160900300048 
 1.654  +00 1.0    -02 3.100  -02                                 1160900300049 
 1.660  +00 1.0    -02 3.225  -02                                 1160900300050 
 1.665  +00 1.0    -02 3.300  -02                                 1160900300051 
 1.671  +00 1.0    -02 3.750  -02                                 1160900300052 
 1.676  +00 1.0    -02 3.625  -02                                 1160900300053 
 1.678  +00 1.0    -02 3.425  -02                                 1160900300054 
 1.684  +00 1.0    -02 4.250  -02                                 1160900300055 
 1.687  +00 1.0    -02 4.075  -02                                 1160900300056 
 1.697  +00 1.0    -02 3.275  -02                                 1160900300057 
 1.702  +00 1.0    -02 3.788  -02                                 1160900300058 
 1.708  +00 1.0    -02 4.100  -02                                 1160900300059 
 1.709  +00 1.0    -02 3.875  -02                                 1160900300060 
 1.716  +00 1.0    -02 2.788  -02                                 1160900300061 
 1.716  +00 1.0    -02 3.400  -02                                 1160900300062 
 1.721  +00 1.0    -02 2.963  -02                                 1160900300063 
 1.724  +00 1.0    -02 2.550  -02                                 1160900300064 
 1.728  +00 1.0    -02 3.013  -02                                 1160900300065 
 1.734  +00 1.0    -02 2.60   -02   20.                           1160900300066 
 1.739  +00 1.0    -02 2.963  -02                                 1160900300067 
 1.743  +00 1.0    -02 3.613  -02                                 1160900300068 
 1.746  +00 1.0    -02 4.163  -02                                 1160900300069 
 1.748  +00 1.0    -02 3.900  -02                                 1160900300070 
 1.752  +00 1.0    -02 4.163  -02                                 1160900300071 
 1.757  +00 1.0    -02 4.850  -02                                 1160900300072 
 1.762  +00 1.0    -02 4.813  -02                                 1160900300073 
 1.771  +00 1.0    -02 4.138  -02                                 1160900300074 
 1.772  +00 1.0    -02 3.588  -02                                 1160900300075 
 1.782  +00 1.0    -02 4.200  -02                                 1160900300076 
 1.787  +00 1.0    -02 4.125  -02                                 1160900300077 
 1.794  +00 1.0    -02 3.950  -02                                 1160900300078 
 1.798  +00 1.0    -02 3.950  -02                                 1160900300079 
 1.801  +00 1.0    -02 4.350  -02                                 1160900300080 
 1.807  +00 1.0    -02 3.063  -02                                 1160900300081 
 1.813  +00 1.0    -02 3.200  -02                                 1160900300082 
 1.819  +00 1.0    -02 3.500  -02                                 1160900300083 
 1.825  +00 1.0    -02 2.888  -02                                 1160900300084 
 1.832  +00 1.0    -02 3.000  -02                                 1160900300085 
 1.835  +00 1.0    -02 3.450  -02                                 1160900300086 
 1.838  +00 1.0    -02 5.225  -02                                 1160900300087 
 1.841  +00 1.0    -02 5.938  -02                                 1160900300088 
 1.842  +00 1.0    -02 5.750  -02                                 1160900300089 
 1.845  +00 1.0    -02 5.763  -02                                 1160900300090 
 1.848  +00 1.0    -02 5.500  -02                                 1160900300091 
 1.851  +00 1.0    -02 6.613  -02                                 1160900300092 
 1.854  +00 1.0    -02 6.550  -02                                 1160900300093 
 1.855  +00 1.0    -02 7.063  -02                                 1160900300094 
 1.858  +00 1.0    -02 5.825  -02                                 1160900300095 
 1.859  +00 1.0    -02 5.750  -02                                 1160900300096 
 1.867  +00 1.0    -02 5.263  -02                                 1160900300097 
 1.868  +00 1.0    -02 5.200  -02                                 1160900300098 
 1.871  +00 1.0    -02 5.363  -02                                 1160900300099 
 1.874  +00 1.0    -02 5.550  -02                                 1160900300100 
 1.878  +00 1.0    -02 4.738  -02                                 1160900300101 
 1.880  +00 1.0    -02 4.975  -02                                 1160900300102 
 1.881  +00 1.0    -02 5.138  -02                                 1160900300103 
 1.884  +00 1.0    -02 6.175  -02                                 1160900300104 
 1.888  +00 1.0    -02 6.288  -02                                 1160900300105 
 1.892  +00 1.0    -02 7.450  -02                                 1160900300106 
 1.894  +00 1.0    -02 6.175  -02                                 1160900300107 
 1.900  +00 1.0    -02 4.925  -02                                 1160900300108 
 1.906  +00 1.0    -02 5.763  -02                                 1160900300109 
 1.912  +00 1.0    -02 7.350  -02                                 1160900300110 
 1.917  +00 1.0    -02 6.500  -02                                 1160900300111 
 1.923  +00 1.0    -02 5.550  -02                                 1160900300112 
 1.930  +00 1.0    -02 4.213  -02                                 1160900300113 
 1.937  +00 1.0    -02 4.625  -02                                 1160900300114 
 1.943  +00 1.0    -02 5.038  -02                                 1160900300115 
 1.950  +00 1.0    -02 6.125  -02                                 1160900300116 
 1.956  +00 1.0    -02 7.725  -02                                 1160900300117 
 1.959  +00 1.0    -02 8.575  -02                                 1160900300118 
 1.962  +00 1.0    -02 9.000  -02                                 1160900300119 
 1.966  +00 1.0    -02 8.913  -02                                 1160900300120 
 1.969  +00 1.0    -02 8.713  -02                                 1160900300121 
 1.975  +00 1.0    -02 7.425  -02                                 1160900300122 
 1.980  +00 1.0    -02 7.113  -02                                 1160900300123 
 1.981  +00 1.0    -02 6.950  -02                                 1160900300124 
 1.987  +00 1.0    -02 7.038  -02                                 1160900300125 
 1.993  +00 1.0    -02 7.263  -02                                 1160900300126 
 1.999  +00 1.0    -02 5.700  -02                                 1160900300127 
 2.006  +00 1.0    -02 5.138  -02   25.                           1160900300128 
 2.011  +00 1.0    -02 4.263  -02   25.                           1160900300129 
 2.018  +00 1.0    -02 5.238  -02   25.                           1160900300130 
 2.020  +00 1.0    -02 5.063  -02   25.                           1160900300131 
 2.024  +00 1.0    -02 5.950  -02   25.                           1160900300132 
 2.025  +00 1.0    -02 5.438  -02   25.                           1160900300133 
 2.030  +00 1.0    -02 6.263  -02   25.                           1160900300134 
 2.034  +00 1.0    -02 6.438  -02   25.                           1160900300135 
 2.037  +00 1.0    -02 6.813  -02   25.                           1160900300136 
 2.041  +00 1.0    -02 5.938  -02   25.                           1160900300137 
 2.043  +00 1.0    -02 5.375  -02   25.                           1160900300138 
 2.050  +00 1.0    -02 4.600  -02   25.                           1160900300139 
 2.057  +00 1.0    -02 4.975  -02   25.                           1160900300140 
 2.063  +00 1.0    -02 5.813  -02   25.                           1160900300141 
 2.069  +00 1.0    -02 5.213  -02   25.                           1160900300142 
 2.075  +00 1.0    -02 5.388  -02   25.                           1160900300143 
 2.081  +00 1.0    -02 5.775  -02   25.                           1160900300144 
 2.087  +00 1.0    -02 6.388  -02   25.                           1160900300145 
 2.094  +00 1.0    -02 6.488  -02   25.                           1160900300146 
 2.100  +00 1.0    -02 6.800  -02   25.                           1160900300147 
 2.106  +00 1.0    -02 6.563  -02   25.                           1160900300148 
 2.112  +00 1.0    -02 5.550  -02   25.                           1160900300149 
 2.114  +00 1.0    -02 5.563  -02   25.                           1160900300150 
 2.121  +00 1.0    -02 5.438  -02   25.                           1160900300151 
 2.126  +00 1.0    -02 6.725  -02   25.                           1160900300152 
 2.126  +00 1.0    -02 5.888  -02   25.                           1160900300153 
 2.139  +00 1.0    -02 6.663  -02   25.                           1160900300154 
 2.145  +00 1.0    -02 6.300  -02   25.                           1160900300155 
 2.151  +00 1.0    -02 6.113  -02   25.                           1160900300156 
 2.160  +00 1.0    -02 7.263  -02   25.                           1160900300157 
 2.165  +00 1.0    -02 8.913  -02   25.                           1160900300158 
 2.166  +00 1.0    -02 8.788  -02   25.                           1160900300159 
 2.171  +00 1.0    -02 8.663  -02   25.                           1160900300160 
 2.174  +00 1.0    -02 8.263  -02   25.                           1160900300161 
 2.177  +00 1.0    -02 7.763  -02   25.                           1160900300162 
 2.187  +00 1.0    -02 7.800  -02   25.                           1160900300163 
 2.190  +00 1.0    -02 7.750  -02   25.                           1160900300164 
 2.193  +00 1.0    -02 6.800  -02   25.                           1160900300165 
 2.196  +00 1.0    -02 7.188  -02   25.                           1160900300166 
 2.198  +00 1.0    -02 7.388  -02   25.                           1160900300167 
 2.200  +00 1.0    -02 7.475  -02   25.                           1160900300168 
 2.203  +00 1.0    -02 6.763  -02   25.                           1160900300169 
 2.210  +00 1.0    -02 5.275  -02   25.                           1160900300170 
 2.223  +00 1.0    -02 5.213  -02   25.                           1160900300171 
 2.229  +00 1.0    -02 6.850  -02   25.                           1160900300172 
 2.230  +00 1.0    -02 6.838  -02   25.                           1160900300173 
 2.236  +00 1.0    -02 8.250  -02   25.                           1160900300174 
 2.238  +00 1.0    -02 8.600  -02   25.                           1160900300175 
 2.242  +00 1.0    -02 1.015  -01   25.                           1160900300176 
 2.245  +00 1.0    -02 1.090  -01   25.                           1160900300177 
 2.249  +00 1.0    -02 1.069  -01   25.                           1160900300178 
 2.255  +00 1.0    -02 1.175  -01   25.                           1160900300179 
 2.268  +00 1.0    -02 9.763  -02   25.                           1160900300180 
 2.273  +00 1.0    -02 9.363  -02   25.                           1160900300181 
 2.280  +00 1.0    -02 8.588  -02   25.                           1160900300182 
 2.286  +00 1.0    -02 8.213  -02   25.                           1160900300183 
 2.294  +00 1.0    -02 8.500  -02   25.                           1160900300184 
 2.296  +00 1.0    -02 9.325  -02   25.                           1160900300185 
 2.30   +00 7.     -02 8.13   -02   20.                           1160900300186 
 2.307  +00 1.0    -02 6.925  -02   25.                           1160900300187 
 2.312  +00 1.0    -02 6.600  -02   25.                           1160900300188 
 2.319  +00 1.0    -02 6.038  -02   25.                           1160900300189 
 2.325  +00 1.0    -02 5.913  -02   25.                           1160900300190 
 2.327  +00 1.0    -02 6.075  -02   25.                           1160900300191 
 2.333  +00 1.0    -02 7.900  -02   25.                           1160900300192 
 2.339  +00 1.0    -02 1.188  -01   25.                           1160900300193 
 2.346  +00 1.0    -02 2.190  -01   25.                           1160900300194 
 2.349  +00 1.0    -02 2.100  -01   25.                           1160900300195 
 2.35   +00 7.     -02 1.375  -01   20.                           1160900300196 
 2.353  +00 1.0    -02 1.775  -01   25.                           1160900300197 
 2.360  +00 1.0    -02 1.314  -01   25.                           1160900300198 
 2.367  +00 1.0    -02 1.228  -01   25.                           1160900300199 
 2.373  +00 1.0    -02 1.240  -01   25.                           1160900300200 
 2.380  +00 1.0    -02 1.340  -01   25.                           1160900300201 
 2.386  +00 1.0    -02 1.279  -01   25.                           1160900300202 
 2.393  +00 1.0    -02 9.413  -02   25.                           1160900300203 
 2.40   +00 7.     -02 1.150  -01   20.                           1160900300204 
 2.401  +00 1.0    -02 1.036  -01   25.                           1160900300205 
 2.406  +00 1.0    -02 1.034  -01   25.                           1160900300206 
 2.411  +00 1.0    -02 8.313  -02   25.                           1160900300207 
 2.418  +00 1.0    -02 8.200  -02   25.                           1160900300208 
 2.426  +00 1.0    -02 7.688  -02   25.                           1160900300209 
 2.432  +00 1.0    -02 8.388  -02   25.                           1160900300210 
 2.439  +00 1.0    -02 9.125  -02   25.                           1160900300211 
 2.445  +00 1.0    -02 9.063  -02   25.                           1160900300212 
 2.446  +00 1.0    -02 9.063  -02   25.                           1160900300213 
 2.450  +00 1.0    -02 9.838  -02   25.                           1160900300214 
 2.45   +00 7.     -02 9.38   -02   20.                           1160900300215 
 2.452  +00 1.0    -02 1.040  -01   25.                           1160900300216 
 2.456  +00 1.0    -02 1.094  -01   25.                           1160900300217 
 2.459  +00 1.0    -02 9.413  -02   25.                           1160900300218 
 2.459  +00 1.0    -02 1.015  -01   25.                           1160900300219 
 2.466  +00 1.0    -02 9.875  -02   25.                           1160900300220 
 2.467  +00 1.0    -02 9.813  -02   25.                           1160900300221 
 2.471  +00 1.0    -02 9.488  -02   25.                           1160900300222 
 2.476  +00 1.0    -02 8.063  -02   25.                           1160900300223 
 2.478  +00 1.0    -02 8.025  -02   25.                           1160900300224 
 2.482  +00 1.0    -02 8.025  -02   25.                           1160900300225 
 2.485  +00 1.0    -02 8.038  -02   25.                           1160900300226 
 2.486  +00 1.0    -02 8.825  -02   25.                           1160900300227 
 2.486  +00 1.0    -02 8.550  -02   25.                           1160900300228 
 2.489  +00 1.0    -02 9.825  -02   25.                           1160900300229 
 2.491  +00 1.0    -02 1.135  -01   25.                           1160900300230 
 2.493  +00 1.0    -02 1.149  -01   25.                           1160900300231 
 2.495  +00 1.0    -02 9.988  -02   25.                           1160900300232 
 2.496  +00 1.0    -02 1.071  -01   25.                           1160900300233 
 2.499  +00 1.0    -02 1.005  -01   25.                           1160900300234 
 2.499  +00 1.0    -02 1.065  -01   25.                           1160900300235 
 2.50   +00 7.     -02 9.63   -02   20.                           1160900300236 
 2.506  +00 1.0    -02 9.438  -02   25.                           1160900300237 
 2.509  +00 1.0    -02 9.900  -02   25.                           1160900300238 
 2.513  +00 1.0    -02 1.045  -01   25.                           1160900300239 
 2.513  +00 1.0    -02 1.093  -01   25.                           1160900300240 
 2.517  +00 1.0    -02 1.008  -01   25.                           1160900300241 
 2.519  +00 1.0    -02 9.850  -02   25.                           1160900300242 
 2.526  +00 1.0    -02 9.950  -02   25.                           1160900300243 
 2.526  +00 1.0    -02 1.026  -01   25.                           1160900300244 
 2.533  +00 1.0    -02 9.438  -02   25.                           1160900300245 
 2.534  +00 1.0    -02 9.250  -02   25.                           1160900300246 
 2.539  +00 1.0    -02 8.700  -02   25.                           1160900300247 
 2.547  +00 1.0    -02 8.113  -02   25.                           1160900300248 
 2.548  +00 1.0    -02 8.613  -02   25.                           1160900300249 
 2.55   +00 7.     -02 8.75   -02   20.                           1160900300250 
 2.553  +00 1.0    -02 6.988  -02   25.                           1160900300251 
 2.553  +00 1.0    -02 7.488  -02   25.                           1160900300252 
 2.561  +00 1.0    -02 7.800  -02   25.                           1160900300253 
 2.567  +00 1.0    -02 9.375  -02   25.                           1160900300254 
 2.568  +00 1.0    -02 8.988  -02   25.                           1160900300255 
 2.574  +00 1.0    -02 8.888  -02   25.                           1160900300256 
 2.581  +00 1.0    -02 8.700  -02   25.                           1160900300257 
 2.587  +00 1.0    -02 8.525  -02   25.                           1160900300258 
 2.595  +00 1.0    -02 8.850  -02   25.                           1160900300259 
 2.60   +00 7.     -02 8.25   -02   20.                           1160900300260 
 2.603  +00 1.0    -02 7.938  -02   25.                           1160900300261 
 2.612  +00 1.0    -02 8.075  -02   25.                           1160900300262 
 2.622  +00 1.0    -02 8.075  -02   25.                           1160900300263 
 2.624  +00 1.0    -02 7.750  -02   25.                           1160900300264 
 2.630  +00 1.0    -02 9.963  -02   25.                           1160900300265 
 2.631  +00 1.0    -02 1.069  -01   25.                           1160900300266 
 2.636  +00 1.0    -02 1.046  -01   25.                           1160900300267 
 2.637  +00 1.0    -02 1.044  -01   25.                           1160900300268 
 2.640  +00 1.0    -02 1.015  -01   25.                           1160900300269 
 2.643  +00 1.0    -02 1.174  -01   25.                           1160900300270 
 2.647  +00 1.0    -02 1.236  -01   25.                           1160900300271 
 2.65   +00 7.     -02 1.175  -01   20.                           1160900300272 
 2.650  +00 1.0    -02 1.233  -01   25.                           1160900300273 
 2.658  +00 1.0    -02 1.224  -01   25.                           1160900300274 
 2.658  +00 1.0    -02 1.240  -01   25.                           1160900300275 
 2.665  +00 1.0    -02 1.296  -01   25.                           1160900300276 
 2.668  +00 1.0    -02 1.355  -01   25.                           1160900300277 
 2.673  +00 1.0    -02 1.366  -01   25.                           1160900300278 
 2.679  +00 1.0    -02 1.278  -01   25.                           1160900300279 
 2.685  +00 1.0    -02 1.231  -01   25.                           1160900300280 
 2.686  +00 1.0    -02 1.200  -01   25.                           1160900300281 
 2.689  +00 1.0    -02 1.210  -01   25.                           1160900300282 
 2.692  +00 1.0    -02 1.405  -01   25.                           1160900300283 
 2.697  +00 1.0    -02 1.383  -01   25.                           1160900300284 
 2.70   +00 7.     -02 1.325  -01   20.                           1160900300285 
 2.700  +00 1.0    -02 1.351  -01   25.                           1160900300286 
 2.707  +00 1.0    -02 1.393  -01   25.                           1160900300287 
 2.715  +00 1.0    -02 1.214  -01   25.                           1160900300288 
 2.721  +00 1.0    -02 1.188  -01   25.                           1160900300289 
 2.728  +00 1.0    -02 1.129  -01   25.                           1160900300290 
 2.732  +00 1.0    -02 1.250  -01   25.                           1160900300291 
 2.735  +00 1.0    -02 1.216  -01   25.                           1160900300292 
 2.738  +00 1.0    -02 1.135  -01   25.                           1160900300293 
 2.742  +00 1.0    -02 1.044  -01   25.                           1160900300294 
 2.749  +00 1.0    -02 9.800  -02   25.                           1160900300295 
 2.75   +00 7.     -02 1.075  -01   20.                           1160900300296 
 2.753  +00 1.0    -02 1.109  -01   25.                           1160900300297 
 2.756  +00 1.0    -02 1.134  -01   25.                           1160900300298 
 2.759  +00 1.0    -02 1.098  -01   25.                           1160900300299 
 2.763  +00 1.0    -02 1.045  -01   25.                           1160900300300 
 2.766  +00 1.0    -02 9.975  -02   25.                           1160900300301 
 2.771  +00 1.0    -02 1.081  -01   25.                           1160900300302 
 2.778  +00 1.0    -02 1.136  -01   25.                           1160900300303 
 2.781  +00 1.0    -02 1.275  -01   25.                           1160900300304 
 2.786  +00 1.0    -02 1.245  -01   25.                           1160900300305 
 2.791  +00 1.0    -02 1.211  -01   25.                           1160900300306 
 2.793  +00 1.0    -02 1.221  -01   25.                           1160900300307 
 2.799  +00 1.0    -02 1.045  -01   25.                           1160900300308 
 2.80   +00 7.     -02 1.075  -01   20.                           1160900300309 
 2.807  +00 1.0    -02 9.288  -02   25.                           1160900300310 
 2.813  +00 1.0    -02 1.131  -01   25.                           1160900300311 
 2.817  +00 1.0    -02 1.215  -01   25.                           1160900300312 
 2.820  +00 1.0    -02 1.173  -01   25.                           1160900300313 
 2.827  +00 1.0    -02 1.065  -01   25.                           1160900300314 
 2.831  +00 1.0    -02 1.039  -01   25.                           1160900300315 
 2.834  +00 1.0    -02 1.001  -01   25.                           1160900300316 
 2.842  +00 1.0    -02 1.035  -01   25.                           1160900300317 
 2.848  +00 1.0    -02 1.156  -01   25.                           1160900300318 
 2.849  +00 1.0    -02 1.184  -01   25.                           1160900300319 
 2.85   +00 7.     -02 1.063  -01   20.                           1160900300320 
 2.856  +00 1.0    -02 1.159  -01   25.                           1160900300321 
 2.863  +00 1.0    -02 1.364  -01   25.                           1160900300322 
 2.870  +00 1.0    -02 1.338  -01   25.                           1160900300323 
 2.878  +00 1.0    -02 1.128  -01   25.                           1160900300324 
 2.884  +00 1.0    -02 1.044  -01   25.                           1160900300325 
 2.892  +00 1.0    -02 1.006  -01   25.                           1160900300326 
 2.899  +00 1.0    -02 1.010  -01   25.                           1160900300327 
 2.90   +00 7.     -02 9.75   -02   20.                           1160900300328 
 2.907  +00 1.0    -02 9.175  -02   25.                           1160900300329 
 2.914  +00 1.0    -02 8.763  -02   25.                           1160900300330 
 2.921  +00 1.0    -02 9.125  -02   25.                           1160900300331 
 2.928  +00 1.0    -02 1.013  -01   25.                           1160900300332 
 2.928  +00 1.0    -02 1.076  -01   25.                           1160900300333 
 2.932  +00 1.0    -02 1.041  -01   25.                           1160900300334 
 2.935  +00 1.0    -02 1.056  -01   25.                           1160900300335 
 2.942  +00 1.0    -02 1.228  -01   25.                           1160900300336 
 2.949  +00 1.0    -02 1.161  -01   25.                           1160900300337 
 2.95   +00 7.     -02 1.088  -01   20.                           1160900300338 
 2.956  +00 1.0    -02 1.174  -01   25.                           1160900300339 
 2.964  +00 1.0    -02 1.093  -01   25.                           1160900300340 
 2.968  +00 1.0    -02 1.079  -01   25.                           1160900300341 
 2.971  +00 1.0    -02 1.144  -01   25.                           1160900300342 
 2.978  +00 1.0    -02 1.293  -01   25.                           1160900300343 
 2.985  +00 1.0    -02 1.485  -01   25.                           1160900300344 
 2.993  +00 1.0    -02 1.378  -01   25.                           1160900300345 
 3.000  +00 1.0    -02 1.078  -01   25.                           1160900300346 
 3.008  +00 1.0    -02 1.036  -01   25.                           1160900300347 
 3.01   +00 7.     -02 1.238  -01   20.                           1160900300348 
 3.015  +00 1.0    -02 1.033  -01   25.                           1160900300349 
 3.022  +00 1.0    -02 1.025  -01   25.                           1160900300350 
 3.025  +00 1.0    -02 1.103  -01   25.                           1160900300351 
 3.028  +00 1.0    -02 1.228  -01   25.                           1160900300352 
 3.033  +00 1.0    -02 1.345  -01   25.                           1160900300353 
 3.036  +00 1.0    -02 1.306  -01   25.                           1160900300354 
 3.040  +00 1.0    -02 1.221  -01   25.                           1160900300355 
 3.044  +00 1.0    -02 1.033  -01   25.                           1160900300356 
 3.051  +00 1.0    -02 1.063  -01   25.                           1160900300357 
 3.06   +00 7.     -02 1.313  -01   20.                           1160900300358 
 3.11   +00 7.     -02 1.363  -01   20.                           1160900300359 
 3.17   +00 7.     -02 1.325  -01   20.                           1160900300360 
 3.22   +00 7.     -02 1.550  -01   20.                           1160900300361 
 3.27   +00 7.     -02 1.625  -01   20.                           1160900300362 
 3.33   +00 7.     -02 1.575  -01   20.                           1160900300363 
 3.38   +00 7.     -02 1.625  -01   20.                           1160900300364 
 3.44   +00 7.     -02 1.225  -01   20.                           1160900300365 
 3.49   +00 7.     -02 1.350  -01   20.                           1160900300366 
 3.55   +00 7.     -02 1.425  -01   20.                           1160900300367 
 3.60   +00 7.     -02 1.338  -01   20.                           1160900300368 
 3.66   +00 7.     -02 1.138  -01   20.                           1160900300369 
 3.72   +00 7.     -02 1.238  -01   20.                           1160900300370 
 3.77   +00 7.     -02 1.163  -01   20.                           1160900300371 
 3.80   +00 1.5    -01 1.200  -01   20.                           1160900300372 
 3.83   +00 7.     -02 1.138  -01   20.                           1160900300373 
 3.89   +00 7.     -02 1.263  -01   20.                           1160900300374 
 3.92   +00 1.5    -01 1.250  -01   20.                           1160900300375 
 3.94   +00 7.     -02 1.063  -01   20.                           1160900300376 
 4.00   +00 7.     -02 1.213  -01   20.                           1160900300377 
 4.05   +00 1.5    -01 1.263  -01   20.                           1160900300378 
 4.06   +00 7.     -02 1.250  -01   20.                           1160900300379 
 4.12   +00 7.     -02 1.013  -01   20.                           1160900300380 
 4.17   +00 1.5    -01 1.150  -01   20.                           1160900300381 
 4.18   +00 7.     -02 1.063  -01   20.                           1160900300382 
 4.24   +00 7.     -02 1.075  -01   20.                           1160900300383 
 4.30   +00 1.5    -01 1.225  -01   20.                           1160900300384 
 4.43   +00 1.5    -01 9.750  -02   20.                           1160900300385 
 4.56   +00 1.5    -01 9.000  -02   20.                           1160900300386 
 4.69   +00 1.5    -01 9.375  -02   20.                           1160900300387 
 4.83   +00 1.5    -01 7.000  -02   20.                           1160900300388 
 4.97   +00 1.5    -01 6.000  -02   20.                           1160900300389 
 5.11   +00 1.5    -01 5.750  -02   20.                           1160900300390 
 5.25   +00 1.5    -01 5.500  -02   20.                           1160900300391 
 5.40   +00 1.5    -01 5.000  -02   20.                           1160900300392 
 5.55   +00 1.5    -01 4.750  -02   20.                           1160900300393 
 5.70   +00 1.5    -01 4.250  -02   20.                           1160900300394 
 5.86   +00 1.5    -01 3.875  -02   20.                           1160900300395 
 6.02   +00 1.5    -01 3.875  -02   20.                           1160900300396 
 6.07   +00 1.5    -01 3.500  -02   20.                           1160900300397 
 6.17   +00 1.5    -01 3.500  -02   20.                           1160900300398 
 6.28   +00 1.5    -01 3.375  -02   20.                           1160900300399 
 6.38   +00 1.5    -01 3.000  -02   20.                           1160900300400 
 6.49   +00 1.5    -01 2.625  -02   20.                           1160900300401 
 6.60   +00 1.5    -01 2.875  -02   20.                           1160900300402 
 6.70   +00 1.5    -01 2.500  -02   20.                           1160900300403 
 6.81   +00 1.5    -01 2.500  -02   20.                           1160900300404 
 6.92   +00 1.5    -01 1.950  -02   20.                           1160900300405 
 7.04   +00 1.5    -01 2.188  -02   20.                           1160900300406 
 7.16   +00 1.5    -01 2.063  -02   20.                           1160900300407 
 7.27   +00 1.5    -01 1.788  -02   20.                           1160900300408 
 7.39   +00 1.5    -01 1.725  -02   20.                           1160900300409 
 7.51   +00 1.5    -01 1.588  -02   20.                           1160900300410 
 7.63   +00 1.5    -01 1.525  -02   20.                           1160900300411 
 7.73   +00 1.5    -01 1.800  -02   20.                           1160900300412 
 7.83   +00 1.5    -01 1.388  -02   20.                           1160900300413 
 7.93   +00 1.5    -01 1.525  -02   20.                           1160900300414 
 8.03   +00 1.5    -01 1.388  -02   20.                           1160900300415 
 8.14   +00 1.5    -01 1.538  -02   20.                           1160900300416 
 8.24   +00 1.5    -01 1.538  -02   20.                           1160900300417 
 8.34   +00 1.5    -01 1.475  -02   20.                           1160900300418 
 8.45   +00 1.5    -01 1.400  -02   20.                           1160900300419 
 8.55   +00 1.5    -01 1.550  -02   20.                           1160900300420 
 8.66   +00 1.5    -01 1.338  -02   20.                           1160900300421 
ENDDATA            408          0                                 1160900300422 
ENDSUBENT          421          0                                 1160900399999 
SUBENT        11609004   19830815                             00001160900400001 
BIB                  4          5                                 1160900400002 
REACTION   (19-K-39(N,P)18-AR-39,PAR,SIG)                         1160900400003 
N-SOURCE   (P-T) T(P,N) SOURCE                                    1160900400004 
DETECTOR   (SCIN)     SCINTILLATING CRYSTAL                       1160900400005 
CORRECTION PUBLISHED VALUES INCREASED 25 PERCENT DUE TO FLUX      1160900400006 
            MEASUREMENT ERROR - BASS,PRIV.COMM.(1964).            1160900400007 
ENDBIB               5          0                                 1160900400008 
COMMON               3          3                                 1160900400009 
E-LVL      EN-RSL     DATA-ERR                                    1160900400010 
MEV        KEV        PER-CENT                                    1160900400011 
 1.32       70.        40.                                        1160900400012 
ENDCOMMON            3          0                                 1160900400013 
DATA                 3         22                                 1160900400014 
EN         DATA       DATA-MAX                                    1160900400015 
MEV        B          B                                           1160900400016 
 2.45   +00            4.     -03                                 1160900400017 
 2.50   +00 1.000  -02                                            1160900400018 
 2.55   +00 8.25   -03                                            1160900400019 
 2.60   +00 5.875  -03                                            1160900400020 
 2.65   +00 6.25   -03                                            1160900400021 
 2.70   +00 6.00   -03                                            1160900400022 
 2.75   +00 6.625  -03                                            1160900400023 
 2.80   +00 8.125  -03                                            1160900400024 
 2.85   +00 8.00   -03                                            1160900400025 
 2.90   +00 9.375  -03                                            1160900400026 
 2.95   +00 9.375  -03                                            1160900400027 
 3.01   +00 1.063  -02                                            1160900400028 
 3.06   +00 1.20   -02                                            1160900400029 
 3.11   +00 1.15   -02                                            1160900400030 
 3.17   +00 1.75   -02                                            1160900400031 
 3.22   +00 1.625  -02                                            1160900400032 
 3.27   +00 1.50   -02                                            1160900400033 
 3.33   +00 1.313  -02                                            1160900400034 
 3.38   +00 2.25   -02                                            1160900400035 
 3.44   +00 2.313  -02                                            1160900400036 
 3.49   +00 2.188  -02                                            1160900400037 
 3.55   +00 3.00   -02                                            1160900400038 
ENDDATA             24          0                                 1160900400039 
ENDSUBENT           38          0                                 1160900499999 
ENDENTRY             4          0                                 1160999999999 
