ENTRY            11643   19860623                             00001164300000001 
SUBENT        11643001   19860623                             00001164300100001 
BIB                  7         10                                 1164300100002 
INSTITUTE  (1USAANL)                                              1164300100003 
REFERENCE  (P,WASH-1013,1,5811)                                   1164300100004 
TITLE      TRANSMISSION MEASUREMENTS.                             1164300100005 
AUTHOR     (L.M.BOLLINGER,R.T.CARPENTER,R.E.COTE,G.E.THOMAS)      1164300100006 
FACILITY   (CHOPF) FAST CHOPPER                                   1164300100007 
STATUS     (SCSRS)                                                1164300100008 
           DATA TAKEN FROM PRIVATE COMM., BOLLINGER, 59/7.        1164300100009 
HISTORY    (760730T) TRANSLATED FROM SCISRS                       1164300100010 
           (830829A) CONVERTED TO REACTION FORMALISM              1164300100011 
           (860623A) BIB UPDATE.                                  1164300100012 
ENDBIB              10          0                                 1164300100013 
NOCOMMON             0          0                                 1164300100014 
ENDSUBENT           13          0                                 1164300199999 
SUBENT        11643002   19830829                             00001164300200001 
BIB                  2          2                                 1164300200002 
REACTION   (56-BA-0(N,TOT),,SIG)                                  1164300200003 
METHOD     (TOF)      TIME-OF-FLIGHT                              1164300200004 
ENDBIB               2          0                                 1164300200005 
NOCOMMON             0          0                                 1164300200006 
DATA                 5        723                                 1164300200007 
EN         EN-RSL     DATA       DATA-ERR   THICKNESS             1164300200008 
MEV        NSEC/M     B          B          G/CM-SQ               1164300200009 
 1.801  -05   25.      5.91   +00             4.382               1164300200010 
 1.807  -05   25.      4.97   +00             4.382               1164300200011 
 1.812  -05   25.      6.47   +00             4.382               1164300200012 
 1.817  -05   25.      8.04   +00             4.382               1164300200013 
 1.823  -05   25.      6.32   +00             4.382               1164300200014 
 1.828  -05   25.      8.82   +00             4.382               1164300200015 
 1.834  -05   25.      7.28   +00             4.382               1164300200016 
 1.840  -05   25.      3.93   +00             4.382               1164300200017 
 1.845  -05   25.      6.55   +00             4.382               1164300200018 
 1.851  -05   25.      6.96   +00             4.382               1164300200019 
 1.856  -05   25.      7.60   +00             4.382               1164300200020 
 1.862  -05   25.      6.21   +00             4.382               1164300200021 
 1.868  -05   25.      6.52   +00             4.382               1164300200022 
 1.873  -05   25.      5.46   +00             4.382               1164300200023 
 1.879  -05   25.      6.11   +00             4.382               1164300200024 
 1.885  -05   25.      6.88   +00             4.382               1164300200025 
 1.891  -05   25.      6.24   +00             4.382               1164300200026 
 1.896  -05   25.      6.00   +00             4.382               1164300200027 
 1.902  -05   25.      7.74   +00 3.00   +00  4.382               1164300200028 
 1.908  -05   25.      6.61   +00             4.382               1164300200029 
 1.914  -05   25.      6.70   +00             4.382               1164300200030 
 1.920  -05   25.      6.68   +00             4.382               1164300200031 
 1.926  -05   25.      6.22   +00             4.382               1164300200032 
 1.932  -05   25.      6.66   +00             4.382               1164300200033 
 1.938  -05   25.      6.28   +00             4.382               1164300200034 
 1.944  -05   25.      6.72   +00             4.382               1164300200035 
 1.950  -05   25.      7.74   +00             4.382               1164300200036 
 1.956  -05   25.      6.53   +00             4.382               1164300200037 
 1.967  -05   25.      7.54   +00             4.382               1164300200038 
 1.968  -05   25.      5.32   +00             4.382               1164300200039 
 1.974  -05   25.      6.84   +00             4.382               1164300200040 
 1.981  -05   25.      6.08   +00             4.382               1164300200041 
 1.987  -05   25.      7.44   +00             4.382               1164300200042 
 1.993  -05   25.      6.41   +00             4.382               1164300200043 
 1.999  -05   25.      5.75   +00             4.382               1164300200044 
 2.006  -05   25.      6.64   +00             4.382               1164300200045 
 2.012  -05   25.      7.09   +00             4.382               1164300200046 
 2.018  -05   25.      6.31   +00             4.382               1164300200047 
 2.025  -05   25.      7.31   +00             4.382               1164300200048 
 2.031  -05   25.      7.87   +00             4.382               1164300200049 
 2.038  -05   25.      7.75   +00             4.382               1164300200050 
 2.044  -05   25.      8.74   +00             4.382               1164300200051 
 2.051  -05   25.      8.75   +00             4.382               1164300200052 
 2.057  -05   25.      8.48   +00             4.382               1164300200053 
 2.064  -05   25.      8.49   +00             4.382               1164300200054 
 2.070  -05   25.      8.36   +00             4.382               1164300200055 
 2.077  -05   25.      7.84   +00             4.382               1164300200056 
 2.084  -05   25.      8.74   +00             4.382               1164300200057 
 2.090  -05   25.      9.74   +00 3.00   +00  4.382               1164300200058 
 2.097  -05   25.      6.61   +00 2.90   +00  4.382               1164300200059 
 2.106  -05   12.      6.56   +00            21.11                1164300200060 
 2.116  -05   12.      6.11   +00            21.11                1164300200061 
 2.127  -05   12.      6.19   +00            21.11                1164300200062 
 2.138  -05   12.      6.79   +00            21.11                1164300200063 
 2.150  -05   12.      5.76   +00            21.11                1164300200064 
 2.161  -05   12.      6.43   +00            21.11                1164300200065 
 2.171  -05   12.      6.09   +00            21.11                1164300200066 
 2.182  -05   12.      6.29   +00 1.10   +00 21.11                1164300200067 
 2.192  -05   12.      6.72   +00            21.11                1164300200068 
 2.203  -05   12.      6.26   +00            21.11                1164300200069 
 2.214  -05   12.      6.13   +00            21.11                1164300200070 
 2.225  -05   12.      6.64   +00            21.11                1164300200071 
 2.236  -05   12.      6.37   +00            21.11                1164300200072 
 2.247  -05   12.      6.18   +00            21.11                1164300200073 
 2.258  -05   12.      7.23   +00 1.20   +00 21.11                1164300200074 
 2.269  -05   12.      6.40   +00            21.11                1164300200075 
 2.280  -05   12.      5.68   +00 1.10   +00 21.11                1164300200076 
 2.292  -05   12.      6.23   +00            21.11                1164300200077 
 2.303  -05   12.      6.40   +00            21.11                1164300200078 
 2.314  -05   12.      6.70   +00            21.11                1164300200079 
 2.326  -05   12.      6.06   +00 1.20   +00 21.11                1164300200080 
 2.334  -05   12.      7.23   +00            21.11                1164300200081 
 2.338  -05   12.      6.50   +00 6.0    -01 21.11                1164300200082 
 2.342  -05   12.      8.37   +00            21.11                1164300200083 
 2.346  -05   12.      8.06   +00            21.11                1164300200084 
 2.349  -05   12.      7.73   +00 7.0    -01 21.11                1164300200085 
 2.353  -05   12.      7.21   +00 6.0    -01 21.11                1164300200086 
 2.357  -05   12.      8.27   +00 7.0    -01 21.11                1164300200087 
 2.361  -05   12.      7.19   +00 6.0    -01 21.11                1164300200088 
 2.377  -05   25.      1.308  +01 1.50   +00  4.382               1164300200089 
 2.380  -05   25.      1.626  +01 1.60   +00  4.382               1164300200090 
 2.383  -05   25.      1.362  +01 1.50   +00  4.382               1164300200091 
 2.386  -05   25.      2.044  +01             4.382               1164300200092 
 2.388  -05   25.      2.195  +01 1.70   +00  4.382               1164300200093 
 2.391  -05   25.      2.587  +01             4.382               1164300200094 
 2.394  -05   25.      3.014  +01 1.80   +00  4.382               1164300200095 
 2.397  -05   25.      3.679  +01 2.00   +00  4.382               1164300200096 
 2.399  -05   25.      4.460  +01 2.20   +00  4.382               1164300200097 
 2.402  -05   25.      5.626  +01 2.50   +00  4.382               1164300200098 
 2.405  -05   25.      6.665  +01 2.90   +00  4.382               1164300200099 
 2.408  -05   25.      7.858  +01 3.40   +00  4.382               1164300200100 
 2.410  -05   25.      9.184  +01 4.10   +00  4.382               1164300200101 
 2.413  -05   25.      1.048  +02 4.9    +00  4.382               1164300200102 
 2.416  -05   25.      1.136  +02 5.6    +00  4.382               1164300200103 
 2.419  -05   25.      1.259  +02             4.382               1164300200104 
 2.422  -05   25.      1.256  +02 6.8    +00  4.382               1164300200105 
 2.424  -05   25.      1.203  +02 6.2    +00  4.382               1164300200106 
 2.427  -05   25.      1.111  +02 5.4    +00  4.382               1164300200107 
 2.430  -05   25.      1.005  +02 4.6    +00  4.382               1164300200108 
 2.433  -05   25.      8.570  +01 3.70   +00  4.382               1164300200109 
 2.436  -05   25.      7.572  +01 3.30   +00  4.382               1164300200110 
 2.438  -05   25.      6.694  +01 2.90   +00  4.382               1164300200111 
 2.476  -05   12.      1.337  +01 1.00   +00 21.11                1164300200112 
 2.481  -05   12.      1.128  +01            21.11                1164300200113 
 2.485  -05   12.      9.56   +00            21.11                1164300200114 
 2.489  -05   12.      1.030  +01 8.0    -01 21.11                1164300200115 
 2.494  -05   12.      9.09   +00            21.11                1164300200116 
 2.498  -05   12.      8.65   +00            21.11                1164300200117 
 2.502  -05   12.      9.30   +00            21.11                1164300200118 
 2.506  -05   12.      8.09   +00 7.0    -01 21.11                1164300200119 
 2.511  -05   12.      7.21   +00            21.11                1164300200120 
 2.515  -05   12.      7.36   +00            21.11                1164300200121 
 2.520  -05   12.      6.66   +00 6.0    -01 21.11                1164300200122 
 2.533  -05   12.      6.71   +00            21.11                1164300200123 
 2.555  -05   12.      6.25   +00            21.11                1164300200124 
 2.577  -05   12.      7.14   +00 1.30   +00 21.11                1164300200125 
 2.600  -05   12.      6.29   +00            21.11                1164300200126 
 2.623  -05   12.      6.63   +00            21.11                1164300200127 
 2.647  -05   12.      6.34   +00            21.11                1164300200128 
 2.670  -05   12.      6.49   +00            21.11                1164300200129 
 2.694  -05   12.      6.47   +00            21.11                1164300200130 
 2.718  -05   12.      6.51   +00            21.11                1164300200131 
 2.743  -05   12.      6.23   +00            21.11                1164300200132 
 2.768  -05   12.      6.09   +00            21.11                1164300200133 
 2.794  -05   12.      6.16   +00            21.11                1164300200134 
 2.819  -05   12.      6.45   +00            21.11                1164300200135 
 2.851  -05   12.      6.21   +00            21.11                1164300200136 
 2.872  -05   12.      6.17   +00            21.11                1164300200137 
 2.899  -05   12.      6.15   +00            21.11                1164300200138 
 2.931  -05   12.      6.50   +00 1.20   +00 21.11                1164300200139 
 2.953  -05   12.      6.70   +00            21.11                1164300200140 
 2.981  -05   12.      6.82   +00            21.11                1164300200141 
 3.010  -05   12.      7.13   +00            21.11                1164300200142 
 3.038  -05   12.      6.86   +00            21.11                1164300200143 
 3.068  -05   12.      6.02   +00            21.11                1164300200144 
 3.097  -05   12.      6.37   +00            21.11                1164300200145 
 3.133  -05   12.      6.08   +00            21.11                1164300200146 
 3.158  -05   12.      6.27   +00            21.11                1164300200147 
 3.189  -05   12.      6.40   +00            21.11                1164300200148 
 3.220  -05   12.      6.63   +00 1.20   +00 21.11                1164300200149 
 3.252  -05   12.      6.50   +00            21.11                1164300200150 
 3.284  -05   12.      6.33   +00 1.00   +00 21.11                1164300200151 
 3.317  -05   12.      6.31   +00            21.11                1164300200152 
 3.350  -05   12.      6.08   +00            21.11                1164300200153 
 3.384  -05   12.      6.38   +00 1.10   +00 21.11                1164300200154 
 3.418  -05   12.      6.18   +00            21.11                1164300200155 
 3.453  -05   12.      5.67   +00            21.11                1164300200156 
 3.488  -05   12.      6.01   +00            21.11                1164300200157 
 3.524  -05   12.      6.06   +00            21.11                1164300200158 
 3.561  -05   12.      6.29   +00            21.11                1164300200159 
 3.598  -05   12.      6.38   +00            21.11                1164300200160 
 3.635  -05   12.      6.21   +00            21.11                1164300200161 
 3.673  -05   12.      6.70   +00            21.11                1164300200162 
 3.712  -05   12.      6.22   +00            21.11                1164300200163 
 3.752  -05   12.      6.36   +00            21.11                1164300200164 
 3.792  -05   12.      6.13   +00            21.11                1164300200165 
 3.832  -05   12.      6.53   +00            21.11                1164300200166 
 3.874  -05   12.      6.83   +00            21.11                1164300200167 
 3.916  -05   12.      6.38   +00            21.11                1164300200168 
 3.967  -05   12.      6.48   +00            21.11                1164300200169 
 4.002  -05   12.      6.70   +00            21.11                1164300200170 
 4.046  -05   12.      6.50   +00            21.11                1164300200171 
 4.091  -05   12.      6.56   +00            21.11                1164300200172 
 4.136  -05   12.      7.07   +00            21.11                1164300200173 
 4.183  -05   12.      6.52   +00            21.11                1164300200174 
 4.230  -05   12.      6.04   +00            21.11                1164300200175 
 4.279  -05   12.      6.52   +00            21.11                1164300200176 
 4.327  -05   12.      7.68   +00            21.11                1164300200177 
 4.376  -05   12.      6.28   +00            21.11                1164300200178 
 4.427  -05   12.      6.71   +00 1.00   +00 21.11                1164300200179 
 4.468  -05   12.      7.24   +00            21.11                1164300200180 
 4.500  -05   12.      6.47   +00            21.11                1164300200181 
 4.530  -05   12.      6.45   +00 8.0    -01 21.11                1164300200182 
 4.551  -05   12.      6.75   +00            21.11                1164300200183 
 4.562  -05   12.      6.76   +00            21.11                1164300200184 
 4.573  -05   12.      7.47   +00            21.11                1164300200185 
 4.583  -05   12.      6.58   +00            21.11                1164300200186 
 4.594  -05   12.      7.94   +00 5.0    -01 21.11                1164300200187 
 4.605  -05   12.      1.025  +01            21.11                1164300200188 
 4.616  -05   12.      1.132  +01 6.0    -01 21.11                1164300200189 
 4.627  -05   12.      1.252  +01 7.0    -01 21.11                1164300200190 
 4.638  -05   12.      1.083  +01 6.0    -01 21.11                1164300200191 
 4.649  -05   12.      9.24   +00            21.11                1164300200192 
 4.659  -05   12.      7.39   +00            21.11                1164300200193 
 4.671  -05   12.      6.90   +00 5.0    -01 21.11                1164300200194 
 4.693  -05   12.      6.88   +00            21.11                1164300200195 
 4.726  -05   12.      6.29   +00            21.11                1164300200196 
 4.760  -05   12.      6.35   +00            21.11                1164300200197 
 4.794  -05   12.      5.91   +00            21.11                1164300200198 
 4.829  -05   12.      6.37   +00            21.11                1164300200199 
 4.864  -05   12.      6.96   +00            21.11                1164300200200 
 4.899  -05   12.      6.29   +00            21.11                1164300200201 
 4.935  -05   12.      6.09   +00            21.11                1164300200202 
 4.971  -05   12.      6.58   +00            21.11                1164300200203 
 5.008  -05   12.      6.90   +00            21.11                1164300200204 
 5.045  -05   12.      6.70   +00            21.11                1164300200205 
 5.082  -05   12.      6.90   +00            21.11                1164300200206 
 5.120  -05   12.      6.56   +00 7.0    -01 21.11                1164300200207 
 5.158  -05   12.      6.82   +00 8.0    -01 21.11                1164300200208 
 5.197  -05   12.      7.74   +00            21.11                1164300200209 
 5.234  -05   12.      6.41   +00            21.11                1164300200210 
 5.273  -05   12.      5.99   +00            21.11                1164300200211 
 5.313  -05   12.      6.17   +00            21.11                1164300200212 
 5.353  -05   12.      7.24   +00 7.0    -01 21.11                1164300200213 
 5.394  -05   12.      6.48   +00            21.11                1164300200214 
 5.436  -05   12.      6.65   +00            21.11                1164300200215 
 5.463  -05   12.      7.23   +00            21.11                1164300200216 
 5.477  -05   12.      5.18   +00            21.11                1164300200217 
 5.491  -05   12.      6.61   +00            21.11                1164300200218 
 5.506  -05   12.      6.89   +00            21.11                1164300200219 
 5.520  -05   12.      5.60   +00            21.11                1164300200220 
 5.534  -05   12.      6.97   +00            21.11                1164300200221 
 5.548  -05   12.      6.33   +00            21.11                1164300200222 
 5.562  -05   12.      7.88   +00            21.11                1164300200223 
 5.577  -05   12.      6.46   +00            21.11                1164300200224 
 5.591  -05   12.      6.13   +00            21.11                1164300200225 
 5.606  -05   12.      6.44   +00            21.11                1164300200226 
 5.620  -05   12.      6.53   +00            21.11                1164300200227 
 5.635  -05   12.      6.46   +00            21.11                1164300200228 
 5.650  -05   12.      6.91   +00            21.11                1164300200229 
 5.664  -05   12.      7.81   +00            21.11                1164300200230 
 5.679  -05   12.      6.82   +00            21.11                1164300200231 
 5.694  -05   12.      7.45   +00 4.0    -01 21.11                1164300200232 
 5.701  -05   25.      1.305  +01 1.20   +00  4.382               1164300200233 
 5.709  -05   12.      8.28   +00 5.0    -01 21.11                1164300200234 
 5.711  -05   25.      1.735  +01             4.382               1164300200235 
 5.721  -05   25.      1.856  +01             4.382               1164300200236 
 5.724  -05   12.      1.028  +01 6.0    -01 21.11                1164300200237 
 5.731  -05   25.      2.186  +01             4.382               1164300200238 
 5.742  -05   25.      2.140  +01             4.382               1164300200239 
 5.752  -05   25.      1.853  +01 1.30   +00  4.382               1164300200240 
 5.815  -05   12.      9.80   +00            21.11                1164300200241 
 5.830  -05   12.      8.68   +00            21.11                1164300200242 
 5.845  -05   12.      7.27   +00            21.11                1164300200243 
 5.861  -05   12.      7.15   +00            21.11                1164300200244 
 5.876  -05   12.      6.96   +00            21.11                1164300200245 
 5.892  -05   12.      6.32   +00            21.11                1164300200246 
 5.908  -05   12.      7.31   +00            21.11                1164300200247 
 5.923  -05   12.      6.77   +00            21.11                1164300200248 
 5.939  -05   12.      6.58   +00            21.11                1164300200249 
 5.955  -05   12.      7.05   +00            21.11                1164300200250 
 5.987  -05   12.      6.50   +00            21.11                1164300200251 
 6.035  -05   12.      6.75   +00            21.11                1164300200252 
 6.084  -05   12.      6.50   +00            21.11                1164300200253 
 6.134  -05   12.      6.65   +00            21.11                1164300200254 
 6.184  -05   12.      6.41   +00            21.11                1164300200255 
 6.235  -05   12.      6.49   +00            21.11                1164300200256 
 6.286  -05   12.      6.27   +00            21.11                1164300200257 
 6.338  -05   12.      6.48   +00            21.11                1164300200258 
 6.391  -05   12.      6.72   +00            21.11                1164300200259 
 6.444  -05   12.      6.07   +00            21.11                1164300200260 
 6.498  -05   12.      6.25   +00            21.11                1164300200261 
 6.553  -05   12.      6.46   +00            21.11                1164300200262 
 6.608  -05   12.      6.56   +00            21.11                1164300200263 
 6.664  -05   12.      6.32   +00            21.11                1164300200264 
 6.721  -05   12.      6.61   +00            21.11                1164300200265 
 6.779  -05   12.      6.29   +00            21.11                1164300200266 
 6.837  -05   12.      6.65   +00            21.11                1164300200267 
 6.896  -05   12.      6.55   +00            21.11                1164300200268 
 6.957  -05   12.      6.95   +00            21.11                1164300200269 
 7.016  -05   12.      6.61   +00            21.11                1164300200270 
 7.078  -05   12.      6.35   +00            21.11                1164300200271 
 7.140  -05   12.      6.53   +00            21.11                1164300200272 
 7.203  -05   12.      6.67   +00            21.11                1164300200273 
 7.267  -05   12.      6.24   +00            21.11                1164300200274 
 7.331  -05   12.      6.41   +00            21.11                1164300200275 
 7.400  -05   12.      6.41   +00            21.11                1164300200276 
 7.463  -05   12.      6.50   +00            21.11                1164300200277 
 7.531  -05   12.      6.55   +00            21.11                1164300200278 
 7.600  -05   12.      7.02   +00            21.11                1164300200279 
 7.668  -05   12.      7.07   +00            21.11                1164300200280 
 7.715  -05   12.      7.45   +00            21.11                1164300200281 
 7.733  -05   12.      7.47   +00            21.11                1164300200282 
 7.762  -05   12.      8.02   +00            21.11                1164300200283 
 7.785  -05   12.      7.89   +00            21.11                1164300200284 
 7.809  -05   12.      7.11   +00            21.11                1164300200285 
 7.833  -05   12.      7.72   +00 4.0    -01 21.11                1164300200286 
 7.857  -05   12.      9.48   +00            21.11                1164300200287 
 7.881  -05   12.      9.73   +00            21.11                1164300200288 
 7.906  -05   12.      1.144  +01 5.0    -01 21.11                1164300200289 
 7.930  -05   12.      1.324  +01 6.0    -01 21.11                1164300200290 
 7.954  -05   12.      1.798  +01 9.0    -01 21.11                1164300200291 
 8.035  -05   13.      1.924  +02 8.7    +00  1.212               1164300200292 
 8.047  -05   13.      2.585  +02 1.06   +01  1.212               1164300200293 
 8.060  -05   13.      2.741  +02 1.14   +01  1.212               1164300200294 
 8.072  -05   13.      2.814  +02 1.22   +01  1.212               1164300200295 
 8.085  -05   13.      2.285  +02 1.01   +01  1.212               1164300200296 
 8.097  -05   13.      1.573  +02 7.7    +00  1.212               1164300200297 
 8.110  -05   13.      1.173  +02 7.1    +00  1.212               1164300200298 
 8.123  -05   13.      8.035  +01 6.50   +00  1.212               1164300200299 
 8.180  -05   12.      1.680  +01 8.0    -01 21.11                1164300200300 
 8.206  -05   12.      1.243  +01 6.0    -01 21.11                1164300200301 
 8.231  -05   12.      1.026  +01 7.0    -01 21.11                1164300200302 
 8.257  -05   12.      1.014  +01            21.11                1164300200303 
 8.283  -05   12.      9.84   +00 5.0    -01 21.11                1164300200304 
 8.309  -05   12.      8.69   +00            21.11                1164300200305 
 8.336  -05   12.      8.21   +00            21.11                1164300200306 
 8.362  -05   12.      8.53   +00            21.11                1164300200307 
 8.388  -05   12.      7.89   +00            21.11                1164300200308 
 8.415  -05   12.      8.46   +00            21.11                1164300200309 
 8.442  -05   12.      8.29   +00            21.11                1164300200310 
 8.469  -05   12.      8.62   +00 4.0    -01 21.11                1164300200311 
 8.496  -05   12.      9.71   +00 5.0    -01 21.11                1164300200312 
 8.523  -05   12.      1.401  +01 6.0    -01 21.11                1164300200313 
 8.571  -05   13.      1.043  +02 6.7    +00  1.212               1164300200314 
 8.585  -05   13.      1.282  +02 7.3    +00  1.212               1164300200315 
 8.598  -05   13.      1.504  +02 7.7    +00  1.212               1164300200316 
 8.612  -05   13.      1.322  +02 7.3    +00  1.212               1164300200317 
 8.626  -05   13.      1.067  +02 6.7    +00  1.212               1164300200318 
 8.688  -05   12.      1.448  +01 7.0    -01 21.11                1164300200319 
 8.717  -05   12.      1.043  +01 5.0    -01 21.11                1164300200320 
 8.745  -05   12.      8.72   +00            21.11                1164300200321 
 8.773  -05   12.      8.65   +00            21.11                1164300200322 
 8.802  -05   12.      8.39   +00            21.11                1164300200323 
 8.830  -05   12.      7.29   +00            21.11                1164300200324 
 8.859  -05   12.      8.00   +00            21.11                1164300200325 
 8.888  -05   12.      8.21   +00            21.11                1164300200326 
 8.917  -05   12.      7.73   +00            21.11                1164300200327 
 8.946  -05   12.      8.01   +00            21.11                1164300200328 
 8.975  -05   12.      7.88   +00            21.11                1164300200329 
 9.005  -05   12.      7.82   +00            21.11                1164300200330 
 9.035  -05   12.      6.93   +00            21.11                1164300200331 
 9.064  -05   12.      7.85   +00            21.11                1164300200332 
 9.094  -05   12.      6.97   +00 4.0    -01 21.11                1164300200333 
 9.124  -05   12.      6.67   +00 5.0    -01 21.11                1164300200334 
 9.155  -05   12.      7.17   +00            21.11                1164300200335 
 9.185  -05   12.      6.91   +00            21.11                1164300200336 
 9.215  -05   12.      6.88   +00 4.0    -01 21.11                1164300200337 
 9.246  -05   12.      6.21   +00 5.0    -01 21.11                1164300200338 
 9.277  -05   12.      6.34   +00 4.0    -01 21.11                1164300200339 
 9.340  -05   12.      6.75   +00            21.11                1164300200340 
 9.433  -05   12.      6.68   +00            21.11                1164300200341 
 9.529  -05   12.      6.75   +00            21.11                1164300200342 
 9.626  -05   12.      6.76   +00            21.11                1164300200343 
 9.725  -05   12.      6.68   +00            21.11                1164300200344 
 9.825  -05   12.      6.85   +00            21.11                1164300200345 
 9.893  -05   12.      6.64   +00            21.11                1164300200346 
 9.927  -05   12.      7.43   +00            21.11                1164300200347 
 9.961  -05   12.      7.40   +00            21.11                1164300200348 
 1.000  -04   12.      8.66   +00 6.0    -01 21.11                1164300200349 
 1.003  -04   12.      8.02   +00 4.0    -01 21.11                1164300200350 
 1.007  -04   12.      1.097  +01 5.0    -01 21.11                1164300200351 
 1.010  -04   12.      1.497  +01 6.0    -01 21.11                1164300200352 
 1.016  -04   13.      1.172  +02 6.7    +00  1.212               1164300200353 
 1.018  -04   13.      1.355  +02 7.1    +00  1.212               1164300200354 
 1.020  -04   13.      1.465  +02 7.3    +00  1.212               1164300200355 
 1.022  -04   13.      1.206  +02 7.0    +00  1.212               1164300200356 
 1.028  -04   12.      2.054  +01 1.00   +00 21.11                1164300200357 
 1.036  -04   13.      8.150  +01 6.20   +00  1.212               1164300200358 
 1.038  -04   13.      1.060  +02 6.5    +00  1.212               1164300200359 
 1.040  -04   13.      1.465  +02 7.3    +00  1.212               1164300200360 
 1.042  -04   13.      1.620  +02 7.8    +00  1.212               1164300200361 
 1.043  -04   13.      1.354  +02 7.1    +00  1.212               1164300200362 
 1.045  -04   13.      1.053  +02 6.7    +00  1.212               1164300200363 
 1.054  -04   12.      1.522  +01 7.0    -01 21.11                1164300200364 
 1.057  -04   12.      1.171  +01 5.0    -01 21.11                1164300200365 
 1.061  -04   12.      1.112  +01            21.11                1164300200366 
 1.065  -04   12.      8.73   +00            21.11                1164300200367 
 1.069  -04   12.      8.48   +00            21.11                1164300200368 
 1.072  -04   12.      8.51   +00            21.11                1164300200369 
 1.076  -04   12.      8.05   +00            21.11                1164300200370 
 1.080  -04   12.      8.23   +00            21.11                1164300200371 
 1.084  -04   12.      7.74   +00            21.11                1164300200372 
 1.088  -04   12.      7.90   +00            21.11                1164300200373 
 1.092  -04   12.      7.91   +00            21.11                1164300200374 
 1.096  -04   12.      8.12   +00            21.11                1164300200375 
 1.100  -04   12.      7.31   +00            21.11                1164300200376 
 1.104  -04   12.      7.31   +00            21.11                1164300200377 
 1.108  -04   12.      8.12   +00            21.11                1164300200378 
 1.112  -04   12.      6.90   +00 4.0    -01 21.11                1164300200379 
 1.124  -04   12.      7.27   +00            21.11                1164300200380 
 1.145  -04   12.      6.87   +00            21.11                1164300200381 
 1.167  -04   12.      6.67   +00            21.11                1164300200382 
 1.189  -04   12.      6.81   +00            21.11                1164300200383 
 1.211  -04   12.      6.61   +00 8.0    -01 21.11                1164300200384 
 1.235  -04   12.      6.71   +00            21.11                1164300200385 
 1.259  -04   12.      6.76   +00            21.11                1164300200386 
 1.284  -04   12.      6.58   +00            21.11                1164300200387 
 1.309  -04   12.      6.71   +00            21.11                1164300200388 
 1.335  -04   12.      6.72   +00 9.0    -01 21.11                1164300200389 
 1.363  -04   12.      7.51   +00            21.11                1164300200390 
 1.390  -04   12.      6.75   +00            21.11                1164300200391 
 1.419  -04   12.      6.85   +00 8.0    -01 21.11                1164300200392 
 1.449  -04   12.      6.62   +00            21.11                1164300200393 
 1.480  -04   12.      6.43   +00            21.11                1164300200394 
 1.511  -04   12.      6.65   +00            21.11                1164300200395 
 1.544  -04   12.      6.78   +00            21.11                1164300200396 
 1.577  -04   12.      6.63   +00            21.11                1164300200397 
 1.612  -04   12.      6.73   +00            21.11                1164300200398 
 1.648  -04   12.      6.46   +00            21.11                1164300200399 
 1.686  -04   12.      6.79   +00            21.11                1164300200400 
 1.724  -04   12.      6.45   +00            21.11                1164300200401 
 1.764  -04   12.      6.28   +00            21.11                1164300200402 
 1.805  -04   12.      6.55   +00            21.11                1164300200403 
 1.848  -04   12.      7.03   +00            21.11                1164300200404 
 1.892  -04   12.      6.15   +00            21.11                1164300200405 
 1.938  -04   12.      6.25   +00            21.11                1164300200406 
 1.985  -04   12.      6.54   +00 7.0    -01 21.11                1164300200407 
 2.002  -04   13.      5.98   +00             4.382               1164300200408 
 2.016  -04   13.      7.61   +00             4.382               1164300200409 
 2.026  -04   13.      6.85   +00             4.382               1164300200410 
 2.031  -04   13.      7.65   +00             4.382               1164300200411 
 2.046  -04   13.      6.05   +00             4.382               1164300200412 
 2.077  -04   13.      6.02   +00             4.382               1164300200413 
 2.093  -04   13.      7.36   +00             4.382               1164300200414 
 2.109  -04   13.      6.31   +00             4.382               1164300200415 
 2.125  -04   13.      6.07   +00             4.382               1164300200416 
 2.141  -04   13.      6.75   +00             4.382               1164300200417 
 2.157  -04   13.      6.74   +00             4.382               1164300200418 
 2.174  -04   13.      7.69   +00             4.382               1164300200419 
 2.190  -04   13.      6.96   +00             4.382               1164300200420 
 2.205  -04   12.      6.60   +00 3.0    -01 21.11                1164300200421 
 2.207  -04   13.      6.50   +00             4.382               1164300200422 
 2.216  -04   12.      7.11   +00 5.0    -01 21.11                1164300200423 
 2.227  -04   12.      9.88   +00            21.11                1164300200424 
 2.239  -04   12.      1.054  +01 6.0    -01 21.11                1164300200425 
 2.250  -04   12.      6.65   +00 5.0    -01 21.11                1164300200426 
 2.251  -04   12.      6.56   +00            21.11                1164300200427 
 2.263  -04   12.      6.38   +00            21.11                1164300200428 
 2.275  -04   12.      6.14   +00 3.0    -01 21.11                1164300200429 
 2.277  -04   13.      6.45   +00             4.382               1164300200430 
 2.295  -04   13.      6.55   +00             4.382               1164300200431 
 2.313  -04   13.      7.01   +00             4.382               1164300200432 
 2.331  -04   13.      6.72   +00             4.382               1164300200433 
 2.350  -04   13.      6.45   +00             4.382               1164300200434 
 2.369  -04   13.      6.40   +00             4.382               1164300200435 
 2.375  -04   12.      6.42   +00 4.0    -01 21.11                1164300200436 
 2.385  -04   12.      6.05   +00 5.0    -01 21.11                1164300200437 
 2.388  -04   13.      5.89   +00 1.90   +00  4.382               1164300200438 
 2.397  -04   12.      6.62   +00            21.11                1164300200439 
 2.410  -04   12.      9.06   +00 6.0    -01 21.11                1164300200440 
 2.424  -04   12.      7.44   +00            21.11                1164300200441 
 2.437  -04   12.      6.26   +00 4.0    -01 21.11                1164300200442 
 2.446  -04   13.      5.78   +00             4.382               1164300200443 
 2.466  -04   13.      5.92   +00             4.382               1164300200444 
 2.486  -04   13.      6.11   +00             4.382               1164300200445 
 2.507  -04   13.      5.31   +00             4.382               1164300200446 
 2.527  -04   13.      7.29   +00             4.382               1164300200447 
 2.548  -04   13.      6.75   +00             4.382               1164300200448 
 2.570  -04   13.      6.94   +00             4.382               1164300200449 
 2.591  -04   13.      5.71   +00             4.382               1164300200450 
 2.613  -04   13.      7.14   +00             4.382               1164300200451 
 2.635  -04   13.      6.52   +00             4.382               1164300200452 
 2.657  -04   13.      5.75   +00             4.382               1164300200453 
 2.680  -04   13.      5.82   +00             4.382               1164300200454 
 2.703  -04   13.      6.21   +00             4.382               1164300200455 
 2.726  -04   13.      6.11   +00             4.382               1164300200456 
 2.750  -04   13.      6.50   +00 1.80   +00  4.382               1164300200457 
 2.765  -04   13.      7.37   +00 1.10   +00  4.382               1164300200458 
 2.775  -04   13.      2.886  +01             1.212               1164300200459 
 2.783  -04   13.      2.136  +01             1.212               1164300200460 
 2.791  -04   13.      3.412  +01             1.212               1164300200461 
 2.799  -04   13.      2.804  +01 4.70   +00  1.212               1164300200462 
 2.807  -04   13.      5.123  +01             1.212               1164300200463 
 2.815  -04   13.      6.662  +01             1.212               1164300200464 
 2.824  -04   13.      6.008  +01 4.90   +00  1.212               1164300200465 
 2.832  -04   13.      2.750  +01             1.212               1164300200466 
 2.840  -04   13.      2.955  +01 4.80   +00  1.212               1164300200467 
 2.848  -04   13.      2.488  +01             1.212               1164300200468 
 2.857  -04   13.      3.529  +01             1.212               1164300200469 
 2.865  -04   13.      2.259  +01 4.70   +00  1.212               1164300200470 
 2.872  -04   13.      7.22   +00             4.382               1164300200471 
 2.880  -04   13.      5.97   +00             4.382               1164300200472 
 2.889  -04   13.      6.65   +00 1.10   +00  4.382               1164300200473 
 2.897  -04   13.      6.82   +00             4.382               1164300200474 
 2.906  -04   13.      8.70   +00             4.382               1164300200475 
 2.914  -04   13.      7.72   +00             4.382               1164300200476 
 2.923  -04   13.      7.43   +00 1.00   +00  4.382               1164300200477 
 2.932  -04   13.      6.27   +00 1.10   +00  4.382               1164300200478 
 2.945  -04   13.      5.09   +00             4.382               1164300200479 
 2.967  -04   13.      5.82   +00             4.382               1164300200480 
 2.993  -04   13.      6.17   +00             4.382               1164300200481 
 3.020  -04   13.      6.29   +00 1.80   +00  4.382               1164300200482 
 3.039  -04   12.      6.13   +00 1.20   +00 21.11                1164300200483 
 3.057  -04   12.      7.19   +00            21.11                1164300200484 
 3.076  -04   12.      5.48   +00            21.11                1164300200485 
 3.114  -04   12.      7.31   +00 1.30   +00 21.11                1164300200486 
 3.126  -04   12.      7.48   +00            21.11                1164300200487 
 3.133  -04   12.      9.87   +00            21.11                1164300200488 
 3.139  -04   12.      1.307  +01 8.0    -01 21.11                1164300200489 
 3.145  -04   12.      1.524  +01 1.00   +00 21.11                1164300200490 
 3.152  -04   12.      1.378  +01 1.10   +00 21.11                1164300200491 
 3.158  -04   12.      1.093  +01 9.0    -01 21.11                1164300200492 
 3.165  -04   12.      8.77   +00            21.11                1164300200493 
 3.171  -04   12.      7.96   +00            21.11                1164300200494 
 3.178  -04   12.      5.84   +00            21.11                1164300200495 
 3.184  -04   12.      5.32   +00            21.11                1164300200496 
 3.191  -04   12.      4.43   +00            21.11                1164300200497 
 3.198  -04   12.      5.69   +00            21.11                1164300200498 
 3.204  -04   12.      5.17   +00            21.11                1164300200499 
 3.211  -04   12.      5.60   +00            21.11                1164300200500 
 3.217  -04   12.      6.76   +00            21.11                1164300200501 
 3.224  -04   12.      6.44   +00            21.11                1164300200502 
 3.231  -04   12.      6.61   +00            21.11                1164300200503 
 3.237  -04   12.      7.03   +00            21.11                1164300200504 
 3.244  -04   12.      7.19   +00            21.11                1164300200505 
 3.251  -04   12.      4.95   +00 8.0    -01 21.11                1164300200506 
 3.265  -04   12.      5.58   +00            21.11                1164300200507 
 3.285  -04   12.      6.18   +00 1.50   +00 21.11                1164300200508 
 3.306  -04   12.      5.18   +00 1.60   +00 21.11                1164300200509 
 3.327  -04   12.      4.34   +00            21.11                1164300200510 
 3.348  -04   12.      5.92   +00            21.11                1164300200511 
 3.369  -04   12.      5.60   +00            21.11                1164300200512 
 3.390  -04   12.      5.66   +00 1.70   +00 21.11                1164300200513 
 3.412  -04   12.      5.93   +00            21.11                1164300200514 
 3.434  -04   12.      5.45   +00 1.60   +00 21.11                1164300200515 
 3.456  -04   12.      6.01   +00            21.11                1164300200516 
 3.478  -04   12.      5.83   +00            21.11                1164300200517 
 3.501  -04   12.      5.63   +00 1.40   +00 21.11                1164300200518 
 3.524  -04   12.      5.75   +00            21.11                1164300200519 
 3.547  -04   12.      6.09   +00            21.11                1164300200520 
 3.570  -04   12.      6.46   +00 1.30   +00 21.11                1164300200521 
 3.593  -04   12.      6.47   +00            21.11                1164300200522 
 3.617  -04   12.      6.31   +00            21.11                1164300200523 
 3.641  -04   12.      6.69   +00 1.20   +00 21.11                1164300200524 
 3.665  -04   12.      7.73   +00            21.11                1164300200525 
 3.673  -04   12.      7.63   +00            21.11                1164300200526 
 3.681  -04   12.      8.08   +00            21.11                1164300200527 
 3.690  -04   12.      6.55   +00            21.11                1164300200528 
 3.698  -04   12.      6.26   +00            21.11                1164300200529 
 3.706  -04   12.      7.64   +00            21.11                1164300200530 
 3.714  -04   12.      6.50   +00            21.11                1164300200531 
 3.722  -04   12.      7.93   +00            21.11                1164300200532 
 3.731  -04   12.      8.03   +00 7.0    -01 21.11                1164300200533 
 3.739  -04   12.      1.085  +01            21.11                1164300200534 
 3.747  -04   12.      1.146  +01 8.0    -01 21.11                1164300200535 
 3.755  -04   12.      1.365  +01            21.11                1164300200536 
 3.764  -04   12.      1.224  +01 9.0    -01 21.11                1164300200537 
 3.773  -04   12.      1.185  +01            21.11                1164300200538 
 3.781  -04   12.      1.128  +01 8.0    -01 21.11                1164300200539 
 3.790  -04   12.      9.91   +00            21.11                1164300200540 
 3.798  -04   12.      8.74   +00 7.0    -01 21.11                1164300200541 
 3.824  -04   12.      6.83   +00            21.11                1164300200542 
 3.850  -04   12.      6.51   +00 1.20   +00 21.11                1164300200543 
 3.876  -04   12.      6.36   +00            21.11                1164300200544 
 3.903  -04   12.      6.35   +00            21.11                1164300200545 
 3.929  -04   12.      6.24   +00            21.11                1164300200546 
 3.957  -04   12.      5.82   +00            21.11                1164300200547 
 3.984  -04   12.      7.20   +00 1.10   +00 21.11                1164300200548 
 4.002  -04   12.      9.49   +00            21.11                1164300200549 
 4.011  -04   13.      1.107  +01 1.00   +00  4.382               1164300200550 
 4.012  -04   12.      9.19   +00            21.11                1164300200551 
 4.021  -04   12.      1.076  +01 7.0    -01 21.11                1164300200552 
 4.028  -04   13.      4.747  +01 4.40   +00  1.212               1164300200553 
 4.047  -04   13.      5.490  +01 4.60   +00  1.212               1164300200554 
 4.056  -04   13.      5.447  +01 4.50   +00  1.212               1164300200555 
 4.067  -04   13.      1.841  +01             4.382               1164300200556 
 4.081  -04   13.      1.224  +01 1.00   +00  4.382               1164300200557 
 4.087  -04   12.      9.53   +00            21.11                1164300200558 
 4.096  -04   12.      8.21   +00            21.11                1164300200559 
 4.106  -04   12.      9.13   +00            21.11                1164300200560 
 4.115  -04   12.      7.98   +00            21.11                1164300200561 
 4.125  -04   12.      8.34   +00            21.11                1164300200562 
 4.135  -04   12.      9.87   +00 7.0    -01 21.11                1164300200563 
 4.139  -04   13.      1.321  +01             4.382               1164300200564 
 4.154  -04   13.      2.110  +01             4.382               1164300200565 
 4.157  -04   13.      4.935  +01 4.50   +00  1.212               1164300200566 
 4.168  -04   13.      3.283  +01 1.00   +00  4.382               1164300200567 
 4.171  -04   13.      6.809  +01 4.60   +00  1.212               1164300200568 
 4.186  -04   13.      7.661  +01 4.70   +00  1.212               1164300200569 
 4.201  -04   13.      5.803  +01 4.60   +00  1.212               1164300200570 
 4.213  -04   13.      1.864  +01 1.00   +00  4.382               1164300200571 
 4.216  -04   13.      3.477  +01 4.40   +00  1.212               1164300200572 
 4.228  -04   13.      1.184  +01             4.382               1164300200573 
 4.243  -04   13.      1.062  +01 9.0    -01  4.382               1164300200574 
 4.253  -04   12.      9.63   +00            21.11                1164300200575 
 4.264  -04   12.      8.86   +00            21.11                1164300200576 
 4.274  -04   12.      8.62   +00 7.0    -01 21.11                1164300200577 
 4.284  -04   12.      8.20   +00            21.11                1164300200578 
 4.294  -04   12.      7.51   +00            21.11                1164300200579 
 4.305  -04   12.      7.84   +00 6.0    -01 21.11                1164300200580 
 4.315  -04   12.      7.84   +00 7.0    -01 21.11                1164300200581 
 4.325  -04   12.      8.69   +00 6.0    -01 21.11                1164300200582 
 4.336  -04   12.      8.93   +00            21.11                1164300200583 
 4.346  -04   12.      9.59   +00 7.0    -01 21.11                1164300200584 
 4.367  -04   12.      7.28   +00            21.11                1164300200585 
 4.399  -04   12.      7.27   +00            21.11                1164300200586 
 4.431  -04   12.      7.29   +00 1.00   +00 21.11                1164300200587 
 4.452  -04   12.      7.59   +00            21.11                1164300200588 
 4.463  -04   12.      8.58   +00            21.11                1164300200589 
 4.474  -04   12.      7.23   +00            21.11                1164300200590 
 4.485  -04   12.      7.69   +00 6.0    -01 21.11                1164300200591 
 4.507  -04   12.      7.23   +00            21.11                1164300200592 
 4.540  -04   12.      6.73   +00            21.11                1164300200593 
 4.574  -04   12.      7.06   +00            21.11                1164300200594 
 4.608  -04   12.      7.56   +00 1.00   +00 21.11                1164300200595 
 4.631  -04   12.      7.83   +00 6.0    -01 21.11                1164300200596 
 4.642  -04   12.      1.059  +01            21.11                1164300200597 
 4.654  -04   12.      9.80   +00            21.11                1164300200598 
 4.665  -04   12.      9.13   +00 7.0    -01 21.11                1164300200599 
 4.677  -04   12.      8.69   +00 6.0    -01 21.11                1164300200600 
 4.701  -04   12.      7.60   +00            21.11                1164300200601 
 4.736  -04   12.      7.25   +00            21.11                1164300200602 
 4.772  -04   12.      6.54   +00            21.11                1164300200603 
 4.808  -04   12.      7.08   +00            21.11                1164300200604 
 4.845  -04   12.      7.91   +00            21.11                1164300200605 
 4.882  -04   12.      7.02   +00            21.11                1164300200606 
 4.919  -04   12.      7.53   +00            21.11                1164300200607 
 4.957  -04   12.      7.94   +00            21.11                1164300200608 
 4.996  -04   12.      7.88   +00            21.11                1164300200609 
 5.035  -04   12.      7.65   +00 1.00   +00 21.11                1164300200610 
 5.061  -04   12.      8.32   +00            21.11                1164300200611 
 5.074  -04   12.      9.72   +00            21.11                1164300200612 
 5.087  -04   12.      1.242  +01            21.11                1164300200613 
 5.100  -04   12.      1.292  +01            21.11                1164300200614 
 5.114  -04   12.      1.150  +01 7.0    -01 21.11                1164300200615 
 5.127  -04   12.      1.015  +01            21.11                1164300200616 
 5.140  -04   12.      9.12   +00            21.11                1164300200617 
 5.154  -04   12.      8.98   +00            21.11                1164300200618 
 5.167  -04   12.      7.64   +00 6.0    -01 21.11                1164300200619 
 5.195  -04   12.      7.41   +00            21.11                1164300200620 
 5.236  -04   12.      8.10   +00            21.11                1164300200621 
 5.277  -04   12.      7.41   +00            21.11                1164300200622 
 5.320  -04   12.      6.58   +00            21.11                1164300200623 
 5.362  -04   12.      7.66   +00            21.11                1164300200624 
 5.405  -04   12.      7.40   +00            21.11                1164300200625 
 5.449  -04   12.      6.97   +00            21.11                1164300200626 
 5.493  -04   12.      6.84   +00            21.11                1164300200627 
 5.538  -04   12.      6.81   +00            21.11                1164300200628 
 5.584  -04   12.      6.89   +00 1.00   +00 21.11                1164300200629 
 5.630  -04   12.      7.15   +00            21.11                1164300200630 
 5.676  -04   12.      8.15   +00 1.10   +00 21.11                1164300200631 
 5.707  -04   12.      9.36   +00 6.0    -01 21.11                1164300200632 
 5.723  -04   12.      9.43   +00 8.0    -01 21.11                1164300200633 
 5.739  -04   12.      1.137  +01 9.0    -01 21.11                1164300200634 
 5.755  -04   12.      1.430  +01 1.10   +00 21.11                1164300200635 
 5.771  -04   12.      1.313  +01            21.11                1164300200636 
 5.787  -04   12.      1.083  +01 1.00   +00 21.11                1164300200637 
 5.803  -04   12.      1.084  +01            21.11                1164300200638 
 5.819  -04   12.      8.06   +00 8.0    -01 21.11                1164300200639 
 5.835  -04   12.      1.240  +01 7.0    -01 21.11                1164300200640 
 5.851  -04   12.      1.028  +01            21.11                1164300200641 
 5.868  -04   12.      1.139  +01            21.11                1164300200642 
 5.884  -04   12.      1.178  +01            21.11                1164300200643 
 5.901  -04   12.      1.168  +01            21.11                1164300200644 
 5.917  -04   12.      1.082  +01 7.0    -01 21.11                1164300200645 
 5.934  -04   12.      9.37   +00            21.11                1164300200646 
 5.951  -04   12.      6.64   +00 6.0    -01 21.11                1164300200647 
 5.984  -04   12.      7.09   +00            21.11                1164300200648 
 6.035  -04   12.      7.33   +00            21.11                1164300200649 
 6.087  -04   12.      7.52   +00            21.11                1164300200650 
 6.139  -04   12.      6.70   +00            21.11                1164300200651 
 6.192  -04   12.      7.51   +00            21.11                1164300200652 
 6.246  -04   12.      7.53   +00            21.11                1164300200653 
 6.300  -04   12.      7.14   +00            21.11                1164300200654 
 6.355  -04   12.      6.98   +00            21.11                1164300200655 
 6.411  -04   12.      7.40   +00 1.00   +00 21.11                1164300200656 
 6.448  -04   12.      8.34   +00            21.11                1164300200657 
 6.467  -04   12.      9.25   +00            21.11                1164300200658 
 6.486  -04   12.      1.022  +01            21.11                1164300200659 
 6.505  -04   12.      1.071  +01            21.11                1164300200660 
 6.525  -04   12.      9.62   +00            21.11                1164300200661 
 6.544  -04   12.      8.06   +00 6.0    -01 21.11                1164300200662 
 6.583  -04   12.      7.05   +00            21.11                1164300200663 
 6.641  -04   12.      8.08   +00 1.00   +00 21.11                1164300200664 
 6.721  -04   12.      7.46   +00 1.30   +00 21.11                1164300200665 
 6.823  -04   12.      7.02   +00            21.11                1164300200666 
 6.926  -04   12.      7.56   +00            21.11                1164300200667 
 7.033  -04   12.      6.94   +00            21.11                1164300200668 
 7.141  -04   12.      7.30   +00            21.11                1164300200669 
 7.253  -04   12.      7.39   +00            21.11                1164300200670 
 7.367  -04   12.      7.36   +00            21.11                1164300200671 
 7.483  -04   12.      6.99   +00            21.11                1164300200672 
 7.603  -04   12.      6.88   +00            21.11                1164300200673 
 7.725  -04   12.      7.41   +00            21.11                1164300200674 
 7.850  -04   12.      6.77   +00            21.11                1164300200675 
 7.979  -04   12.      7.01   +00            21.11                1164300200676 
 8.110  -04   12.      7.12   +00            21.11                1164300200677 
 8.259  -04   12.      7.42   +00            21.11                1164300200678 
 8.411  -04   12.      6.89   +00 1.20   +00 21.11                1164300200679 
 8.525  -04   12.      6.99   +00            21.11                1164300200680 
 8.611  -04   12.      7.20   +00 9.0    -01 21.11                1164300200681 
 8.670  -04   12.      7.67   +00            21.11                1164300200682 
 8.699  -04   12.      8.74   +00 5.0    -01 21.11                1164300200683 
 8.729  -04   12.      9.89   +00            21.11                1164300200684 
 8.759  -04   12.      1.136  +01            21.11                1164300200685 
 8.789  -04   12.      1.160  +01 6.0    -01 21.11                1164300200686 
 8.834  -04   12.      1.085  +01            21.11                1164300200687 
 8.895  -04   12.      9.12   +00            21.11                1164300200688 
 9.003  -04   12.      7.47   +00            21.11                1164300200689 
 9.097  -04   12.      7.19   +00            21.11                1164300200690 
 9.193  -04   12.      6.89   +00            21.11                1164300200691 
 9.290  -04   12.      7.62   +00 8.0    -01 21.11                1164300200692 
 9.356  -04   12.      7.98   +00            21.11                1164300200693 
 9.389  -04   12.      9.19   +00 5.0    -01 21.11                1164300200694 
 9.439  -04   12.      8.57   +00            21.11                1164300200695 
 9.523  -04   12.      7.78   +00            21.11                1164300200696 
 9.625  -04   12.      7.59   +00            21.11                1164300200697 
 9.729  -04   12.      7.60   +00            21.11                1164300200698 
 9.835  -04   12.      7.47   +00            21.11                1164300200699 
 9.943  -04   12.      6.68   +00            21.11                1164300200700 
 1.005  -03   12.      7.09   +00            21.11                1164300200701 
 1.016  -03   12.      7.30   +00 8.0    -01 21.11                1164300200702 
 1.023  -03   12.      7.84   +00            21.11                1164300200703 
 1.027  -03   12.      9.16   +00            21.11                1164300200704 
 1.031  -03   12.      8.06   +00            21.11                1164300200705 
 1.035  -03   12.      7.64   +00 5.0    -01 21.11                1164300200706 
 1.046  -03   12.      7.77   +00            21.11                1164300200707 
 1.062  -03   12.      6.92   +00            21.11                1164300200708 
 1.074  -03   12.      7.05   +00 8.0    -01 21.11                1164300200709 
 1.087  -03   12.      6.67   +00 9.0    -01 21.11                1164300200710 
 1.099  -03   12.      7.21   +00            21.11                1164300200711 
 1.112  -03   12.      6.74   +00            21.11                1164300200712 
 1.125  -03   12.      7.01   +00            21.11                1164300200713 
 1.138  -03   12.      7.54   +00            21.11                1164300200714 
 1.151  -03   12.      7.99   +00            21.11                1164300200715 
 1.165  -03   12.      7.31   +00 8.0    -01 21.11                1164300200716 
 1.174  -03   12.      8.15   +00            21.11                1164300200717 
 1.179  -03   12.      7.76   +00            21.11                1164300200718 
 1.184  -03   12.      8.37   +00            21.11                1164300200719 
 1.188  -03   12.      9.21   +00            21.11                1164300200720 
 1.193  -03   12.      9.31   +00            21.11                1164300200721 
 1.198  -03   12.      1.068  +01            21.11                1164300200722 
 1.203  -03   12.      1.000  +01            21.11                1164300200723 
 1.207  -03   12.      9.08   +00            21.11                1164300200724 
 1.212  -03   12.      8.45   +00            21.11                1164300200725 
 1.217  -03   12.      8.29   +00            21.11                1164300200726 
 1.222  -03   12.      9.03   +00            21.11                1164300200727 
 1.232  -03   12.      8.09   +00            21.11                1164300200728 
 1.237  -03   12.      9.24   +00            21.11                1164300200729 
 1.237  -03   12.      6.34   +00            21.11                1164300200730 
 1.242  -03   12.      7.49   +00            21.11                1164300200731 
 1.247  -03   12.      7.48   +00 5.0    -01 21.11                1164300200732 
ENDDATA            725          0                                 1164300200733 
ENDSUBENT          732          0                                 1164300299999 
ENDENTRY             2          0                                 1164399999999 
