ENTRY            11854   19840611                             00001185400000001 
SUBENT        11854001   19840611                             00001185400100001 
BIB                  7          9                                 1185400100002 
INSTITUTE  (1USAANL)                                              1185400100003 
REFERENCE  (J,NP,48,593,63)                                       1185400100004 
AUTHOR     (D.REITMANN,C.A.ENGELBRECHT,A.B.SMITH)                 1185400100005 
TITLE      SCATTERING OF FAST NEUTRONS FROM NATURAL ZR AND NB.    1185400100006 
INC-SOURCE (P-LI7) LI-7(P,N) SOURCE                               1185400100007 
STATUS     (SCSRS)                                                1185400100008 
HISTORY    (760731T) TRANSLATED FROM SCISRS                       1185400100009 
           (830919A) CONVERTED TO REACTION FORMALISM              1185400100010 
           (840611A) BIB CORRECTION, SUBENT 009 ADDED.            1185400100011 
ENDBIB               9          0                                 1185400100012 
NOCOMMON             0          0                                 1185400100013 
ENDSUBENT           12          0                                 1185400199999 
SUBENT        11854002   19860522                             00001185400200001 
BIB                  5          5                                 1185400200002 
REACTION   (40-ZR-0(N,EL)40-ZR-0,,DA,,LEG/RS)                     1185400200003 
METHOD     (TOF)      TIME-OF-FLIGHT                              1185400200004 
MONITOR    (6-C-0(N,EL)6-C-0,,SIG)                                1185400200005 
STATUS     (COREL,11854003)                                       1185400200006 
HISTORY    (860522A) REACTION PRODUCT ADDED.                      1185400200007 
ENDBIB               5          0                                 1185400200008 
NOCOMMON             0          0                                 1185400200009 
DATA                 4        125                                 1185400200010 
EN         NUMBER     DATA       DATA-ERR                         1185400200011 
MEV        NO-DIM     NO-DIM     NO-DIM                           1185400200012 
 3.00   -01    1.      5.81   -01 1.6    -02                      1185400200013 
 3.00   -01    2.      3.23   -01 2.8    -02                      1185400200014 
 3.00   -01    3.      1.05   -01 3.2    -02                      1185400200015 
 3.00   -01    4.      1.5    -02 4.1    -02                      1185400200016 
 3.00   -01    5.     -8.     -03 3.8    -02                      1185400200017 
 3.40   -01    1.      4.73   -01 4.8    -02                      1185400200018 
 3.40   -01    2.      5.35   -01 5.6    -02                      1185400200019 
 3.40   -01    3.      7.9    -02 8.7    -02                      1185400200020 
 3.40   -01    4.      6.4    -02 7.8    -02                      1185400200021 
 3.40   -01    5.      5.6    -02 9.6    -02                      1185400200022 
 3.90   -01    1.      6.08   -01 2.4    -02                      1185400200023 
 3.90   -01    2.      5.04   -01 2.7    -02                      1185400200024 
 3.90   -01    3.      1.68   -01 4.3    -02                      1185400200025 
 3.90   -01    4.      4.7    -02 3.8    -02                      1185400200026 
 3.90   -01    5.      9.2    -02 4.7    -02                      1185400200027 
 4.40   -01    1.      7.46   -01 2.1    -02                      1185400200028 
 4.40   -01    2.      4.66   -01 2.5    -02                      1185400200029 
 4.40   -01    3.     -3.9    -02 4.0    -02                      1185400200030 
 4.40   -01    4.     -5.7    -02 3.3    -02                      1185400200031 
 4.40   -01    5.     -1.01   -01 4.5    -02                      1185400200032 
 4.90   -01    1.      8.42   -01 1.5    -02                      1185400200033 
 4.90   -01    2.      4.90   -01 1.7    -02                      1185400200034 
 4.90   -01    3.      5.7    -02 2.7    -02                      1185400200035 
 4.90   -01    4.      3.7    -02 2.4    -02                      1185400200036 
 4.90   -01    5.     -9.     -03 3.0    -02                      1185400200037 
 5.50   -01    1.      8.57   -01 3.8    -02                      1185400200038 
 5.50   -01    2.      6.32   -01 4.5    -02                      1185400200039 
 5.50   -01    3.     -2.7    -02 7.0    -02                      1185400200040 
 5.50   -01    4.      9.2    -02 6.4    -02                      1185400200041 
 5.50   -01    5.     -6.9    -02 7.9    -02                      1185400200042 
 5.90   -01    1.      9.39   -01 5.     -03                      1185400200043 
 5.90   -01    2.      5.77   -01 6.     -03                      1185400200044 
 5.90   -01    3.      1.36   -01 1.0    -02                      1185400200045 
 5.90   -01    4.      6.3    -02 9.     -03                      1185400200046 
 5.90   -01    5.      2.6    -02 1.1    -02                      1185400200047 
 6.40   -01    1.      1.042  +00 1.11   -01                      1185400200048 
 6.40   -01    2.      5.98   -01 1.33   -01                      1185400200049 
 6.40   -01    3.      2.35   -01 2.06   -01                      1185400200050 
 6.40   -01    4.      8.3    -02 1.88   -01                      1185400200051 
 6.40   -01    5.      2.13   -01 2.32   -01                      1185400200052 
 6.90   -01    1.      1.057  +00 4.0    -02                      1185400200053 
 6.90   -01    2.      6.06   -01 4.6    -02                      1185400200054 
 6.90   -01    3.      1.83   -01 7.3    -02                      1185400200055 
 6.90   -01    4.      6.5    -02 6.5    -02                      1185400200056 
 6.90   -01    5.      1.21   -01 7.9    -02                      1185400200057 
 7.40   -01    1.      1.062  +00 7.3    -02                      1185400200058 
 7.40   -01    2.      7.72   -01 8.7    -02                      1185400200059 
 7.40   -01    3.      7.5    -02 1.35   -01                      1185400200060 
 7.40   -01    4.      8.1    -02 1.23   -01                      1185400200061 
 7.40   -01    5.     -7.3    -02 1.52   -01                      1185400200062 
 7.90   -01    1.      1.057  +00 6.4    -02                      1185400200063 
 7.90   -01    2.      5.95   -01 7.9    -02                      1185400200064 
 7.90   -01    3.      8.7    -02 1.20   -01                      1185400200065 
 7.90   -01    4.      2.4    -02 1.06   -01                      1185400200066 
 7.90   -01    5.      3.6    -02 1.31   -01                      1185400200067 
 8.40   -01    1.      9.97   -01 2.8    -02                      1185400200068 
 8.40   -01    2.      7.16   -01 3.3    -02                      1185400200069 
 8.40   -01    3.      4.4    -02 5.1    -02                      1185400200070 
 8.40   -01    4.      3.3    -02 4.7    -02                      1185400200071 
 8.40   -01    5.     -1.5    -02 5.8    -02                      1185400200072 
 8.90   -01    1.      1.162  +00 9.2    -02                      1185400200073 
 8.90   -01    2.      7.20   -01 1.08   -01                      1185400200074 
 8.90   -01    3.      4.8    -02 1.68   -01                      1185400200075 
 8.90   -01    4.      2.     -03 1.49   -01                      1185400200076 
 8.90   -01    5.     -5.9    -02 1.85   -01                      1185400200077 
 9.40   -01    1.      1.242  +00 1.03   -01                      1185400200078 
 9.40   -01    2.      8.88   -01 1.22   -01                      1185400200079 
 9.40   -01    3.      3.41   -01 1.90   -01                      1185400200080 
 9.40   -01    4.      1.47   -01 1.74   -01                      1185400200081 
 9.40   -01    5.      1.17   -01 2.14   -01                      1185400200082 
 9.90   -01    1.      1.127  +00 3.5    -02                      1185400200083 
 9.90   -01    2.      9.75   -01 4.2    -02                      1185400200084 
 9.90   -01    3.      1.44   -01 6.7    -02                      1185400200085 
 9.90   -01    4.      1.47   -01 5.5    -02                      1185400200086 
 9.90   -01    5.     -1.04   -01 7.5    -02                      1185400200087 
 1.040  +00    1.      1.123  +00 2.5    -02                      1185400200088 
 1.040  +00    2.      9.86   -01 2.9    -02                      1185400200089 
 1.040  +00    3.      2.49   -01 4.5    -02                      1185400200090 
 1.040  +00    4.      1.25   -01 4.0    -02                      1185400200091 
 1.040  +00    5.     -9.5    -02 5.0    -02                      1185400200092 
 1.090  +00    1.      1.043  +00 5.2    -02                      1185400200093 
 1.090  +00    2.      9.75   -01 6.0    -02                      1185400200094 
 1.090  +00    3.      1.95   -01 9.3    -02                      1185400200095 
 1.090  +00    4.      1.84   -01 8.1    -02                      1185400200096 
 1.090  +00    5.     -5.5    -02 9.8    -02                      1185400200097 
 1.140  +00    1.      1.094  +00 1.00   -01                      1185400200098 
 1.140  +00    2.      1.059  +00 1.18   -01                      1185400200099 
 1.140  +00    3.      1.02   -01 1.82   -01                      1185400200100 
 1.140  +00    4.      7.8    -02 1.58   -01                      1185400200101 
 1.140  +00    5.     -1.6    -02 1.92   -01                      1185400200102 
 1.190  +00    1.      1.223  +00 4.5    -02                      1185400200103 
 1.190  +00    2.      1.084  +00 5.3    -02                      1185400200104 
 1.190  +00    3.      3.60   -01 8.2    -02                      1185400200105 
 1.190  +00    4.      2.45   -01 7.3    -02                      1185400200106 
 1.190  +00    5.     -3.8    -02 9.0    -02                      1185400200107 
 1.250  +00    1.      1.224  +00 4.6    -02                      1185400200108 
 1.250  +00    2.      1.088  +00 6.6    -02                      1185400200109 
 1.250  +00    3.      5.11   -01 8.4    -02                      1185400200110 
 1.250  +00    4.      3.19   -01 9.3    -02                      1185400200111 
 1.250  +00    5.      1.74   -01 9.5    -02                      1185400200112 
 1.300  +00    1.      1.229  +00 1.7    -02                      1185400200113 
 1.300  +00    2.      1.180  +00 2.4    -02                      1185400200114 
 1.300  +00    3.      5.27   -01 3.0    -02                      1185400200115 
 1.300  +00    4.      2.78   -01 3.4    -02                      1185400200116 
 1.300  +00    5.      7.3    -02 3.4    -02                      1185400200117 
 1.350  +00    1.      1.214  +00 3.1    -02                      1185400200118 
 1.350  +00    2.      1.020  +00 4.4    -02                      1185400200119 
 1.350  +00    3.      5.49   -01 5.6    -02                      1185400200120 
 1.350  +00    4.      2.18   -01 6.2    -02                      1185400200121 
 1.350  +00    5.      2.60   -01 6.4    -02                      1185400200122 
 1.400  +00    1.      1.169  +00 8.7    -02                      1185400200123 
 1.400  +00    2.      9.21   -01 1.20   -01                      1185400200124 
 1.400  +00    3.      3.98   -01 1.57   -01                      1185400200125 
 1.400  +00    4.      1.56   -01 1.74   -01                      1185400200126 
 1.400  +00    5.      1.90   -01 1.75   -01                      1185400200127 
 1.450  +00    1.      1.195  +00 2.7    -02                      1185400200128 
 1.450  +00    2.      1.211  +00 3.9    -02                      1185400200129 
 1.450  +00    3.      5.34   -01 4.9    -02                      1185400200130 
 1.450  +00    4.      3.66   -01 5.4    -02                      1185400200131 
 1.450  +00    5.      1.20   -01 5.6    -02                      1185400200132 
 1.500  +00    1.      1.209  +00 3.6    -02                      1185400200133 
 1.500  +00    2.      1.100  +00 5.1    -02                      1185400200134 
 1.500  +00    3.      6.61   -01 6.5    -02                      1185400200135 
 1.500  +00    4.      3.74   -01 7.1    -02                      1185400200136 
 1.500  +00    5.      2.48   -01 7.3    -02                      1185400200137 
ENDDATA            127          0                                 1185400200138 
ENDSUBENT          137          0                                 1185400299999 
SUBENT        11854003   19860522                             00001185400300001 
BIB                  5          5                                 1185400300002 
REACTION   (40-ZR-0(N,EL)40-ZR-0,,SIG)                            1185400300003 
METHOD     (TOF)      TIME-OF-FLIGHT                              1185400300004 
MONITOR    (6-C-0(N,EL)6-C-0,,SIG)                                1185400300005 
STATUS     (COREL,11854002)                                       1185400300006 
HISTORY    (860522A) REACTION PRODUCT ADDED.                      1185400300007 
ENDBIB               5          0                                 1185400300008 
NOCOMMON             0          0                                 1185400300009 
DATA                 2         25                                 1185400300010 
EN         DATA                                                   1185400300011 
MEV        B                                                      1185400300012 
 3.00   -01 9.24   +00                                            1185400300013 
 3.40   -01 8.75   +00                                            1185400300014 
 3.90   -01 9.35   +00                                            1185400300015 
 4.40   -01 1.049  +01                                            1185400300016 
 4.90   -01 9.46   +00                                            1185400300017 
 5.50   -01 9.81   +00                                            1185400300018 
 5.90   -01 9.47   +00                                            1185400300019 
 6.40   -01 8.38   +00                                            1185400300020 
 6.90   -01 8.61   +00                                            1185400300021 
 7.40   -01 8.71   +00                                            1185400300022 
 7.90   -01 8.39   +00                                            1185400300023 
 8.40   -01 7.61   +00                                            1185400300024 
 8.90   -01 8.46   +00                                            1185400300025 
 9.40   -01 7.75   +00                                            1185400300026 
 9.90   -01 6.91   +00                                            1185400300027 
 1.040  +00 6.02   +00                                            1185400300028 
 1.090  +00 5.94   +00                                            1185400300029 
 1.140  +00 6.29   +00                                            1185400300030 
 1.190  +00 5.26   +00                                            1185400300031 
 1.250  +00 5.80   +00                                            1185400300032 
 1.300  +00 5.71   +00                                            1185400300033 
 1.350  +00 5.11   +00                                            1185400300034 
 1.400  +00 4.77   +00                                            1185400300035 
 1.450  +00 5.35   +00                                            1185400300036 
 1.500  +00 4.65   +00                                            1185400300037 
ENDDATA             27          0                                 1185400300038 
ENDSUBENT           37          0                                 1185400399999 
SUBENT        11854004   19860522                             00001185400400001 
BIB                  4          4                                 1185400400002 
REACTION   (40-ZR-0(N,INL),PAR,SIG)                               1185400400003 
METHOD     (TOF)      TIME-OF-FLIGHT                              1185400400004 
MONITOR    (6-C-0(N,EL)6-C-0,,SIG)                                1185400400005 
HISTORY    (860522A) REACTION PRODUCT ADDED.                      1185400400006 
ENDBIB               4          0                                 1185400400007 
COMMON               1          3                                 1185400400008 
E-LVL                                                             1185400400009 
MEV                                                               1185400400010 
     .92                                                          1185400400011 
ENDCOMMON            3          0                                 1185400400012 
DATA                 3          6                                 1185400400013 
EN         DATA       DATA-ERR                                    1185400400014 
MEV        B          B                                           1185400400015 
 1.2    +00 1.35   -01 6.0    -02                                 1185400400016 
 1.25   +00 2.3    -01 6.     -02                                 1185400400017 
 1.3    +00 3.15   -01 8.5    -02                                 1185400400018 
 1.35   +00 2.4    -01 6.     -02                                 1185400400019 
 1.4    +00 4.5    -01 1.1    -01                                 1185400400020 
 1.5    +00 3.8    -01 1.0    -01                                 1185400400021 
ENDDATA              8          0                                 1185400400022 
ENDSUBENT           21          0                                 1185400499999 
SUBENT        11854005   19860522                             00001185400500001 
BIB                  5          5                                 1185400500002 
REACTION   (41-NB-93(N,EL)41-NB-93,,DA,,LEG/RS)                   1185400500003 
METHOD     (TOF)      TIME-OF-FLIGHT                              1185400500004 
MONITOR    (6-C-0(N,EL)6-C-0,,SIG)                                1185400500005 
STATUS     (COREL,11854006)                                       1185400500006 
HISTORY    (860522A) REACTION PRODUCT ADDED.                      1185400500007 
ENDBIB               5          0                                 1185400500008 
NOCOMMON             0          0                                 1185400500009 
DATA                 4        125                                 1185400500010 
EN         NUMBER     DATA       DATA-ERR                         1185400500011 
MEV        NO-DIM     NO-DIM     NO-DIM                           1185400500012 
 3.00   -01    1.      5.34   -01 5.3    -02                      1185400500013 
 3.00   -01    2.      2.80   -01 6.2    -02                      1185400500014 
 3.00   -01    3.     -2.4    -02 9.7    -02                      1185400500015 
 3.00   -01    4.      4.6    -02 8.8    -02                      1185400500016 
 3.00   -01    5.     -1.50   -01 1.11   -01                      1185400500017 
 3.40   -01    1.      6.47   -01 6.5    -02                      1185400500018 
 3.40   -01    2.      4.08   -01 7.6    -02                      1185400500019 
 3.40   -01    3.      9.2    -02 1.19   -01                      1185400500020 
 3.40   -01    4.      8.6    -02 1.06   -01                      1185400500021 
 3.40   -01    5.      2.1    -02 1.31   -01                      1185400500022 
 3.90   -01    1.      6.77   -01 2.4    -02                      1185400500023 
 3.90   -01    2.      4.27   -01 2.7    -02                      1185400500024 
 3.90   -01    3.      8.9    -02 4.3    -02                      1185400500025 
 3.90   -01    4.      1.29   -01 3.8    -02                      1185400500026 
 3.90   -01    5.      5.     -03 4.7    -02                      1185400500027 
 4.40   -01    1.      7.60   -01 3.6    -02                      1185400500028 
 4.40   -01    2.      3.53   -01 4.3    -02                      1185400500029 
 4.40   -01    3.      5.4    -02 6.8    -02                      1185400500030 
 4.40   -01    4.     -3.6    -02 5.6    -02                      1185400500031 
 4.40   -01    5.      0.     +00 7.7    -02                      1185400500032 
 4.90   -01    1.      7.97   -01 7.     -03                      1185400500033 
 4.90   -01    2.      3.44   -01 8.     -03                      1185400500034 
 4.90   -01    3.      6.3    -02 1.3    -02                      1185400500035 
 4.90   -01    4.      2.2    -02 1.1    -02                      1185400500036 
 4.90   -01    5.     -1.5    -02 1.4    -02                      1185400500037 
 5.50   -01    1.      8.80   -01 3.1    -02                      1185400500038 
 5.50   -01    2.      4.01   -01 3.7    -02                      1185400500039 
 5.50   -01    3.      9.7    -02 5.7    -02                      1185400500040 
 5.50   -01    4.      6.4    -02 5.2    -02                      1185400500041 
 5.50   -01    5.      4.8    -02 6.4    -02                      1185400500042 
 5.90   -01    1.      9.40   -01 5.     -03                      1185400500043 
 5.90   -01    2.      4.54   -01 6.     -03                      1185400500044 
 5.90   -01    3.      1.51   -01 9.     -03                      1185400500045 
 5.90   -01    4.      6.5    -02 8.     -03                      1185400500046 
 5.90   -01    5.      5.5    -02 1.0    -02                      1185400500047 
 6.40   -01    1.      1.033  +00 1.18   -01                      1185400500048 
 6.40   -01    2.      4.44   -01 1.40   -01                      1185400500049 
 6.40   -01    3.      2.09   -01 2.18   -01                      1185400500050 
 6.40   -01    4.      1.73   -01 2.00   -01                      1185400500051 
 6.40   -01    5.      2.17   -01 2.47   -01                      1185400500052 
 6.90   -01    1.      9.97   -01 5.7    -02                      1185400500053 
 6.90   -01    2.      4.91   -01 6.6    -02                      1185400500054 
 6.90   -01    3.      1.14   -01 1.05   -01                      1185400500055 
 6.90   -01    4.      4.1    -02 9.3    -02                      1185400500056 
 6.90   -01    5.      5.6    -02 1.15   -01                      1185400500057 
 7.40   -01    1.      9.99   -01 7.4    -02                      1185400500058 
 7.40   -01    2.      5.41   -01 8.8    -02                      1185400500059 
 7.40   -01    3.      9.5    -02 1.37   -01                      1185400500060 
 7.40   -01    4.      7.1    -02 1.25   -01                      1185400500061 
 7.40   -01    5.     -4.     -03 1.55   -01                      1185400500062 
 7.90   -01    1.      9.94   -01 8.1    -02                      1185400500063 
 7.90   -01    2.      5.04   -01 9.5    -02                      1185400500064 
 7.90   -01    3.      4.0    -02 1.45   -01                      1185400500065 
 7.90   -01    4.      1.9    -02 1.30   -01                      1185400500066 
 7.90   -01    5.     -5.5    -02 1.71   -01                      1185400500067 
 8.40   -01    1.      1.086  +00 3.7    -02                      1185400500068 
 8.40   -01    2.      5.90   -01 4.4    -02                      1185400500069 
 8.40   -01    3.      1.50   -01 6.9    -02                      1185400500070 
 8.40   -01    4.     -3.5    -02 6.3    -02                      1185400500071 
 8.40   -01    5.      1.7    -02 7.7    -02                      1185400500072 
 8.90   -01    1.      9.14   -01 6.2    -02                      1185400500073 
 8.90   -01    2.      5.16   -01 7.4    -02                      1185400500074 
 8.90   -01    3.      3.2    -02 1.16   -01                      1185400500075 
 8.90   -01    4.     -1.7    -02 1.06   -01                      1185400500076 
 8.90   -01    5.     -6.9    -02 1.30   -01                      1185400500077 
 9.40   -01    1.      1.163  +00 8.6    -02                      1185400500078 
 9.40   -01    2.      7.25   -01 1.02   -01                      1185400500079 
 9.40   -01    3.      2.04   -01 1.59   -01                      1185400500080 
 9.40   -01    4.      8.4    -02 1.45   -01                      1185400500081 
 9.40   -01    5.      2.8    -02 1.79   -01                      1185400500082 
 9.90   -01    1.      1.144  +00 3.0    -02                      1185400500083 
 9.90   -01    2.      8.43   -01 3.7    -02                      1185400500084 
 9.90   -01    3.      2.18   -01 5.9    -02                      1185400500085 
 9.90   -01    4.      1.39   -01 4.9    -02                      1185400500086 
 9.90   -01    5.     -4.     -03 6.7    -02                      1185400500087 
 1.040  +00    1.      1.187  +00 4.1    -02                      1185400500088 
 1.040  +00    2.      8.72   -01 4.8    -02                      1185400500089 
 1.040  +00    3.      2.46   -01 7.5    -02                      1185400500090 
 1.040  +00    4.      8.8    -02 6.6    -02                      1185400500091 
 1.040  +00    5.     -7.8    -02 8.2    -02                      1185400500092 
 1.090  +00    1.      1.227  +00 1.24   -01                      1185400500093 
 1.090  +00    2.      9.13   -01 1.44   -01                      1185400500094 
 1.090  +00    3.      1.12   -01 2.24   -01                      1185400500095 
 1.090  +00    4.      6.2    -02 1.94   -01                      1185400500096 
 1.090  +00    5.     -1.64   -01 2.36   -01                      1185400500097 
 1.140  +00    1.      1.277  +00 7.5    -02                      1185400500098 
 1.140  +00    2.      9.20   -01 8.9    -02                      1185400500099 
 1.140  +00    3.      2.96   -01 1.35   -01                      1185400500100 
 1.140  +00    4.      9.9    -02 1.16   -01                      1185400500101 
 1.140  +00    5.     -2.1    -02 1.43   -01                      1185400500102 
 1.190  +00    1.      1.309  +00 5.9    -02                      1185400500103 
 1.190  +00    2.      1.046  +00 7.0    -02                      1185400500104 
 1.190  +00    3.      2.89   -01 1.11   -01                      1185400500105 
 1.190  +00    4.      1.74   -01 9.8    -02                      1185400500106 
 1.190  +00    5.     -1.46   -01 1.25   -01                      1185400500107 
 1.250  +00    1.      1.495  +00 9.0    -02                      1185400500108 
 1.250  +00    2.      1.009  +00 1.24   -01                      1185400500109 
 1.250  +00    3.      5.94   -01 1.38   -01                      1185400500110 
 1.250  +00    4.      2.72   -01 1.24   -01                      1185400500111 
 1.250  +00    5.      2.95   -01 9.6    -02                      1185400500112 
 1.300  +00    1.      1.400  +00 5.9    -02                      1185400500113 
 1.300  +00    2.      1.039  +00 8.4    -02                      1185400500114 
 1.300  +00    3.      5.49   -01 1.07   -01                      1185400500115 
 1.300  +00    4.      3.38   -01 1.19   -01                      1185400500116 
 1.300  +00    5.      2.29   -01 1.22   -01                      1185400500117 
 1.350  +00    1.      1.464  +00 8.3    -02                      1185400500118 
 1.350  +00    2.      1.094  +00 1.32   -01                      1185400500119 
 1.350  +00    3.      5.61   -01 1.92   -01                      1185400500120 
 1.350  +00    4.      2.94   -01 1.98   -01                      1185400500121 
 1.350  +00    5.      2.57   -01 1.70   -01                      1185400500122 
 1.400  +00    1.      1.453  +00 6.8    -02                      1185400500123 
 1.400  +00    2.      1.102  +00 9.7    -02                      1185400500124 
 1.400  +00    3.      5.73   -01 1.23   -01                      1185400500125 
 1.400  +00    4.      2.99   -01 1.37   -01                      1185400500126 
 1.400  +00    5.      1.38   -01 1.41   -01                      1185400500127 
 1.450  +00    1.      1.457  +00 4.3    -02                      1185400500128 
 1.450  +00    2.      1.182  +00 6.2    -02                      1185400500129 
 1.450  +00    3.      5.96   -01 7.6    -02                      1185400500130 
 1.450  +00    4.      3.45   -01 8.6    -02                      1185400500131 
 1.450  +00    5.      1.30   -01 8.9    -02                      1185400500132 
 1.500  +00    1.      1.512  +00 3.0    -02                      1185400500133 
 1.500  +00    2.      1.214  +00 4.2    -02                      1185400500134 
 1.500  +00    3.      6.92   -01 5.4    -02                      1185400500135 
 1.500  +00    4.      3.89   -01 6.0    -02                      1185400500136 
 1.500  +00    5.      1.82   -01 6.1    -02                      1185400500137 
ENDDATA            127          0                                 1185400500138 
ENDSUBENT          137          0                                 1185400599999 
SUBENT        11854006   19860522                             00001185400600001 
BIB                  6          6                                 1185400600002 
REACTION   (41-NB-93(N,EL)41-NB-93,,SIG)                          1185400600003 
METHOD     (TOF)      TIME-OF-FLIGHT                              1185400600004 
MONITOR    (6-C-0(N,EL)6-C-0,,SIG)                                1185400600005 
CORRECTION CORRECTED FOR MULTIPLE SCATTERING                      1185400600006 
STATUS     (COREL,11854005)                                       1185400600007 
HISTORY    (860522A) REACTION PRODUCT ADDED.                      1185400600008 
ENDBIB               6          0                                 1185400600009 
NOCOMMON             0          0                                 1185400600010 
DATA                 2         25                                 1185400600011 
EN         DATA                                                   1185400600012 
MEV        B                                                      1185400600013 
 3.00   -01 9.59   +00                                            1185400600014 
 3.40   -01 9.30   +00                                            1185400600015 
 3.90   -01 9.24   +00                                            1185400600016 
 4.40   -01 9.79   +00                                            1185400600017 
 4.90   -01 9.12   +00                                            1185400600018 
 5.50   -01 9.04   +00                                            1185400600019 
 5.90   -01 9.39   +00                                            1185400600020 
 6.40   -01 8.02   +00                                            1185400600021 
 6.90   -01 8.45   +00                                            1185400600022 
 7.40   -01 7.84   +00                                            1185400600023 
 7.90   -01 8.16   +00                                            1185400600024 
 8.40   -01 7.36   +00                                            1185400600025 
 8.90   -01 7.73   +00                                            1185400600026 
 9.40   -01 7.76   +00                                            1185400600027 
 9.90   -01 6.69   +00                                            1185400600028 
 1.040  +00 5.57   +00                                            1185400600029 
 1.090  +00 5.04   +00                                            1185400600030 
 1.140  +00 5.17   +00                                            1185400600031 
 1.190  +00 4.40   +00                                            1185400600032 
 1.250  +00 4.58   +00                                            1185400600033 
 1.300  +00 4.44   +00                                            1185400600034 
 1.350  +00 4.03   +00                                            1185400600035 
 1.400  +00 3.89   +00                                            1185400600036 
 1.450  +00 4.06   +00                                            1185400600037 
 1.500  +00 3.88   +00                                            1185400600038 
ENDDATA             27          0                                 1185400600039 
ENDSUBENT           38          0                                 1185400699999 
SUBENT        11854007   19860522                             00001185400700001 
BIB                  5          5                                 1185400700002 
REACTION   (41-NB-93(N,INL)41-NB-93,PAR,SIG)                      1185400700003 
METHOD     (TOF)      TIME-OF-FLIGHT                              1185400700004 
MONITOR    (6-C-0(N,EL)6-C-0,,SIG)                                1185400700005 
CORRECTION CORRECTED FOR MULTIPLE SCATTERING                      1185400700006 
HISTORY    (860522A) REACTION PRODUCT ADDED.                      1185400700007 
ENDBIB               5          0                                 1185400700008 
NOCOMMON             0          0                                 1185400700009 
DATA                 4         21                                 1185400700010 
E-LVL      EN         DATA       DATA-ERR                         1185400700011 
MEV        MEV        B          B                                1185400700012 
     .74    1.04   +00 2.2    -01 5.     -02                      1185400700013 
     .74    1.10   +00 2.5    -01 7.     -02                      1185400700014 
     .74    1.15   +00 2.8    -01 7.     -02                      1185400700015 
     .74    1.20   +00 2.75   -01 6.5    -02                      1185400700016 
     .74    1.25   +00 2.05   -01 5.     -02                      1185400700017 
     .74    1.30   +00 3.3    -01 7.     -02                      1185400700018 
     .74    1.40   +00 3.1    -01 8.     -02                      1185400700019 
     .74    1.45   +00 2.25   -01 6.     -03                      1185400700020 
     .74    1.50   +00 2.8    -01 7.     -02                      1185400700021 
     .81    1.15   +00 1.2    -01 5.     -02                      1185400700022 
     .81    1.20   +00 2.8    -01 6.5    -01                      1185400700023 
     .81    1.25   +00 2.2    -01 5.     -02                      1185400700024 
     .81    1.30   +00 2.25   -01 6.     -02                      1185400700025 
     .81    1.40   +00 2.8    -01 7.     -02                      1185400700026 
     .81    1.45   +00 2.4    -01 6.     -02                      1185400700027 
     .81    1.50   +00 3.1    -01 8.5    -01                      1185400700028 
     .96    1.30   +00 3.7    -01 9.     -02                      1185400700029 
     .96    1.40   +00 5.6    -01 1.4    -01                      1185400700030 
     .96    1.45   +00 4.1    -01 1.1    -01                      1185400700031 
     .96    1.50   +00 4.3    -01 1.2    -01                      1185400700032 
    1.08    1.50   +00 2.0    -01 5.     -02                      1185400700033 
ENDDATA             23          0                                 1185400700034 
ENDSUBENT           33          0                                 1185400799999 
SUBENT        11854008   19860522                             00001185400800001 
BIB                  4          4                                 1185400800002 
REACTION   (40-ZR-0(N,EL)40-ZR-0,,DA)                             1185400800003 
DETECTOR   (SCIN)     BIASED SCINTILLATOR                         1185400800004 
MONITOR    (6-C-0(N,EL)6-C-0,,SIG)                                1185400800005 
HISTORY    (860522A) REACTION PRODUCT ADDED.                      1185400800006 
ENDBIB               4          0                                 1185400800007 
COMMON               1          3                                 1185400800008 
EN-RSL                                                            1185400800009 
MEV                                                               1185400800010 
 2.0    -02                                                       1185400800011 
ENDCOMMON            3          0                                 1185400800012 
DATA                 4        171                                 1185400800013 
EN         COS-CM     DATA       DATA-ERR                         1185400800014 
MEV        NO-DIM     MB/SR      MB/SR                            1185400800015 
 3.40   -01 0.86300    1.227  +03                                 1185400800016 
 3.40   -01 0.70200    9.355  +02                                 1185400800017 
 3.40   -01 0.49200    8.111  +02                                 1185400800018 
 3.40   -01 0.24900    6.066  +02                                 1185400800019 
 3.40   -01-0.0110     5.300  +02                                 1185400800020 
 3.40   -01-0.2690     4.828  +02                                 1185400800021 
 3.40   -01-0.5080     5.055  +02                                 1185400800022 
 3.40   -01-0.7130     5.586  +02                                 1185400800023 
 3.40   -01-0.8130     6.312  +02                                 1185400800024 
 3.90   -01 0.86300    1.374  +03                                 1185400800025 
 3.90   -01 0.70200    1.083  +03                                 1185400800026 
 3.90   -01 0.49200    8.606  +02                                 1185400800027 
 3.90   -01 0.24900    7.060  +02                                 1185400800028 
 3.90   -01-0.0110     5.500  +02                                 1185400800029 
 3.90   -01-0.2690     5.230  +02                                 1185400800030 
 3.90   -01-0.5080     5.258  +02                                 1185400800031 
 3.90   -01-0.7130     5.586  +02                                 1185400800032 
 3.90   -01-0.8130     5.803  +02                                 1185400800033 
 4.40   -01 0.86300    1.619  +03                                 1185400800034 
 4.40   -01 0.86300    1.570  +03                                 1185400800035 
 4.40   -01 0.70200    1.428  +03                                 1185400800036 
 4.40   -01 0.49200    1.088  +03                                 1185400800037 
 4.40   -01 0.24900    8.353  +02                                 1185400800038 
 4.40   -01-0.0110     6.200  +02                                 1185400800039 
 4.40   -01-0.2690     5.330  +02                                 1185400800040 
 4.40   -01-0.5080     4.853  +02                                 1185400800041 
 4.40   -01-0.7130     4.875  +02                                 1185400800042 
 4.40   -01-0.8130     5.090  +02                                 1185400800043 
 4.90   -01 0.86300    1.521  +03                                 1185400800044 
 4.90   -01 0.70200    1.260  +03                                 1185400800045 
 4.90   -01 0.49200    9.793  +02                                 1185400800046 
 4.90   -01 0.24900    7.657  +02                                 1185400800047 
 4.90   -01-0.0110     5.800  +02                                 1185400800048 
 4.90   -01-0.2690     4.626  +02                                 1185400800049 
 4.90   -01-0.5080     4.146  +02                                 1185400800050 
 4.90   -01-0.7130     3.911  +02                                 1185400800051 
 4.90   -01-0.8130     4.174  +02                                 1185400800052 
 5.50   -01 0.86300    1.668  +03                                 1185400800053 
 5.50   -01 0.86300    1.609  +03                                 1185400800054 
 5.50   -01 0.70200    1.379  +03                                 1185400800055 
 5.50   -01 0.49200    9.892  +02                                 1185400800056 
 5.50   -01 0.24900    7.756  +02                                 1185400800057 
 5.50   -01-0.0110     5.500  +02                                 1185400800058 
 5.50   -01-0.2690     4.325  +02                                 1185400800059 
 5.50   -01-0.5080     3.640  +02                                 1185400800060 
 5.50   -01-0.7130     3.860  +02                                 1185400800061 
 5.50   -01-0.8130     4.479  +02                                 1185400800062 
 5.90   -01 0.86300    1.649  +03                                 1185400800063 
 5.90   -01 0.70200    1.300  +03                                 1185400800064 
 5.90   -01 0.49200    9.891  +02                                 1185400800065 
 5.90   -01 0.24900    7.359  +02                                 1185400800066 
 5.90   -01-0.0110     5.600  +02                                 1185400800067 
 5.90   -01-0.2690     4.325  +02                                 1185400800068 
 5.90   -01-0.5080     3.792  +02                                 1185400800069 
 5.90   -01-0.7130     3.748  +02                                 1185400800070 
 5.90   -01-0.8130     3.848  +02                                 1185400800071 
 6.40   -01 0.86300    1.570  +03                                 1185400800072 
 6.40   -01 0.86300    1.472  +03                                 1185400800073 
 6.40   -01 0.70200    1.083  +03                                 1185400800074 
 6.40   -01 0.49200    9.595  +02                                 1185400800075 
 6.40   -01 0.24900    6.464  +02                                 1185400800076 
 6.40   -01-0.0110     4.800  +02                                 1185400800077 
 6.40   -01-0.2690     3.611  +02                                 1185400800078 
 6.40   -01-0.5080     3.438  +02                                 1185400800079 
 6.40   -01-0.7130     3.128  +02                                 1185400800080 
 6.40   -01-0.8130     3.451  +02                                 1185400800081 
 6.90   -01 0.86300    1.570  +03                                 1185400800082 
 6.90   -01 0.70200    1.182  +03                                 1185400800083 
 6.90   -01 0.49200    9.595  +02                                 1185400800084 
 6.90   -01 0.24900    6.762  +02                                 1185400800085 
 6.90   -01-0.0110     4.900  +02                                 1185400800086 
 6.90   -01-0.2690     3.671  +02                                 1185400800087 
 6.90   -01-0.5080     3.084  +02                                 1185400800088 
 6.90   -01-0.7130     3.098  +02                                 1185400800089 
 6.90   -01-0.8130     3.207  +02                                 1185400800090 
 7.40   -01 0.86300    1.717  +03                                 1185400800091 
 7.40   -01 0.86300    1.600  +03                                 1185400800092 
 7.40   -01 0.70200    1.329  +03                                 1185400800093 
 7.40   -01 0.49200    9.100  +02                                 1185400800094 
 7.40   -01 0.24900    6.563  +02                                 1185400800095 
 7.40   -01-0.0110     4.500  +02                                 1185400800096 
 7.40   -01-0.2690     3.269  +02                                 1185400800097 
 7.40   -01-0.5080     2.780  +02                                 1185400800098 
 7.40   -01-0.7130     2.793  +02                                 1185400800099 
 7.40   -01-0.8130     3.258  +02                                 1185400800100 
 7.90   -01 0.86300    1.570  +03                                 1185400800101 
 7.90   -01 0.86300    1.472  +03                                 1185400800102 
 7.90   -01 0.70200    1.191  +03                                 1185400800103 
 7.90   -01 0.49200    9.595  +02                                 1185400800104 
 7.90   -01 0.16300    5.878  +02                                 1185400800105 
 7.90   -01-0.0110     4.700  +02                                 1185400800106 
 7.90   -01-0.2690     3.470  +02                                 1185400800107 
 7.90   -01-0.5080     2.831  +02                                 1185400800108 
 7.90   -01-0.7130     2.793  +02                                 1185400800109 
 7.90   -01-0.8130     2.952  +02                                 1185400800110 
 8.40   -01 0.86300    1.413  +03                                 1185400800111 
 8.40   -01 0.86300    1.374  +03                                 1185400800112 
 8.40   -01 0.70200    1.123  +03                                 1185400800113 
 8.40   -01 0.49200    8.210  +02                                 1185400800114 
 8.40   -01 0.24900    5.768  +02                                 1185400800115 
 8.40   -01-0.0110     4.100  +02                                 1185400800116 
 8.40   -01-0.2690     2.917  +02                                 1185400800117 
 8.40   -01-0.5080     2.528  +02                                 1185400800118 
 8.40   -01-0.7130     2.966  +02                                 1185400800119 
 8.40   -01-0.8130     3.156  +02                                 1185400800120 
 8.90   -01 0.86300    1.619  +03 8.1    +01                      1185400800121 
 8.90   -01 0.70200    1.280  +03 6.4    +01                      1185400800122 
 8.90   -01 0.49200    9.199  +02 4.60   +01                      1185400800123 
 8.90   -01 0.24900    7.160  +02                                 1185400800124 
 8.90   -01-0.0110     3.900  +02                                 1185400800125 
 8.90   -01-0.2690     3.218  +02                                 1185400800126 
 8.90   -01-0.5080     2.427  +02                                 1185400800127 
 8.90   -01-0.7130     2.356  +02                                 1185400800128 
 8.90   -01-0.8130     2.616  +02                                 1185400800129 
 9.40   -01 0.86300    1.707  +03 8.5    +01                      1185400800130 
 9.40   -01 0.86300    1.570  +03 7.9    +01                      1185400800131 
 9.40   -01 0.70200    1.182  +03 5.9    +01                      1185400800132 
 9.40   -01 0.49200    8.012  +02 4.00   +01                      1185400800133 
 9.40   -01 0.24900    5.668  +02                                 1185400800134 
 9.40   -01-0.0110     3.750  +02                                 1185400800135 
 9.40   -01-0.2690     2.665  +02                                 1185400800136 
 9.40   -01-0.5080     2.224  +02                                 1185400800137 
 9.40   -01-0.7130     2.285  +02                                 1185400800138 
 9.40   -01-0.8130     2.494  +02                                 1185400800139 
 9.90   -01 0.86300    1.423  +03 7.1    +01                      1185400800140 
 9.90   -01 0.70200    1.093  +03 5.5    +01                      1185400800141 
 9.90   -01 0.49200    6.924  +02                                 1185400800142 
 9.90   -01 0.49200    7.320  +02                                 1185400800143 
 9.90   -01 0.24900    4.773  +02                                 1185400800144 
 9.90   -01-0.0110     3.050  +02                                 1185400800145 
 9.90   -01-0.0110     3.300  +02                                 1185400800146 
 9.90   -01-0.2690     2.243  +02                                 1185400800147 
 9.90   -01-0.5080     1.951  +02                                 1185400800148 
 9.90   -01-0.7130     2.133  +02                                 1185400800149 
 9.90   -01-0.8130     2.624  +02                                 1185400800150 
 1.040  +00 0.86300    1.276  +03 6.4    +01                      1185400800151 
 1.040  +00 0.70200    9.355  +02 4.70   +01                      1185400800152 
 1.040  +00 0.49200    6.133  +02                                 1185400800153 
 1.040  +00 0.24900    3.729  +02                                 1185400800154 
 1.040  +00-0.0110     2.750  +02                                 1185400800155 
 1.040  +00-0.2690     2.092  +02                                 1185400800156 
 1.040  +00-0.5080     1.972  +02                                 1185400800157 
 1.040  +00-0.7130     1.950  +02                                 1185400800158 
 1.040  +00-0.8130     2.341  +02                                 1185400800159 
 1.090  +00 0.86300    1.197  +03 6.0    +01                      1185400800160 
 1.090  +00 0.70200    8.961  +02 4.50   +01                      1185400800161 
 1.090  +00 0.49200    5.688  +02                                 1185400800162 
 1.090  +00 0.24900    3.928  +02                                 1185400800163 
 1.090  +00-0.0110     2.800  +02                                 1185400800164 
 1.090  +00-0.2690     2.162  +02                                 1185400800165 
 1.090  +00-0.5080     1.769  +02                                 1185400800166 
 1.090  +00-0.7130     2.336  +02                                 1185400800167 
 1.090  +00-0.8030     2.473  +02                                 1185400800168 
 1.140  +00 0.86300    1.325  +03 6.6    +01                      1185400800169 
 1.140  +00 0.70200    9.453  +02 4.70   +01                      1185400800170 
 1.140  +00 0.49200    7.122  +02                                 1185400800171 
 1.140  +00 0.24900    3.878  +02                                 1185400800172 
 1.140  +00-0.0110     2.500  +02                                 1185400800173 
 1.140  +00-0.2690     1.740  +02                                 1185400800174 
 1.140  +00-0.5080     1.871  +02                                 1185400800175 
 1.140  +00-0.7130     2.153  +02                                 1185400800176 
 1.140  +00-0.8030     3.053  +02                                 1185400800177 
 1.190  +00 0.86300    1.178  +03 5.9    +01                      1185400800178 
 1.190  +00 0.70200    8.173  +02 4.10   +01                      1185400800179 
 1.190  +00 0.49200    5.322  +02                                 1185400800180 
 1.190  +00 0.24900    3.083  +02                                 1185400800181 
 1.190  +00-0.0110     2.430  +02                                 1185400800182 
 1.190  +00-0.2690     1.760  +02                                 1185400800183 
 1.190  +00-0.5080     1.365  +02                                 1185400800184 
 1.190  +00-0.7130     1.625  +02                                 1185400800185 
 1.190  +00-0.8130     1.781  +02                                 1185400800186 
ENDDATA            173          0                                 1185400800187 
ENDSUBENT          186          0                                 1185400899999 
SUBENT        11854009   19840611                             00001185400900001 
BIB                  3          5                                 1185400900002 
REACTION   ((41-NB-93(N,EL)41-NB-93,,DA)+                         1185400900003 
           (41-NB-93(N,INL)41-NB-93,PAR,DA))                      1185400900004 
FLAG       (2.) SECOND MEASUREMENT AT ENERGY.                     1185400900005 
HISTORY    (821217A) DATA REPLACED WITH DATA FROM PRIVATE COMM.,  1185400900006 
              SMITH, 74/1.                                        1185400900007 
ENDBIB               5          0                                 1185400900008 
COMMON               2          3                                 1185400900009 
EN-RSL     E-LVL                                                  1185400900010 
KEV        KEV                                                    1185400900011 
 20.        29.                                                   1185400900012 
ENDCOMMON            3          0                                 1185400900013 
DATA                 4        275                                 1185400900014 
EN         ANG        DATA       FLAG                             1185400900015 
MEV        ADEG       B/SR       NO-DIM                           1185400900016 
     0.3000    30.0000     1.2500                                 1185400900017 
     0.3000    45.0000     1.1500                                 1185400900018 
     0.3000    60.0000     0.8950                                 1185400900019 
     0.3000    75.0000     0.7700                                 1185400900020 
     0.3000    90.0000     0.6950                                 1185400900021 
     0.3000   105.0000     0.5700                                 1185400900022 
     0.3000   120.0000     0.5500                                 1185400900023 
     0.3000   135.0000     0.4600                                 1185400900024 
     0.3000   144.0000     0.4950                                 1185400900025 
     0.3400    30.0000     1.3800                                 1185400900026 
     0.3400    45.0000     1.0900                                 1185400900027 
     0.3400    60.0000     0.9400                                 1185400900028 
     0.3400    75.0000     0.7050                                 1185400900029 
     0.3400    90.0000     0.6130                                 1185400900030 
     0.3400   105.0000     0.5250                                 1185400900031 
     0.3400   120.0000     0.4800                                 1185400900032 
     0.3400   135.0000     0.4500                                 1185400900033 
     0.3400   144.0000     0.4900                                 1185400900034 
     0.3900    30.0000     1.3800                                 1185400900035 
     0.3900    45.0000     1.1200                                 1185400900036 
     0.3900    60.0000     0.8850                                 1185400900037 
     0.3900    75.0000     0.7450                                 1185400900038 
     0.3900    90.0000     0.6000                                 1185400900039 
     0.3900   105.0000     0.5300                                 1185400900040 
     0.3900   120.0000     0.4450                                 1185400900041 
     0.3900   135.0000     0.4480                                 1185400900042 
     0.3900   144.0000     0.4600                                 1185400900043 
     0.4400    30.0000     1.5000                                 1185400900044 
     0.4400    30.0000     1.4500                                 1185400900045 
     0.4400    45.0000     1.2600                                 1185400900046 
     0.4400    60.0000     1.0500                                 1185400900047 
     0.4400    60.0000     1.0100                                 1185400900048 
     0.4400    75.0000     0.8200                                 1185400900049 
     0.4400    90.0000     0.6300                                 1185400900050 
     0.4400    90.0000     0.6150                                 1185400900051 
     0.4400   105.0000     0.5300                                 1185400900052 
     0.4400   120.0000     0.4850                                 1185400900053 
     0.4400   120.0000     0.4650                                 1185400900054 
     0.4400   135.0000     0.4300                                 1185400900055 
     0.4400   145.0000     0.4400                                 1185400900056 
     0.4900    30.0000     1.4000                                 1185400900057 
     0.4900    45.0000     1.1900                                 1185400900058 
     0.4900    60.0000     0.9600                                 1185400900059 
     0.4900    75.0000     0.7600                                 1185400900060 
     0.4900    90.0000     0.6100                                 1185400900061 
     0.4900   105.0000     0.4950                                 1185400900062 
     0.4900   120.0000     0.4250                                 1185400900063 
     0.4900   135.0000     0.3750                                 1185400900064 
     0.4900   145.0000     0.3650                                 1185400900065 
     0.5500    30.0000     1.4800                                 1185400900066 
     0.5500    30.0000     1.4200                                 1185400900067 
     0.5500    45.0000     1.2100                                 1185400900068 
     0.5500    60.0000     0.9400                                 1185400900069 
     0.5500    75.0000     0.7800                                 1185400900070 
     0.5500    90.0000     0.5800                                 1185400900071 
     0.5500   105.0000     0.4670                                 1185400900072 
     0.5500   120.0000     0.3750                                 1185400900073 
     0.5500   135.0000     0.3520                                 1185400900074 
     0.5500   145.0000     0.3400                                 1185400900075 
     0.5900    30.0000     1.6000                                 1185400900076 
     0.5900    45.0000     1.2900                                 1185400900077 
     0.5900    60.0000     0.9900                                 1185400900078 
     0.5900    75.0000     0.7800                                 1185400900079 
     0.5900    90.0000     0.6000                                 1185400900080 
     0.5900   105.0000     0.4600                                 1185400900081 
     0.5900   120.0000     0.3850                                 1185400900082 
     0.5900   135.0000     0.3500                                 1185400900083 
     0.5900   145.0000     0.3350                                 1185400900084 
     0.6900    30.0000     1.4800                                 1185400900085 
     0.6900    30.0000     1.3500                                 1185400900086 
     0.6900    30.0000     1.4900  2.                             1185400900087 
     0.6900    45.0000     1.0400                                 1185400900088 
     0.6900    45.0000     1.1800  2.                             1185400900089 
     0.6900    60.0000     0.9700                                 1185400900090 
     0.6900    60.0000     0.9700  2.                             1185400900091 
     0.6900    75.0000     0.6500                                 1185400900092 
     0.6900    75.0000     0.6800  2.                             1185400900093 
     0.6900    90.0000     0.4950                                 1185400900094 
     0.6900    90.0000     0.5100  2.                             1185400900095 
     0.6900   105.0000     0.3800                                 1185400900096 
     0.6900   105.0000     0.4000  2.                             1185400900097 
     0.6900   120.0000     0.3200                                 1185400900098 
     0.6900   120.0000     0.3100  2.                             1185400900099 
     0.6900   135.0000     0.2890                                 1185400900100 
     0.6900   135.0000     0.2950  2.                             1185400900101 
     0.6900   145.0000     0.2920                                 1185400900102 
     0.6900   145.0000     0.2900  2.                             1185400900103 
     0.7400    30.0000     1.4500                                 1185400900104 
     0.7400    30.0000     1.3500                                 1185400900105 
     0.7400    45.0000     1.1400                                 1185400900106 
     0.7400    60.0000     0.8350                                 1185400900107 
     0.7400    75.0000     0.6590                                 1185400900108 
     0.7400    90.0000     0.4680                                 1185400900109 
     0.7400   105.0000     0.3500                                 1185400900110 
     0.7400   120.0000     0.2900                                 1185400900111 
     0.7400   135.0000     0.2550                                 1185400900112 
     0.7400   145.0000     0.2650                                 1185400900113 
     0.8400    30.0000     1.4100                                 1185400900114 
     0.8400    30.0000     1.3500                                 1185400900115 
     0.8400    45.0000     1.1100                                 1185400900116 
     0.8400    60.0000     0.8200                                 1185400900117 
     0.8400    75.0000     0.5900                                 1185400900118 
     0.8400    90.0000     0.4000                                 1185400900119 
     0.8400   105.0000     0.3100                                 1185400900120 
     0.8400   120.0000     0.2700                                 1185400900121 
     0.8400   135.0000     0.2480                                 1185400900122 
     0.8400   145.0000     0.2380                                 1185400900123 
     0.8900    30.0000     1.5100                                 1185400900124 
     0.8900    30.0000     1.4500                                 1185400900125 
     0.8900    45.0000     1.2600                                 1185400900126 
     0.8900    60.0000     0.8650                                 1185400900127 
     0.8900    75.0000     0.6500                                 1185400900128 
     0.8900    90.0000     0.3950                                 1185400900129 
     0.8900   105.0000     0.3040                                 1185400900130 
     0.8900   120.0000     0.2240                                 1185400900131 
     0.8900   135.0000     0.2160                                 1185400900132 
     0.8900   145.0000     0.2100                                 1185400900133 
     0.9400    30.0000     1.6000                                 1185400900134 
     0.9400    30.0000     1.4600                                 1185400900135 
     0.9400    45.0000     1.1900                                 1185400900136 
     0.9400    60.0000     0.8400                                 1185400900137 
     0.9400    75.0000     0.5810                                 1185400900138 
     0.9400    90.0000     0.4200                                 1185400900139 
     0.9400   105.0000     0.2800                                 1185400900140 
     0.9400   120.0000     0.2450                                 1185400900141 
     0.9400   135.0000     0.2250                                 1185400900142 
     0.9400   145.0000     0.2300                                 1185400900143 
     0.9900    30.0000     1.4000                                 1185400900144 
     0.9900    45.0000     1.0500                                 1185400900145 
     0.9900    60.0000     0.7200                                 1185400900146 
     0.9900    60.0000     0.7050                                 1185400900147 
     0.9900    75.0000     0.4500                                 1185400900148 
     0.9900    90.0000     0.3300                                 1185400900149 
     0.9900    90.0000     0.3650                                 1185400900150 
     0.9900   105.0000     0.2480                                 1185400900151 
     0.9900   120.0000     0.2050                                 1185400900152 
     0.9900   135.0000     0.1950                                 1185400900153 
     0.9900   145.0000     0.2050                                 1185400900154 
     1.0400    30.0000     1.2000                                 1185400900155 
     1.0400    45.0000     0.9000                                 1185400900156 
     1.0400    60.0000     0.5800                                 1185400900157 
     1.0400    75.0000     0.3950                                 1185400900158 
     1.0400    90.0000     0.2650                                 1185400900159 
     1.0400   105.0000     0.1980                                 1185400900160 
     1.0400   120.0000     0.1800                                 1185400900161 
     1.0400   135.0000     0.1550                                 1185400900162 
     1.0400   145.0000     0.1740                                 1185400900163 
     1.0900    30.0000     1.1000                                 1185400900164 
     1.0900    45.0000     0.8800                                 1185400900165 
     1.0900    60.0000     0.5200                                 1185400900166 
     1.0900    75.0000     0.3800                                 1185400900167 
     1.0900    90.0000     0.2250                                 1185400900168 
     1.0900   105.0000     0.1680                                 1185400900169 
     1.0900   120.0000     0.1200                                 1185400900170 
     1.0900   135.0000     0.1340                                 1185400900171 
     1.0900   145.0000     0.1300                                 1185400900172 
     1.1400    30.0000     1.1600                                 1185400900173 
     1.1400    45.0000     0.8200                                 1185400900174 
     1.1400    60.0000     0.5900                                 1185400900175 
     1.1400    75.0000     0.3400                                 1185400900176 
     1.1400    90.0000     0.2500                                 1185400900177 
     1.1400   105.0000     0.1630                                 1185400900178 
     1.1400   120.0000     0.1500                                 1185400900179 
     1.1400   135.0000     0.1350                                 1185400900180 
     1.1400   145.0000     0.1550                                 1185400900181 
     1.1750    30.5000     1.0100                                 1185400900182 
     1.1750    45.8000     0.7870                                 1185400900183 
     1.1750    61.0000     0.5350                                 1185400900184 
     1.1750    76.0000     0.2840                                 1185400900185 
     1.1750    95.5000     0.1730                                 1185400900186 
     1.1750   110.5000     0.1090                                 1185400900187 
     1.1750   125.8000     0.1210                                 1185400900188 
     1.1750   150.8000     0.0970                                 1185400900189 
     1.2250    30.5000     1.0900                                 1185400900190 
     1.2250    45.8000     0.8040                                 1185400900191 
     1.2250    61.0000     0.5430                                 1185400900192 
     1.2250    76.0000     0.3210                                 1185400900193 
     1.2250    95.5000     0.1590                                 1185400900194 
     1.2250   110.5000     0.1050                                 1185400900195 
     1.2250   125.8000     0.1010                                 1185400900196 
     1.2250   150.8000     0.0990                                 1185400900197 
     1.2750    30.5000     0.9700                                 1185400900198 
     1.2750    45.8000     0.7270                                 1185400900199 
     1.2750    61.0000     0.4580                                 1185400900200 
     1.2750    76.0000     0.2840                                 1185400900201 
     1.2750    95.5000     0.1320                                 1185400900202 
     1.2750   110.5000     0.1000                                 1185400900203 
     1.2750   125.7000     0.0970                                 1185400900204 
     1.2750   150.7000     0.0920                                 1185400900205 
     1.3250    30.5000     0.9440                                 1185400900206 
     1.3250    30.5000     0.9320  2.                             1185400900207 
     1.3250    45.8000     0.7210                                 1185400900208 
     1.3250    45.8000     0.6910  2.                             1185400900209 
     1.3250    61.0000     0.4760                                 1185400900210 
     1.3250    61.0000     0.4540  2.                             1185400900211 
     1.3250    76.0000     0.2480                                 1185400900212 
     1.3250    76.0000     0.2470  2.                             1185400900213 
     1.3250    95.5000     0.1210                                 1185400900214 
     1.3250    95.5000     0.1230  2.                             1185400900215 
     1.3250   110.5000     0.0870                                 1185400900216 
     1.3250   110.5000     0.0940  2.                             1185400900217 
     1.3250   125.7000     0.0760                                 1185400900218 
     1.3250   125.8000     0.0790  2.                             1185400900219 
     1.3250   150.7000     0.0900                                 1185400900220 
     1.3250   150.8000     0.0830  2.                             1185400900221 
     1.3750    30.5000     1.0110                                 1185400900222 
     1.3750    30.5000     0.9030  2.                             1185400900223 
     1.3750    45.7000     0.6830  2.                             1185400900224 
     1.3750    45.8000     0.6830                                 1185400900225 
     1.3750    61.0000     0.4510                                 1185400900226 
     1.3750    61.0000     0.3780  2.                             1185400900227 
     1.3750    76.0000     0.2550                                 1185400900228 
     1.3750    76.0000     0.2270  2.                             1185400900229 
     1.3750    95.5000     0.1250                                 1185400900230 
     1.3750    95.5000     0.1140  2.                             1185400900231 
     1.3750   110.5000     0.0850                                 1185400900232 
     1.3750   110.5000     0.0970  2.                             1185400900233 
     1.3750   125.7000     0.0760  2.                             1185400900234 
     1.3750   125.8000     0.0980                                 1185400900235 
     1.3750   150.7000     0.0980  2.                             1185400900236 
     1.3750   150.8000     0.1140                                 1185400900237 
     1.4000    20.0000     1.2100                                 1185400900238 
     1.4000    30.0000     0.9200                                 1185400900239 
     1.4000    45.0000     0.6500                                 1185400900240 
     1.4000    60.0000     0.3900                                 1185400900241 
     1.4000    75.0000     0.2420                                 1185400900242 
     1.4000    90.0000     0.1750                                 1185400900243 
     1.4000   105.0000     0.1210                                 1185400900244 
     1.4000   120.0000     0.0870                                 1185400900245 
     1.4000   135.0000     0.0840                                 1185400900246 
     1.4000   145.0000     0.0900                                 1185400900247 
     1.4250    30.5000     0.8270                                 1185400900248 
     1.4250    30.5000     0.9520  2.                             1185400900249 
     1.4250    45.7000     0.5810                                 1185400900250 
     1.4250    45.8000     0.6950  2.                             1185400900251 
     1.4250    61.0000     0.3740                                 1185400900252 
     1.4250    61.0000     0.4440  2.                             1185400900253 
     1.4250    76.0000     0.2440                                 1185400900254 
     1.4250    76.0000     0.2620  2.                             1185400900255 
     1.4250    95.5000     0.1080                                 1185400900256 
     1.4250    95.5000     0.1230  2.                             1185400900257 
     1.4250   110.5000     0.0850                                 1185400900258 
     1.4250   110.5000     0.1110  2.                             1185400900259 
     1.4250   125.7000     0.0750                                 1185400900260 
     1.4250   125.8000     0.0930  2.                             1185400900261 
     1.4250   150.7000     0.0800                                 1185400900262 
     1.4250   150.8000     0.0790  2.                             1185400900263 
     1.4500    20.0000     1.2900                                 1185400900264 
     1.4500    30.0000     1.0000                                 1185400900265 
     1.4500    45.0000     0.6600                                 1185400900266 
     1.4500    60.0000     0.4100                                 1185400900267 
     1.4500    75.0000     0.2450                                 1185400900268 
     1.4500    90.0000     0.1710                                 1185400900269 
     1.4500   105.0000     0.1250                                 1185400900270 
     1.4500   120.0000     0.0870                                 1185400900271 
     1.4500   135.0000     0.0860                                 1185400900272 
     1.4500   145.0000     0.1020                                 1185400900273 
     1.4750    30.5000     0.9020                                 1185400900274 
     1.4750    45.7000     0.5980                                 1185400900275 
     1.4750    61.0000     0.3950                                 1185400900276 
     1.4750    76.0000     0.2130                                 1185400900277 
     1.4750    95.5000     0.0980                                 1185400900278 
     1.4750   110.5000     0.0750                                 1185400900279 
     1.4750   125.7000     0.0740                                 1185400900280 
     1.4750   150.7000     0.1110                                 1185400900281 
     1.5000    20.0000     1.2800                                 1185400900282 
     1.5000    30.0000     1.0100                                 1185400900283 
     1.5000    45.0000     0.6100                                 1185400900284 
     1.5000    60.0000     0.3860                                 1185400900285 
     1.5000    75.0000     0.2350                                 1185400900286 
     1.5000    90.0000     0.1610                                 1185400900287 
     1.5000   105.0000     0.1160                                 1185400900288 
     1.5000   120.0000     0.0820                                 1185400900289 
     1.5000   135.0000     0.0800                                 1185400900290 
     1.5000   145.0000     0.0890                                 1185400900291 
ENDDATA            277          0                                 1185400900292 
ENDSUBENT          291          0                                 1185400999999 
ENDENTRY             9          0                                 1185499999999 
