ENTRY            11910   19771029                             00001191000000001 
SUBENT        11910001   19771029                             00001191000100001 
BIB                  7          8                                 1191000100002 
INSTITUTE  (1USAANL)                                              1191000100003 
REFERENCE  (J,PR,109,1258,5802)                                   1191000100004 
AUTHOR     (A.SAPLAKOGLU,L.M.BOLLINGER,R.E.COTE)                  1191000100005 
TITLE      PROPERTIES OF S-WAVE AND P-WAVE NEUTRON RESONANCES IN  1191000100006 
            NIOBUIM.                                              1191000100007 
FACILITY   (CHOPF) FAST CHOPPER                                   1191000100008 
STATUS     (SCSRS)                                                1191000100009 
HISTORY    (760802T) TRANSLATED FROM SCISRS                       1191000100010 
ENDBIB               8          0                                 1191000100011 
NOCOMMON             0          0                                 1191000100012 
ENDSUBENT           11          0                                 1191000199999 
SUBENT        11910002   19771029                             00001191000200001 
BIB                  2          2                                 1191000200002 
REACTION   (41-NB-93(N,TOT),,SIG)                                 1191000200003 
METHOD     (TOF)      TIME-OF-FLIGHT                              1191000200004 
ENDBIB               2          0                                 1191000200005 
COMMON               1          3                                 1191000200006 
EN-RSL                                                            1191000200007 
NSEC/M                                                            1191000200008 
 40.                                                              1191000200009 
ENDCOMMON            3          0                                 1191000200010 
DATA                 3        634                                 1191000200011 
EN         DATA       THICKNESS                                   1191000200012 
MEV        B          G/CM-SQ                                     1191000200013 
 2.90   -05 6.4    +0021.672                                      1191000200014 
 2.92   -05 6.7    +0021.672                                      1191000200015 
 2.94   -05 6.3    +0021.672                                      1191000200016 
 2.96   -05 6.4    +0021.672                                      1191000200017 
 2.98   -05 6.6    +0021.672                                      1191000200018 
 3.02   -05 6.6    +0021.672                                      1191000200019 
 3.03   -05 6.1    +0021.672                                      1191000200020 
 3.06   -05 6.6    +0021.672                                      1191000200021 
 3.09   -05 6.5    +0021.672                                      1191000200022 
 3.10   -05 6.2    +0021.672                                      1191000200023 
 3.13   -05 6.4    +0021.672                                      1191000200024 
 3.15   -05 6.4    +0021.672                                      1191000200025 
 3.18   -05 6.4    +0021.672                                      1191000200026 
 3.20   -05 6.7    +0021.672                                      1191000200027 
 3.23   -05 6.6    +0021.672                                      1191000200028 
 3.25   -05 6.4    +0021.672                                      1191000200029 
 3.28   -05 6.4    +0021.672                                      1191000200030 
 3.31   -05 6.4    +0021.672                                      1191000200031 
 3.33   -05 6.5    +0021.672                                      1191000200032 
 3.36   -05 6.4    +0021.672                                      1191000200033 
 3.37   -05 6.2    +0021.672                                      1191000200034 
 3.38   -05 6.7    +0021.672                                      1191000200035 
 3.39   -05 6.7    +0021.672                                      1191000200036 
 3.40   -05 6.5    +0021.672                                      1191000200037 
 3.43   -05 6.4    +0021.672                                      1191000200038 
 3.44   -05 6.7    +0021.672                                      1191000200039 
 3.45   -05 6.9    +0021.672                                      1191000200040 
 3.46   -05 6.9    +0021.672                                      1191000200041 
 3.47   -05 7.1    +0021.672                                      1191000200042 
 3.48   -05 7.1    +0021.672                                      1191000200043 
 3.49   -05 7.2    +0021.672                                      1191000200044 
 3.50   -05 7.7    +0021.672                                      1191000200045 
 3.51   -05 8.2    +0021.672                                      1191000200046 
 3.52   -05 8.2    +0021.672                                      1191000200047 
 3.53   -05 8.2    +0021.672                                      1191000200048 
 3.54   -05 8.9    +00 2.725                                      1191000200049 
 3.55   -05 1.02   +01 2.725                                      1191000200050 
 3.56   -05 1.08   +01 2.725                                      1191000200051 
 3.57   -05 1.55   +01 2.725                                      1191000200052 
 3.58   -05 1.88   +01 2.725                                      1191000200053 
 3.59   -05 2.14   +01 2.725                                      1191000200054 
 3.60   -05 1.64   +01 2.725                                      1191000200055 
 3.61   -05 1.48   +01 2.725                                      1191000200056 
 3.62   -05 1.08   +01 2.725                                      1191000200057 
 3.63   -05 7.9    +00 2.725                                      1191000200058 
 3.64   -05 7.3    +0021.672                                      1191000200059 
 3.65   -05 7.4    +0021.672                                      1191000200060 
 3.66   -05 6.9    +0021.672                                      1191000200061 
 3.69   -05 6.6    +0021.672                                      1191000200062 
 3.71   -05 6.5    +0021.672                                      1191000200063 
 3.72   -05 6.4    +0021.672                                      1191000200064 
 3.75   -05 6.4    +0021.672                                      1191000200065 
 3.76   -05 6.3    +0021.672                                      1191000200066 
 3.77   -05 6.5    +0021.672                                      1191000200067 
 3.78   -05 6.3    +0021.672                                      1191000200068 
 3.79   -05 6.5    +0021.672                                      1191000200069 
 3.80   -05 5.9    +0021.672                                      1191000200070 
 3.81   -05 6.1    +0021.672                                      1191000200071 
 3.83   -05 6.4    +0021.672                                      1191000200072 
 3.84   -05 6.3    +0021.672                                      1191000200073 
 3.85   -05 6.1    +0021.672                                      1191000200074 
 3.99   -05 6.4    +0021.672                                      1191000200075 
 4.00   -05 6.5    +0021.672                                      1191000200076 
 4.01   -05 6.3    +0021.672                                      1191000200077 
 4.02   -05 6.5    +0021.672                                      1191000200078 
 4.03   -05 6.7    +0021.672                                      1191000200079 
 4.05   -05 6.5    +0021.672                                      1191000200080 
 4.06   -05 6.5    +0021.672                                      1191000200081 
 4.07   -05 6.4    +0021.672                                      1191000200082 
 4.08   -05 6.5    +0021.672                                      1191000200083 
 4.09   -05 6.5    +0021.672                                      1191000200084 
 4.11   -05 6.9    +0021.672                                      1191000200085 
 4.12   -05 6.0    +0021.672                                      1191000200086 
 4.13   -05 6.5    +0021.672                                      1191000200087 
 4.14   -05 6.4    +0021.672                                      1191000200088 
 4.16   -05 7.2    +0021.672                                      1191000200089 
 4.17   -05 7.7    +0021.672                                      1191000200090 
 4.18   -05 8.4    +0021.672                                      1191000200091 
 4.19   -05 9.4    +0021.672                                      1191000200092 
 4.21   -05 1.10   +0121.672                                      1191000200093 
 4.22   -05 1.19   +0121.672                                      1191000200094 
 4.23   -05 1.05   +0121.672                                      1191000200095 
 4.24   -05 9.7    +0021.672                                      1191000200096 
 4.26   -05 8.3    +0021.672                                      1191000200097 
 4.27   -05 6.9    +0021.672                                      1191000200098 
 4.29   -05 6.4    +0021.672                                      1191000200099 
 4.30   -05 6.4    +0021.672                                      1191000200100 
 4.31   -05 6.6    +0021.672                                      1191000200101 
 4.34   -05 6.1    +0021.672                                      1191000200102 
 4.38   -05 6.2    +0021.672                                      1191000200103 
 4.42   -05 6.1    +0021.672                                      1191000200104 
 4.46   -05 6.2    +0021.672                                      1191000200105 
 4.50   -05 6.4    +0021.672                                      1191000200106 
 4.55   -05 6.1    +0021.672                                      1191000200107 
 4.59   -05 6.2    +0021.672                                      1191000200108 
 4.63   -05 6.4    +0021.672                                      1191000200109 
 4.68   -05 6.0    +0021.672                                      1191000200110 
 4.71   -05 6.5    +0021.672                                      1191000200111 
 4.77   -05 6.3    +0021.672                                      1191000200112 
 4.82   -05 6.3    +0021.672                                      1191000200113 
 4.86   -05 6.4    +0021.672                                      1191000200114 
 4.91   -05 6.3    +0021.672                                      1191000200115 
 5.01   -05 6.2    +0021.672                                      1191000200116 
 5.06   -05 6.1    +0021.672                                      1191000200117 
 5.11   -05 6.1    +0021.672                                      1191000200118 
 5.16   -05 6.1    +0021.672                                      1191000200119 
 5.22   -05 6.0    +0021.672                                      1191000200120 
 5.27   -05 6.1    +0021.672                                      1191000200121 
 5.32   -05 6.1    +0021.672                                      1191000200122 
 5.38   -05 6.1    +0021.672                                      1191000200123 
 5.43   -05 6.0    +0021.672                                      1191000200124 
 5.47   -05 6.3    +0021.672                                      1191000200125 
 5.55   -05 6.2    +0021.672                                      1191000200126 
 5.61   -05 6.2    +0021.672                                      1191000200127 
 5.67   -05 6.4    +0021.672                                      1191000200128 
 5.73   -05 6.3    +0021.672                                      1191000200129 
 5.79   -05 6.1    +0021.672                                      1191000200130 
 5.85   -05 6.1    +0021.672                                      1191000200131 
 5.91   -05 6.3    +0021.672                                      1191000200132 
 5.98   -05 6.3    +0021.672                                      1191000200133 
 6.04   -05 6.1    +0021.672                                      1191000200134 
 6.11   -05 6.2    +0021.672                                      1191000200135 
 6.18   -05 6.1    +0021.672                                      1191000200136 
 6.25   -05 6.2    +0021.672                                      1191000200137 
 6.32   -05 6.1    +0021.672                                      1191000200138 
 6.39   -05 6.2    +0021.672                                      1191000200139 
 6.46   -05 6.1    +0021.672                                      1191000200140 
 6.54   -05 6.1    +0021.672                                      1191000200141 
 6.61   -05 6.4    +0021.672                                      1191000200142 
 6.69   -05 6.3    +0021.672                                      1191000200143 
 6.77   -05 6.1    +0021.672                                      1191000200144 
 6.84   -05 6.2    +0021.672                                      1191000200145 
 6.92   -05 6.2    +0021.672                                      1191000200146 
 7.01   -05 6.0    +0021.672                                      1191000200147 
 7.09   -05 6.3    +0021.672                                      1191000200148 
 7.17   -05 6.2    +0021.672                                      1191000200149 
 7.26   -05 6.2    +0021.672                                      1191000200150 
 7.35   -05 6.1    +0021.672                                      1191000200151 
 7.40   -05 6.0    +0021.672                                      1191000200152 
 7.53   -05 6.2    +0021.672                                      1191000200153 
 7.62   -05 6.2    +0021.672                                      1191000200154 
 7.72   -05 6.5    +0021.672                                      1191000200155 
 7.81   -05 6.3    +0021.672                                      1191000200156 
 7.91   -05 6.3    +0021.672                                      1191000200157 
 8.01   -05 6.4    +0021.672                                      1191000200158 
 8.11   -05 6.1    +0021.672                                      1191000200159 
 8.22   -05 6.3    +0021.672                                      1191000200160 
 8.32   -05 6.4    +0021.672                                      1191000200161 
 8.43   -05 6.3    +0021.672                                      1191000200162 
 8.54   -05 6.3    +0021.672                                      1191000200163 
 8.65   -05 5.9    +0021.672                                      1191000200164 
 8.77   -05 6.3    +0021.672                                      1191000200165 
 8.85   -05 6.3    +0021.672                                      1191000200166 
 8.88   -05 6.4    +0021.672                                      1191000200167 
 8.92   -05 6.0    +0021.672                                      1191000200168 
 8.96   -05 6.5    +0021.672                                      1191000200169 
 9.00   -05 6.3    +0021.672                                      1191000200170 
 9.04   -05 6.0    +0021.672                                      1191000200171 
 9.08   -05 6.1    +0021.672                                      1191000200172 
 9.13   -05 6.1    +0021.672                                      1191000200173 
 9.17   -05 6.1    +0021.672                                      1191000200174 
 9.21   -05 6.4    +0021.672                                      1191000200175 
 9.25   -05 6.3    +0021.672                                      1191000200176 
 9.29   -05 6.8    +0021.672                                      1191000200177 
 9.33   -05 7.6    +0021.672                                      1191000200178 
 9.37   -05 9.3    +00 2.725                                      1191000200179 
 9.41   -05 1.16   +01 2.725                                      1191000200180 
 9.45   -05 1.26   +01 2.725                                      1191000200181 
 9.49   -05 1.05   +01 2.725                                      1191000200182 
 9.54   -05 9.6    +00 2.725                                      1191000200183 
 9.59   -05 6.3    +0021.672                                      1191000200184 
 9.64   -05 6.4    +0021.672                                      1191000200185 
 9.68   -05 6.5    +0021.672                                      1191000200186 
 9.73   -05 6.3    +0021.672                                      1191000200187 
 9.77   -05 6.3    +0021.672                                      1191000200188 
 1.005  -04 6.1    +0021.672                                      1191000200189 
 1.010  -04 6.3    +0021.672                                      1191000200190 
 1.014  -04 6.4    +0021.672                                      1191000200191 
 1.019  -04 6.1    +0021.672                                      1191000200192 
 1.024  -04 6.1    +0021.672                                      1191000200193 
 1.029  -04 6.2    +0021.672                                      1191000200194 
 1.034  -04 6.4    +0021.672                                      1191000200195 
 1.039  -04 6.8    +00 2.725                                      1191000200196 
 1.044  -04 7.8    +00 2.725                                      1191000200197 
 1.049  -04 9.1    +00 2.725                                      1191000200198 
 1.054  -04 1.07   +01 2.725                                      1191000200199 
 1.059  -04 1.11   +01 2.725                                      1191000200200 
 1.064  -04 9.7    +00 2.725                                      1191000200201 
 1.069  -04 8.8    +00 2.725                                      1191000200202 
 1.075  -04 7.8    +00 2.725                                      1191000200203 
 1.080  -04 6.3    +0021.672                                      1191000200204 
 1.085  -04 5.8    +0021.672                                      1191000200205 
 1.090  -04 6.4    +0021.672                                      1191000200206 
 1.096  -04 6.3    +0021.672                                      1191000200207 
 1.101  -04 6.3    +0021.672                                      1191000200208 
 1.107  -04 6.0    +0021.672                                      1191000200209 
 1.112  -04 6.3    +0021.672                                      1191000200210 
 1.118  -04 5.8    +0021.672                                      1191000200211 
 1.123  -04 6.3    +0021.672                                      1191000200212 
 1.129  -04 6.1    +0021.672                                      1191000200213 
 1.152  -04 6.2    +0043.344                                      1191000200214 
 1.157  -04 6.2    +0043.344                                      1191000200215 
 1.161  -04 6.0    +0043.344                                      1191000200216 
 1.165  -04 5.9    +0043.344                                      1191000200217 
 1.170  -04 6.2    +0043.344                                      1191000200218 
 1.174  -04 7.2    +0043.344                                      1191000200219 
 1.179  -04 1.61   +01 2.725                                      1191000200220 
 1.183  -04 2.13   +01 2.725                                      1191000200221 
 1.189  -04 3.35   +01 2.725                                      1191000200222 
 1.193  -04 3.42   +01 2.725                                      1191000200223 
 1.197  -04 2.30   +01 2.725                                      1191000200224 
 1.202  -04 1.90   +01 2.725                                      1191000200225 
 1.206  -04 8.5    +00 2.725                                      1191000200226 
 1.215  -04 6.5    +0043.344                                      1191000200227 
 1.22   -04 6.2    +0043.344                                      1191000200228 
 1.23   -04 5.7    +0043.344                                      1191000200229 
 1.24   -04 5.8    +0043.344                                      1191000200230 
 1.29   -04 5.8    +0043.344                                      1191000200231 
 1.30   -04 5.6    +0043.344                                      1191000200232 
 1.31   -04 5.8    +0043.344                                      1191000200233 
 1.34   -04 5.9    +0043.344                                      1191000200234 
 1.35   -04 5.8    +0043.344                                      1191000200235 
 1.36   -04 5.9    +0043.344                                      1191000200236 
 1.37   -04 5.6    +0043.344                                      1191000200237 
 1.38   -04 6.0    +0043.344                                      1191000200238 
 1.39   -04 6.0    +0043.344                                      1191000200239 
 1.40   -04 6.0    +0043.344                                      1191000200240 
 1.41   -04 6.0    +0043.344                                      1191000200241 
 1.42   -04 5.8    +0043.344                                      1191000200242 
 1.43   -04 5.9    +0043.344                                      1191000200243 
 1.44   -04 5.9    +0043.344                                      1191000200244 
 1.45   -04 6.0    +0043.344                                      1191000200245 
 1.46   -04 6.0    +0043.344                                      1191000200246 
 1.47   -04 5.8    +0043.344                                      1191000200247 
 1.48   -04 5.9    +0043.344                                      1191000200248 
 1.49   -04 6.0    +0043.344                                      1191000200249 
 1.50   -04 5.9    +0043.344                                      1191000200250 
 1.51   -04 6.0    +0043.344                                      1191000200251 
 1.52   -04 6.0    +0043.344                                      1191000200252 
 1.53   -04 6.1    +0043.344                                      1191000200253 
 1.54   -04 5.9    +0043.344                                      1191000200254 
 1.55   -04 5.9    +0043.344                                      1191000200255 
 1.56   -04 5.8    +0043.344                                      1191000200256 
 1.57   -04 5.8    +0043.344                                      1191000200257 
 1.58   -04 6.0    +0043.344                                      1191000200258 
 1.59   -04 5.8    +0043.344                                      1191000200259 
 1.60   -04 6.0    +0043.344                                      1191000200260 
 1.61   -04 6.1    +0043.344                                      1191000200261 
 1.62   -04 5.9    +0043.344                                      1191000200262 
 1.63   -04 5.9    +0043.344                                      1191000200263 
 1.64   -04 6.0    +0043.344                                      1191000200264 
 1.65   -04 6.1    +0043.344                                      1191000200265 
 1.66   -04 6.0    +0043.344                                      1191000200266 
 1.67   -04 6.4    +0043.344                                      1191000200267 
 1.69   -04 5.9    +0043.344                                      1191000200268 
 1.70   -04 6.1    +0043.344                                      1191000200269 
 1.71   -04 5.9    +0043.344                                      1191000200270 
 1.72   -04 6.0    +0043.344                                      1191000200271 
 1.73   -04 6.1    +0043.344                                      1191000200272 
 1.74   -04 6.5    +0043.344                                      1191000200273 
 1.75   -04 6.2    +0043.344                                      1191000200274 
 1.76   -04 6.1    +0043.344                                      1191000200275 
 1.77   -04 5.8    +0043.344                                      1191000200276 
 1.78   -04 5.9    +0043.344                                      1191000200277 
 1.79   -04 5.8    +0043.344                                      1191000200278 
 1.80   -04 5.7    +0043.344                                      1191000200279 
 1.81   -04 5.9    +0043.344                                      1191000200280 
 1.82   -04 5.6    +0043.344                                      1191000200281 
 1.83   -04 5.8    +0043.344                                      1191000200282 
 1.84   -04 5.7    +0043.344                                      1191000200283 
 1.85   -04 5.7    +0043.344                                      1191000200284 
 1.86   -04 5.7    +0043.344                                      1191000200285 
 1.87   -04 5.7    +0043.344                                      1191000200286 
 1.88   -04 5.9    +00 7.631                                      1191000200287 
 1.89   -04 6.1    +00 7.631                                      1191000200288 
 1.90   -04 7.1    +00 7.631                                      1191000200289 
 1.91   -04 8.1    +00 7.631                                      1191000200290 
 1.92   -04 1.63   +01 2.725                                      1191000200291 
 1.93   -04 2.33   +01 2.725                                      1191000200292 
 1.94   -04 3.84   +01 2.725                                      1191000200293 
 1.95   -04 4.01   +01 2.725                                      1191000200294 
 1.96   -04 3.28   +01 2.725                                      1191000200295 
 1.97   -04 2.00   +01 2.725                                      1191000200296 
 1.98   -04 1.27   +01 2.725                                      1191000200297 
 1.99   -04 7.5    +0021.672                                      1191000200298 
 2.00   -04 7.0    +0021.672                                      1191000200299 
 2.01   -04 6.6    +0021.672                                      1191000200300 
 2.03   -04 6.6    +0021.672                                      1191000200301 
 2.04   -04 6.6    +0021.672                                      1191000200302 
 2.05   -04 6.5    +0021.672                                      1191000200303 
 2.06   -04 6.6    +0021.672                                      1191000200304 
 2.07   -04 6.4    +0021.672                                      1191000200305 
 2.08   -04 6.5    +0021.672                                      1191000200306 
 2.09   -04 6.0    +0021.672                                      1191000200307 
 2.10   -04 6.3    +0021.672                                      1191000200308 
 2.11   -04 6.1    +0021.672                                      1191000200309 
 2.12   -04 6.7    +0021.672                                      1191000200310 
 2.13   -04 5.8    +0021.672                                      1191000200311 
 2.14   -04 5.9    +0021.672                                      1191000200312 
 2.15   -04 6.4    +0021.672                                      1191000200313 
 2.16   -04 6.4    +0021.672                                      1191000200314 
 2.17   -04 6.4    +0021.672                                      1191000200315 
 2.19   -04 6.5    +0021.672                                      1191000200316 
 2.20   -04 6.3    +0021.672                                      1191000200317 
 2.21   -04 6.3    +0021.672                                      1191000200318 
 2.22   -04 6.2    +0021.672                                      1191000200319 
 2.23   -04 6.4    +0021.672                                      1191000200320 
 2.24   -04 6.2    +0021.672                                      1191000200321 
 2.26   -04 6.5    +0021.672                                      1191000200322 
 2.27   -04 6.1    +0021.672                                      1191000200323 
 2.28   -04 6.1    +0021.672                                      1191000200324 
 2.29   -04 5.8    +0021.672                                      1191000200325 
 2.30   -04 6.1    +0021.672                                      1191000200326 
 2.32   -04 6.1    +0021.672                                      1191000200327 
 2.33   -04 6.3    +0021.672                                      1191000200328 
 2.34   -04 5.9    +0021.672                                      1191000200329 
 2.35   -04 6.0    +0021.672                                      1191000200330 
 2.37   -04 6.0    +0021.672                                      1191000200331 
 2.38   -04 6.1    +0021.672                                      1191000200332 
 2.39   -04 6.0    +0021.672                                      1191000200333 
 2.41   -04 7.1    +00 7.631                                      1191000200334 
 2.42   -04 7.7    +00 7.631                                      1191000200335 
 2.43   -04 9.1    +00 7.631                                      1191000200336 
 2.45   -04 8.6    +00 7.631                                      1191000200337 
 2.46   -04 8.3    +00 7.631                                      1191000200338 
 2.47   -04 6.6    +0021.672                                      1191000200339 
 2.49   -04 6.4    +0021.672                                      1191000200340 
 2.50   -04 5.8    +0021.672                                      1191000200341 
 2.52   -04 6.1    +0021.672                                      1191000200342 
 2.53   -04 6.2    +0021.672                                      1191000200343 
 2.54   -04 6.2    +0021.672                                      1191000200344 
 2.56   -04 5.7    +0021.672                                      1191000200345 
 2.57   -04 5.8    +0021.672                                      1191000200346 
 2.59   -04 5.9    +0021.672                                      1191000200347 
 2.60   -04 6.2    +0021.672                                      1191000200348 
 2.62   -04 6.1    +0021.672                                      1191000200349 
 2.63   -04 5.8    +0021.672                                      1191000200350 
 2.65   -04 5.5    +0021.672                                      1191000200351 
 2.66   -04 5.8    +0021.672                                      1191000200352 
 2.68   -04 6.2    +0021.672                                      1191000200353 
 2.69   -04 6.3    +0021.672                                      1191000200354 
 2.71   -04 6.1    +0021.672                                      1191000200355 
 2.72   -04 6.2    +0021.672                                      1191000200356 
 2.74   -04 6.0    +0021.672                                      1191000200357 
 2.76   -04 5.8    +0021.672                                      1191000200358 
 2.77   -04 5.9    +0021.672                                      1191000200359 
 2.79   -04 6.0    +0021.672                                      1191000200360 
 2.80   -04 5.9    +0021.672                                      1191000200361 
 2.82   -04 6.1    +0021.672                                      1191000200362 
 2.84   -04 5.8    +0021.672                                      1191000200363 
 2.89   -04 5.7    +0021.672                                      1191000200364 
 2.91   -04 5.9    +0021.672                                      1191000200365 
 2.92   -04 6.1    +0021.672                                      1191000200366 
 2.94   -04 5.9    +0021.672                                      1191000200367 
 2.98   -04 5.8    +0021.672                                      1191000200368 
 3.00   -04 5.8    +0021.672                                      1191000200369 
 3.01   -04 5.8    +0021.672                                      1191000200370 
 3.03   -04 6.0    +0021.672                                      1191000200371 
 3.05   -04 6.0    +0021.672                                      1191000200372 
 3.07   -04 5.8    +0021.672                                      1191000200373 
 3.09   -04 5.9    +0021.672                                      1191000200374 
 3.11   -04 6.0    +0021.672                                      1191000200375 
 3.13   -04 6.1    +0021.672                                      1191000200376 
 3.15   -04 6.2    +0021.672                                      1191000200377 
 3.17   -04 6.5    +0021.672                                      1191000200378 
 3.19   -04 6.8    +0021.672                                      1191000200379 
 3.21   -04 6.8    +0021.672                                      1191000200380 
 3.23   -04 6.6    +0021.672                                      1191000200381 
 3.25   -04 5.7    +0021.672                                      1191000200382 
 3.27   -04 5.8    +0021.672                                      1191000200383 
 3.29   -04 6.6    +00 2.725                                      1191000200384 
 3.31   -04 7.3    +00 2.725                                      1191000200385 
 3.33   -04 1.16   +01 2.725                                      1191000200386 
 3.35   -04 1.42   +01 2.725                                      1191000200387 
 3.38   -04 1.49   +01 2.725                                      1191000200388 
 3.40   -04 1.22   +01 2.725                                      1191000200389 
 3.42   -04 7.3    +00 2.725                                      1191000200390 
 3.44   -04 5.9    +0021.672                                      1191000200391 
 3.46   -04 5.9    +0021.672                                      1191000200392 
 3.49   -04 6.0    +0021.672                                      1191000200393 
 3.51   -04 5.3    +0021.672                                      1191000200394 
 3.53   -04 5.7    +0021.672                                      1191000200395 
 3.56   -04 5.8    +0021.672                                      1191000200396 
 3.58   -04 5.7    +0021.672                                      1191000200397 
 3.60   -04 5.4    +0021.672                                      1191000200398 
 3.63   -04 6.0    +0021.672                                      1191000200399 
 3.65   -04 5.8    +0021.672                                      1191000200400 
 3.68   -04 5.8    +0021.672                                      1191000200401 
 3.70   -04 6.7    +00 2.725                                      1191000200402 
 3.73   -04 9.0    +00 2.725                                      1191000200403 
 3.75   -04 1.60   +01 2.725                                      1191000200404 
 3.78   -04 2.09   +01 2.725                                      1191000200405 
 3.81   -04 2.32   +01 2.725                                      1191000200406 
 3.83   -04 1.83   +01 2.725                                      1191000200407 
 3.86   -04 1.30   +01 2.725                                      1191000200408 
 3.89   -04 1.07   +01 2.725                                      1191000200409 
 3.91   -04 8.0    +0021.672                                      1191000200410 
 3.94   -04 7.5    +0021.672                                      1191000200411 
 3.97   -04 7.2    +0021.672                                      1191000200412 
 4.00   -04 6.6    +0021.672                                      1191000200413 
 4.02   -04 6.4    +0021.672                                      1191000200414 
 4.08   -04 6.5    +0021.672                                      1191000200415 
 4.11   -04 6.3    +0021.672                                      1191000200416 
 4.14   -04 6.3    +0021.672                                      1191000200417 
 4.17   -04 6.4    +0021.672                                      1191000200418 
 4.20   -04 6.3    +0021.672                                      1191000200419 
 4.23   -04 6.4    +0021.672                                      1191000200420 
 4.26   -04 6.0    +0021.672                                      1191000200421 
 4.29   -04 6.1    +0021.672                                      1191000200422 
 4.32   -04 5.8    +0021.672                                      1191000200423 
 4.36   -04 6.0    +0021.672                                      1191000200424 
 4.39   -04 6.0    +0021.672                                      1191000200425 
 4.42   -04 6.4    +0021.672                                      1191000200426 
 4.45   -04 6.2    +0021.672                                      1191000200427 
 4.49   -04 6.3    +0021.672                                      1191000200428 
 4.59   -04 7.0    +0021.672                                      1191000200429 
 4.62   -04 7.5    +0021.672                                      1191000200430 
 4.66   -04 7.2    +0021.672                                      1191000200431 
 4.69   -04 6.4    +0021.672                                      1191000200432 
 4.73   -04 6.2    +0021.672                                      1191000200433 
 4.77   -04 6.3    +0021.672                                      1191000200434 
 4.80   -04 5.9    +0021.672                                      1191000200435 
 4.84   -04 6.0    +0021.672                                      1191000200436 
 4.87   -04 5.9    +0021.672                                      1191000200437 
 4.92   -04 6.5    +0021.672                                      1191000200438 
 4.96   -04 6.5    +0021.672                                      1191000200439 
 4.99   -04 6.7    +0021.672                                      1191000200440 
 5.03   -04 6.6    +0021.672                                      1191000200441 
 5.07   -04 6.5    +0021.672                                      1191000200442 
 5.11   -04 6.5    +0021.672                                      1191000200443 
 5.16   -04 6.2    +0021.672                                      1191000200444 
 5.20   -04 6.0    +0021.672                                      1191000200445 
 5.24   -04 6.1    +0021.672                                      1191000200446 
 5.28   -04 6.0    +0021.672                                      1191000200447 
 5.32   -04 5.8    +0021.672                                      1191000200448 
 5.37   -04 6.1    +0021.672                                      1191000200449 
 5.41   -04 6.1    +0021.672                                      1191000200450 
 5.46   -04 5.7    +0021.672                                      1191000200451 
 5.50   -04 5.8    +0021.672                                      1191000200452 
 5.55   -04 5.8    +0021.672                                      1191000200453 
 5.59   -04 6.0    +0021.672                                      1191000200454 
 5.64   -04 5.9    +0021.672                                      1191000200455 
 5.69   -04 6.2    +0021.672                                      1191000200456 
 5.74   -04 5.6    +0021.672                                      1191000200457 
 5.78   -04 5.8    +0021.672                                      1191000200458 
 5.83   -04 6.0    +0021.672                                      1191000200459 
 5.88   -04 6.0    +0021.672                                      1191000200460 
 5.93   -04 6.0    +0021.672                                      1191000200461 
 5.99   -04 6.0    +0021.672                                      1191000200462 
 6.04   -04 6.5    +0021.672                                      1191000200463 
 6.09   -04 6.3    +0021.672                                      1191000200464 
 6.14   -04 6.2    +0021.672                                      1191000200465 
 6.20   -04 5.8    +0021.672                                      1191000200466 
 6.25   -04 6.1    +0021.672                                      1191000200467 
 6.31   -04 6.3    +0021.672                                      1191000200468 
 6.36   -04 6.2    +0021.672                                      1191000200469 
 6.42   -04 6.3    +0021.672                                      1191000200470 
 6.48   -04 6.2    +0021.672                                      1191000200471 
 6.54   -04 6.1    +0021.672                                      1191000200472 
 6.60   -04 5.9    +0021.672                                      1191000200473 
 6.66   -04 6.4    +0021.672                                      1191000200474 
 6.72   -04 6.4    +0021.672                                      1191000200475 
 6.78   -04 6.5    +0021.672                                      1191000200476 
 6.84   -04 5.7    +0021.672                                      1191000200477 
 6.90   -04 5.8    +0021.672                                      1191000200478 
 6.97   -04 5.3    +0021.672                                      1191000200479 
 7.03   -04 5.8    +0021.672                                      1191000200480 
 7.10   -04 6.0    +0021.672                                      1191000200481 
 7.16   -04 5.9    +0021.672                                      1191000200482 
 7.23   -04 6.2    +0021.672                                      1191000200483 
 7.25   -04 8.4    +00 2.725                                      1191000200484 
 7.32   -04 1.01   +01 2.725                                      1191000200485 
 7.39   -04 1.27   +01 2.725                                      1191000200486 
 7.46   -04 1.04   +01 2.725                                      1191000200487 
 7.53   -04 8.4    +00 2.725                                      1191000200488 
 7.66   -04 6.6    +00 7.631                                      1191000200489 
 7.74   -04 6.3    +00 7.631                                      1191000200490 
 7.80   -04 6.6    +00 7.631                                      1191000200491 
 7.88   -04 5.9    +00 7.631                                      1191000200492 
 7.96   -04 6.2    +00 7.631                                      1191000200493 
 8.04   -04 5.4    +00 7.631                                      1191000200494 
 8.12   -04 5.0    +00 7.631                                      1191000200495 
 8.20   -04 5.3    +00 7.631                                      1191000200496 
 8.28   -04 5.5    +00 7.631                                      1191000200497 
 8.54   -04 5.5    +00 7.631                                      1191000200498 
 8.63   -04 5.9    +00 7.631                                      1191000200499 
 8.72   -04 4.7    +00 7.631                                      1191000200500 
 8.81   -04 4.9    +00 7.631                                      1191000200501 
 8.90   -04 4.6    +00 7.631                                      1191000200502 
 9.00   -04 5.5    +00 7.631                                      1191000200503 
 9.09   -04 4.9    +00 7.631                                      1191000200504 
 9.20   -04 5.9    +00 7.631                                      1191000200505 
 9.29   -04 6.9    +00 7.631                                      1191000200506 
 9.39   -04 9.3    +00 7.631                                      1191000200507 
 9.49   -04 9.5    +00 7.631                                      1191000200508 
 9.59   -04 8.2    +00 7.631                                      1191000200509 
 9.70   -04 7.4    +00 7.631                                      1191000200510 
 9.81   -04 6.2    +00 7.631                                      1191000200511 
 9.92   -04 6.4    +00 7.631                                      1191000200512 
 1.003  -03 7.6    +00 7.631                                      1191000200513 
 1.014  -03 1.01   +01 7.631                                      1191000200514 
 1.037  -03 9.1    +00 7.631                                      1191000200515 
 1.049  -03 7.7    +00 7.631                                      1191000200516 
 1.061  -03 6.0    +00 7.631                                      1191000200517 
 1.073  -03 6.1    +00 7.631                                      1191000200518 
 1.086  -03 6.0    +00 7.631                                      1191000200519 
 1.098  -03 6.1    +00 7.631                                      1191000200520 
 1.111  -03 6.0    +00 7.631                                      1191000200521 
 1.125  -03 6.6    +00 7.631                                      1191000200522 
 1.138  -03 7.4    +00 7.631                                      1191000200523 
 1.152  -03 8.2    +00 7.631                                      1191000200524 
 1.165  -03 9.4    +00 7.631                                      1191000200525 
 1.180  -03 1.00   +01 7.631                                      1191000200526 
 1.194  -03 9.5    +00 7.631                                      1191000200527 
 1.209  -03 9.0    +00 7.631                                      1191000200528 
 1.224  -03 7.6    +00 7.631                                      1191000200529 
 1.239  -03 7.1    +00 7.631                                      1191000200530 
 1.254  -03 6.7    +00 7.631                                      1191000200531 
 1.270  -03 6.4    +00 7.631                                      1191000200532 
 1.286  -03 6.1    +00 7.631                                      1191000200533 
 1.302  -03 5.5    +00 7.631                                      1191000200534 
 1.319  -03 5.9    +00 7.631                                      1191000200535 
 1.336  -03 6.3    +00 7.631                                      1191000200536 
 1.354  -03 5.7    +00 7.631                                      1191000200537 
 1.372  -03 6.0    +00 7.631                                      1191000200538 
 1.389  -03 6.4    +00 7.631                                      1191000200539 
 1.408  -03 7.1    +00 7.631                                      1191000200540 
 1.427  -03 7.0    +00 7.631                                      1191000200541 
 1.446  -03 8.2    +00 7.631                                      1191000200542 
 1.465  -03 8.9    +00 7.631                                      1191000200543 
 1.485  -03 8.8    +00 7.631                                      1191000200544 
 1.506  -03 8.1    +00 7.631                                      1191000200545 
 1.526  -03 8.1    +00 7.631                                      1191000200546 
 1.548  -03 7.3    +00 7.631                                      1191000200547 
 1.569  -03 8.0    +00 7.631                                      1191000200548 
 1.591  -03 7.0    +00 7.631                                      1191000200549 
 1.614  -03 7.7    +00 7.631                                      1191000200550 
 1.637  -03 6.8    +00 7.631                                      1191000200551 
 1.661  -03 6.0    +00 7.631                                      1191000200552 
 1.685  -03 5.9    +00 7.631                                      1191000200553 
 1.709  -03 6.7    +00 7.631                                      1191000200554 
 1.735  -03 5.9    +00 7.631                                      1191000200555 
 1.760  -03 5.7    +00 7.631                                      1191000200556 
 1.787  -03 6.0    +00 7.631                                      1191000200557 
 1.813  -03 7.5    +00 7.631                                      1191000200558 
 1.841  -03 7.3    +00 7.631                                      1191000200559 
 1.869  -03 6.4    +00 7.631                                      1191000200560 
 1.898  -03 6.4    +00 7.631                                      1191000200561 
 1.927  -03 5.7    +00 7.631                                      1191000200562 
 1.957  -03 5.7    +00 7.631                                      1191000200563 
 1.988  -03 6.3    +00 7.631                                      1191000200564 
 2.020  -03 6.7    +00 7.631                                      1191000200565 
 2.053  -03 8.1    +00 7.631                                      1191000200566 
 2.085  -03 7.9    +00 7.631                                      1191000200567 
 2.190  -03 7.6    +00 7.631                                      1191000200568 
 2.226  -03 6.8    +00 7.631                                      1191000200569 
 2.264  -03 6.3    +00 7.631                                      1191000200570 
 2.302  -03 6.1    +00 7.631                                      1191000200571 
 2.341  -03 6.9    +00 7.631                                      1191000200572 
 2.382  -03 7.7    +00 7.631                                      1191000200573 
 2.423  -03 9.4    +00 7.631                                      1191000200574 
 2.466  -03 9.6    +00 7.631                                      1191000200575 
 2.509  -03 8.7    +00 7.631                                      1191000200576 
 2.554  -03 8.1    +00 7.631                                      1191000200577 
 2.600  -03 8.0    +00 7.631                                      1191000200578 
 2.648  -03 9.0    +00 7.631                                      1191000200579 
 2.696  -03 9.0    +00 7.631                                      1191000200580 
 2.747  -03 8.9    +00 7.631                                      1191000200581 
 2.798  -03 7.9    +00 7.631                                      1191000200582 
 2.850  -03 6.7    +00 7.631                                      1191000200583 
 2.905  -03 6.8    +00 7.631                                      1191000200584 
 2.961  -03 6.8    +00 7.631                                      1191000200585 
 3.018  -03 7.0    +00 7.631                                      1191000200586 
 3.078  -03 6.7    +00 7.631                                      1191000200587 
 3.139  -03 6.7    +00 7.631                                      1191000200588 
 3.201  -03 5.9    +00 7.631                                      1191000200589 
 3.266  -03 6.3    +00 7.631                                      1191000200590 
 3.333  -03 6.2    +00 7.631                                      1191000200591 
 3.402  -03 7.0    +00 7.631                                      1191000200592 
 3.473  -03 7.3    +00 7.631                                      1191000200593 
 3.546  -03 7.5    +00 7.631                                      1191000200594 
 3.621  -03 6.6    +00 7.631                                      1191000200595 
 3.699  -03 7.3    +00 7.631                                      1191000200596 
 3.780  -03 6.6    +00 7.631                                      1191000200597 
 3.863  -03 7.4    +00 7.631                                      1191000200598 
 3.949  -03 7.5    +00 7.631                                      1191000200599 
 4.038  -03 7.6    +00 7.631                                      1191000200600 
 4.130  -03 7.5    +00 7.631                                      1191000200601 
 4.225  -03 7.0    +00 7.631                                      1191000200602 
 4.323  -03 6.6    +00 7.631                                      1191000200603 
 4.425  -03 6.3    +00 7.631                                      1191000200604 
 4.530  -03 6.3    +00 7.631                                      1191000200605 
 4.640  -03 6.9    +00 7.631                                      1191000200606 
 4.753  -03 7.3    +00 7.631                                      1191000200607 
 5.118  -03 6.9    +00 7.631                                      1191000200608 
 5.250  -03 6.9    +00 7.631                                      1191000200609 
 5.387  -03 6.9    +00 7.631                                      1191000200610 
 5.529  -03 6.6    +00 7.631                                      1191000200611 
 5.677  -03 6.9    +00 7.631                                      1191000200612 
 5.830  -03 7.1    +00 7.631                                      1191000200613 
 5.990  -03 7.4    +00 7.631                                      1191000200614 
 6.156  -03 8.6    +00 7.631                                      1191000200615 
 6.330  -03 8.0    +00 7.631                                      1191000200616 
 6.511  -03 7.9    +00 7.631                                      1191000200617 
 6.700  -03 7.0    +00 7.631                                      1191000200618 
 6.898  -03 7.5    +00 7.631                                      1191000200619 
 7.103  -03 7.3    +00 7.631                                      1191000200620 
 7.319  -03 6.4    +00 7.631                                      1191000200621 
 7.545  -03 6.9    +00 7.631                                      1191000200622 
 7.781  -03 7.3    +00 7.631                                      1191000200623 
 8.028  -03 7.4    +00 7.631                                      1191000200624 
 8.288  -03 6.7    +00 7.631                                      1191000200625 
 8.560  -03 6.7    +00 7.631                                      1191000200626 
 8.846  -03 7.4    +00 7.631                                      1191000200627 
 9.146  -03 7.6    +00 7.631                                      1191000200628 
 9.462  -03 7.4    +00 7.631                                      1191000200629 
 9.795  -03 7.3    +00 7.631                                      1191000200630 
 1.0145 -02 6.9    +00 7.631                                      1191000200631 
 1.0515 -02 6.8    +00 7.631                                      1191000200632 
 1.0905 -02 6.8    +00 7.631                                      1191000200633 
 1.1317 -02 7.0    +00 7.631                                      1191000200634 
 1.1753 -02 6.7    +00 7.631                                      1191000200635 
 1.2215 -02 7.5    +00 7.631                                      1191000200636 
 1.2704 -02 7.6    +00 7.631                                      1191000200637 
 1.3224 -02 7.4    +00 7.631                                      1191000200638 
 1.3776 -02 7.5    +00 7.631                                      1191000200639 
 1.4363 -02 7.3    +00 7.631                                      1191000200640 
 1.4989 -02 6.9    +00 7.631                                      1191000200641 
 1.5657 -02 7.7    +00 7.631                                      1191000200642 
 1.6370 -02 6.9    +00 7.631                                      1191000200643 
 1.7133 -02 7.4    +00 7.631                                      1191000200644 
 1.7950 -02 7.0    +00 7.631                                      1191000200645 
 1.8828 -02 7.1    +00 7.631                                      1191000200646 
 1.9772 -02 6.9    +00 7.631                                      1191000200647 
ENDDATA            636          0                                 1191000200648 
ENDSUBENT          647          0                                 1191000299999 
SUBENT        11910003   19771029                             00001191000300001 
BIB                  2          6                                 1191000300002 
REACTION  1(41-NB-93(N,0),,EN)                                    1191000300003 
          2(41-NB-93(N,TOT),,SIG,,RES)                            1191000300004 
          3(41-NB-93(N,TOT),,WID)                                 1191000300005 
          4(41-NB-93(N,G),,WID)                                   1191000300006 
          5(41-NB-93(N,EL),,WID,,2G)                              1191000300007 
ASSUMED    (ASSUM,41-NB-93(N,G),,WID)                             1191000300008 
ENDBIB               6          0                                 1191000300009 
NOCOMMON             0          0                                 1191000300010 
DATA                10         13                                 1191000300011 
DATA      1DATA      2DATA-ERR  2DATA      3DATA-ERR  3DATA      41191000300012 
DATA-ERR  4DATA      5DATA-ERR  5ASSUM                            1191000300013 
EV         B          B          MILLI-EV   MILLI-EV   MILLI-EV   1191000300014 
MILLI-EV   MILLI-EV   MILLI-EV   MILLI-EV                         1191000300015 
 35.9       25.9       7.         206.       51.        205.      1191000300016 
 51.         0.15      0.01                                       1191000300017 
 42.2       10.7       3.         256.       84.        256.      1191000300018 
 84.         0.13      0.01                                       1191000300019 
 94.3       21.8       6.         220.       46.                  1191000300020 
             0.35      0.03       220.                            1191000300021 
106.        21.5       6.         220.       46.                  1191000300022 
             0.39      0.04       220.                            1191000300023 
119.       137.       50.         223.       46.                  1191000300024 
             2.8       0.5        220.                            1191000300025 
194.       810.       300.        250.       48.                  1191000300026 
            30.2       6.         220.                            1191000300027 
244.        39.         9.        222.       46.                  1191000300028 
             1.64      0.3        220.                            1191000300029 
320.        34.        10.        222.       46.                  1191000300030 
             1.85      0.4        220.                            1191000300031 
336.       350.       100.        242.       41.                  1191000300032 
            21.9       3.7        220.                            1191000300033 
381.         1.115 +03215.        327.       38.                  1191000300034 
           107.       14.         220.                            1191000300035 
462.        97.        37.        228.       46.                  1191000300036 
             7.8       2.3        220.                            1191000300037 
503.        85.        31.        227.       46.                  1191000300038 
             7.5       2.2        220.                            1191000300039 
744.       925.       128.        460.       38.                  1191000300040 
           240.       27.         220.                            1191000300041 
ENDDATA             30          0                                 1191000300042 
ENDSUBENT           41          0                                 1191000399999 
ENDENTRY             3          0                                 1191099999999 
