ENTRY            11969   19930316                             00001196900000001 
SUBENT        11969001   19930316                             00001196900100001 
BIB                  7          9                                 1196900100002 
INSTITUTE  (1USABNL,1USACOL)                                      1196900100003 
REFERENCE  (J,PR,109,417,5801)                                    1196900100004 
AUTHOR     (J.A.MOORE)                                            1196900100005 
TITLE      RESONANCE SCATTERING OF SLOW NEUTRONS ON INDIUM.       1196900100006 
FACILITY   (SPECC,1USABNL)                                        1196900100007 
STATUS     (SCSRS)                                                1196900100008 
HISTORY    (760802T) TRANSLATED FROM SCISRS                       1196900100009 
           (830802A) CONVERTED TO REACTION FORMALISM              1196900100010 
           (930316A) BIB UPDATE. CONVERTED TO LOWER CASE          1196900100011 
ENDBIB               9          0                                 1196900100012 
NOCOMMON             0          0                                 1196900100013 
ENDSUBENT           12          0                                 1196900199999 
NOSUBENT      11969002   19830802                             00001196900200001 
SUBENT        11969003   19830802                             00001196900300001 
BIB                  3          9                                 1196900300002 
REACTION  1(49-IN-115(N,0),,EN)                                   1196900300003 
          2(49-IN-115(N,0),,J)                                    1196900300004 
          3(49-IN-115(N,TOT),,WID)                                1196900300005 
          4(49-IN-115(N,EL),,WID)                                 1196900300006 
          5(49-IN-115(N,G),,WID)                                  1196900300007 
          6(49-IN-115(N,TOT),,WID,,SQ/S0)                         1196900300008 
METHOD     SCATTERING AND TRANSMISSION                            1196900300009 
HISTORY    (790731A) ISOTOPE CORRECTED.                           1196900300010 
           (830222A) SUBENTRIES 2,3 COMBINED                      1196900300011 
ENDBIB               9          0                                 1196900300012 
NOCOMMON             0          0                                 1196900300013 
DATA                11          3                                 1196900300014 
DATA      1DATA-ERR  1DATA      2DATA      3DATA-ERR  3DATA      41196900300015 
DATA-ERR  4DATA      5DATA-ERR  5DATA      6DATA-ERR  6           1196900300016 
MEV        MEV        NO-DIM     EV         EV         EV         1196900300017 
EV         EV         EV         B*EV-SQ    B*EV-SQ               1196900300018 
 1.456  -06 2.     -09 5.     +00 0.075      0.002      0.0030    1196900300019 
 0.0001     0.072      0.002     213.        4.                   1196900300020 
 3.85   -06 2.     -08                                            1196900300021 
                                  8.2       0.2                   1196900300022 
  9.0   -06                                                       1196900300023 
                                  19.7       0.3                  1196900300024 
ENDDATA             10          0                                 1196900300025 
ENDSUBENT           24          0                                 1196900399999 
SUBENT        11969004   19830802                             00001196900400001 
BIB                  2          2                                 1196900400002 
REACTION   (49-IN-0(N,TOT),,SIG)                                  1196900400003 
STATUS     DATA ABOVE 1 EV READ FROM BNL-325 (1958).              1196900400004 
ENDBIB               2          0                                 1196900400005 
NOCOMMON             0          0                                 1196900400006 
DATA                 2        133                                 1196900400007 
EN         DATA                                                   1196900400008 
EV         B                                                      1196900400009 
 0.3299       90.33                                               1196900400010 
 0.3465       90.93                                               1196900400011 
 0.3644       91.08                                               1196900400012 
 0.3838       92.23                                               1196900400013 
 0.4048       94.33                                               1196900400014 
 0.4277       95.03                                               1196900400015 
 0.4659      100.43                                               1196900400016 
 0.4869      101.43                                               1196900400017 
 0.5018      101.3                                                1196900400018 
 0.5028       99.6                                                1196900400019 
 0.5076      101.1                                                1196900400020 
 0.5175      101.9                                                1196900400021 
 0.5175      102.6                                                1196900400022 
 0.5256      100.6                                                1196900400023 
 0.5339      106.4                                                1196900400024 
 0.5339      103.8                                                1196900400025 
 0.5446      105.2                                                1196900400026 
 0.5511      107.5                                                1196900400027 
 0.5511      105.7                                                1196900400028 
 0.5600      105.1                                                1196900400029 
 0.5692      111.5                                                1196900400030 
 0.5692      112.1                                                1196900400031 
 0.5810      110.7                                                1196900400032 
 0.5882      111.2                                                1196900400033 
 0.5882      111.8                                                1196900400034 
 0.5944      112.9                                                1196900400035 
 0.6082      115.1                                                1196900400036 
 0.6082      116.4                                                1196900400037 
 0.6186      116.2                                                1196900400038 
 0.6293      117.9                                                1196900400039 
 0.6293      120.6                                                1196900400040 
 0.6402      120.0                                                1196900400041 
 0.6472      124.5                                                1196900400042 
 0.6515      122.3                                                1196900400043 
 0.6616      126.8                                                1196900400044 
 0.6749      125.6                                                1196900400045 
 0.6749      131.8                                                1196900400046 
 0.6902      130.7                                                1196900400047 
 0.6997      133.7                                                1196900400048 
 0.7061      137.0                                                1196900400049 
 0.7142      134.8                                                1196900400050 
 0.7258      143.4                                                1196900400051 
 0.7258      142.9                                                1196900400052 
 0.7395      149.8                                                1196900400053 
 0.7535      153.7                                                1196900400054 
 0.90        210.                                                 1196900400055 
 0.96        275.                                                 1196900400056 
 1.02        334.                                                 1196900400057 
 1.04        358.                                                 1196900400058 
 1.07        391.                                                 1196900400059 
 1.075       421.                                                 1196900400060 
 1.10        472.                                                 1196900400061 
 1.16        610.                                                 1196900400062 
 1.20        915.                                                 1196900400063 
 1.24       1180.                                                 1196900400064 
 1.66       1440.                                                 1196900400065 
 1.69       1150.                                                 1196900400066 
 1.69       1000.                                                 1196900400067 
 1.70        915.                                                 1196900400068 
 1.7077      816.3                                                1196900400069 
 1.7077      814.1                                                1196900400070 
 1.7201      738.2                                                1196900400071 
 1.7201      754.8                                                1196900400072 
 1.7327      700.1                                                1196900400073 
 1.7453      628.4                                                1196900400074 
 1.7453      645.3                                                1196900400075 
 1.76        600.                                                 1196900400076 
 1.78        552.                                                 1196900400077 
 1.80        492.                                                 1196900400078 
 1.83        412.                                                 1196900400079 
 1.85        382.                                                 1196900400080 
 1.88        286.                                                 1196900400081 
 1.90        275.                                                 1196900400082 
 1.93        241.                                                 1196900400083 
 1.9636      197.2                                                1196900400084 
 1.97        198.                                                 1196900400085 
 2.10        124.                                                 1196900400086 
 2.25         87.                                                 1196900400087 
 2.89         28.8                                                1196900400088 
 2.90         27.7                                                1196900400089 
 3.08         25.7                                                1196900400090 
 3.18         24.9                                                1196900400091 
 3.30         24.6                                                1196900400092 
 3.40         26.9                                                1196900400093 
 3.43         28.6                                                1196900400094 
 3.54         35.9                                                1196900400095 
 3.58         43.2                                                1196900400096 
 3.60         45.9                                                1196900400097 
 3.61         52.                                                 1196900400098 
 4.0          95.5                                                1196900400099 
 4.15         39.                                                 1196900400100 
 4.18         35.1                                                1196900400101 
 4.22         29.7                                                1196900400102 
 4.23         26.2                                                1196900400103 
 4.24         24.9                                                1196900400104 
 4.30         22.9                                                1196900400105 
 4.32         19.7                                                1196900400106 
 4.51         16.6                                                1196900400107 
 4.52         15.5                                                1196900400108 
 4.60         17.9                                                1196900400109 
 4.61         20.9                                                1196900400110 
 4.62         22.8                                                1196900400111 
 4.68         23.7                                                1196900400112 
 4.72         21.4                                                1196900400113 
 4.78         18.3                                                1196900400114 
 4.80         16.                                                 1196900400115 
 4.9          11.8                                                1196900400116 
 4.99         11.4                                                1196900400117 
 8.0868       19.931                                              1196900400118 
 8.0868       13.675                                              1196900400119 
 8.1513        9.831                                              1196900400120 
 8.1513       11.265                                              1196900400121 
 8.2165       14.031                                              1196900400122 
 8.2165       14.405                                              1196900400123 
 8.2826       17.431                                              1196900400124 
 8.2826       15.425                                              1196900400125 
 8.3494       16.231                                              1196900400126 
 8.3494       15.245                                              1196900400127 
 8.4170       25.431                                              1196900400128 
 8.4170       18.725                                              1196900400129 
 8.45         37.                                                 1196900400130 
 8.4855       24.331                                              1196900400131 
 8.4855       22.675                                              1196900400132 
 8.5548       25.531                                              1196900400133 
 8.5548       27.325                                              1196900400134 
 8.6          56.2                                                1196900400135 
 9.25         73.5                                                1196900400136 
 9.2973       73.905                                              1196900400137 
 9.3          50.7                                                1196900400138 
 9.5          33.9                                                1196900400139 
 9.7          17.2                                                1196900400140 
 9.75         15.0                                                1196900400141 
 9.8          13.1                                                1196900400142 
ENDDATA            135          0                                 1196900400143 
ENDSUBENT          142          0                                 1196900499999 
ENDENTRY             4          0                                 1196999999999 
