ENTRY            12338   20120820                             13851233800000001 
SUBENT        12338001   20120820                             13851233800100001 
BIB                  8         17                                 1233800100002 
INSTITUTE  (1USAORL)                                              1233800100003 
REFERENCE  (J,PR,104,1654,1956)                                   1233800100004 
           (J,PR,100,763,1955) Data were superseded by PR,104.    1233800100005 
AUTHOR     (R.W.Lamphere)                                         1233800100006 
TITLE      Fission cross sections of the uranium isotopes 233,    1233800100007 
            234, 236, 238 for fast neutrons.                      1233800100008 
FACILITY   (VDG,1USALAS)                                          1233800100009 
            Large Van-de-Graaff used for T and Li targets.        1233800100010 
            Small large-current Van-de-Graaff used for V target.  1233800100011 
MONITOR    Flux monitored using 235U foil.                        1233800100012 
STATUS     (SCSRS)                                                1233800100013 
           (CURVE) Read from large curves                         1233800100014 
HISTORY    (19760804T) Translated from SCISRS                     1233800100015 
           (19841005A) Converted to REACTION formalism            1233800100016 
           (20101116A) VM:Updated to new date formats,lower case. 1233800100017 
                    BIB updates. Superseded subentry 005 deleted. 1233800100018 
           (20120820U) SD: Ref. on PR,100,763 was added.          1233800100019 
ENDBIB              17          0                                 1233800100020 
NOCOMMON             0          0                                 1233800100021 
ENDSUBENT           20          0                                 1233800199999 
SUBENT        12338002   20101116                             13691233800200001 
BIB                  3          5                                 1233800200002 
REACTION   ((92-U-233(N,F),,SIG)/(92-U-235(N,F),,SIG))            1233800200003 
INC-SOURCE (P-T) Used above 317 keV.                              1233800200004 
           (P-LI7) 7Li(p,n) used from 4.8 to 152 keV and          1233800200005 
            51V(p,n) used from 148 to 542 keV.                    1233800200006 
DETECTOR   (FISCH) Ionization chamber                             1233800200007 
ENDBIB               5          0                                 1233800200008 
NOCOMMON             0          0                                 1233800200009 
DATA                 2         96                                 1233800200010 
EN         DATA                                                   1233800200011 
MEV        NO-DIM                                                 1233800200012 
 4.85   -03 1.400  +00                                            1233800200013 
 1.33   -02 1.400  +00                                            1233800200014 
 2.70   -02 1.38   +00                                            1233800200015 
 3.50   -02 1.37   +00                                            1233800200016 
 4.12   -02 1.35   +00                                            1233800200017 
 5.01   -02 1.39   +00                                            1233800200018 
 5.50   -02 1.43   +00                                            1233800200019 
 6.15   -02 1.39   +00                                            1233800200020 
 7.40   -02 1.40   +00                                            1233800200021 
 8.20   -02 1.41   +00                                            1233800200022 
 9.80   -02 1.362  +00                                            1233800200023 
 1.15   -01 1.40   +00                                            1233800200024 
 1.30   -01 1.45   +00                                            1233800200025 
 1.49   -01 1.51   +00                                            1233800200026 
 1.51   -01 1.50   +00                                            1233800200027 
 1.78   -01 1.53   +00                                            1233800200028 
 2.10   -01 1.62   +00                                            1233800200029 
 2.35   -01 1.63   +00                                            1233800200030 
 2.55   -01 1.703  +00                                            1233800200031 
 3.01   -01 1.745  +00                                            1233800200032 
 3.20   -01 1.718  +00                                            1233800200033 
 3.42   -01 1.745  +00                                            1233800200034 
 3.60   -01 1.677  +00                                            1233800200035 
 4.00   -01 1.708  +00                                            1233800200036 
 4.40   -01 1.697  +00                                            1233800200037 
 4.50   -01 1.755  +00                                            1233800200038 
 4.80   -01 1.698  +00                                            1233800200039 
 5.20   -01 1.756  +00                                            1233800200040 
 5.40   -01 1.727  +00                                            1233800200041 
 5.41   -01 1.71   +00                                            1233800200042 
 5.70   -01 1.79   +00                                            1233800200043 
 6.10   -01 1.706  +00                                            1233800200044 
 6.50   -01 1.729  +00                                            1233800200045 
 6.95   -01 1.729  +00                                            1233800200046 
 7.10   -01 1.71   +00                                            1233800200047 
 7.35   -01 1.689  +00                                            1233800200048 
 7.50   -01 1.776  +00                                            1233800200049 
 7.80   -01 1.69   +00                                            1233800200050 
 8.15   -01 1.699  +00                                            1233800200051 
 8.25   -01 1.70   +00                                            1233800200052 
 8.55   -01 1.66   +00                                            1233800200053 
 8.75   -01 1.66   +00                                            1233800200054 
 8.95   -01 1.659  +00                                            1233800200055 
 9.15   -01 1.60   +00                                            1233800200056 
 9.35   -01 1.58   +00                                            1233800200057 
 9.58   -01 1.56   +00                                            1233800200058 
 9.78   -01 1.59   +00                                            1233800200059 
 9.98   -01 1.58   +00                                            1233800200060 
 1.025  +00 1.576  +00                                            1233800200061 
 1.05   +00 1.577  +00                                            1233800200062 
 1.09   +00 1.555  +00                                            1233800200063 
 1.11   +00 1.62   +00                                            1233800200064 
 1.125  +00 1.59   +00                                            1233800200065 
 1.15   +00 1.58   +00                                            1233800200066 
 1.17   +00 1.55   +00                                            1233800200067 
 1.21   +00 1.51   +00                                            1233800200068 
 1.25   +00 1.59   +00                                            1233800200069 
 1.30   +00 1.58   +00                                            1233800200070 
 1.34   +00 1.56   +00                                            1233800200071 
 1.37   +00 1.59   +00                                            1233800200072 
 1.42   +00 1.51   +00                                            1233800200073 
 1.46   +00 1.55   +00                                            1233800200074 
 1.51   +00 1.57   +00                                            1233800200075 
 1.55   +00 1.52   +00                                            1233800200076 
 1.60   +00 1.58   +00                                            1233800200077 
 1.65   +00 1.49   +00                                            1233800200078 
 1.70   +00 1.59   +00                                            1233800200079 
 1.72   +00 1.54   +00                                            1233800200080 
 1.78   +00 1.6    +00                                            1233800200081 
 1.81   +00 1.54   +00                                            1233800200082 
 1.87   +00 1.57   +00                                            1233800200083 
 1.91   +00 1.53   +00                                            1233800200084 
 1.95   +00 1.517  +00                                            1233800200085 
 2.0    +00 1.49   +00                                            1233800200086 
 2.04   +00 1.57   +00                                            1233800200087 
 2.07   +00 1.52   +00                                            1233800200088 
 2.10   +00 1.58   +00                                            1233800200089 
 2.14   +00 1.60   +00                                            1233800200090 
 2.18   +00 1.52   +00                                            1233800200091 
 2.24   +00 1.59   +00                                            1233800200092 
 2.29   +00 1.60   +00                                            1233800200093 
 2.34   +00 1.52   +00                                            1233800200094 
 2.38   +00 1.56   +00                                            1233800200095 
 2.44   +00 1.56   +00                                            1233800200096 
 2.49   +00 1.56   +00                                            1233800200097 
 2.50   +00 1.57   +00                                            1233800200098 
 2.54   +00 1.56   +00                                            1233800200099 
 2.59   +00 1.54   +00                                            1233800200100 
 2.64   +00 1.54   +00                                            1233800200101 
 2.69   +00 1.528  +00                                            1233800200102 
 2.74   +00 1.549  +00                                            1233800200103 
 2.79   +00 1.56   +00                                            1233800200104 
 2.85   +00 1.57   +00                                            1233800200105 
 2.91   +00 1.59   +00                                            1233800200106 
 2.96   +00 1.52   +00                                            1233800200107 
 3.0    +00 1.57   +00                                            1233800200108 
ENDDATA             98          0                                 1233800200109 
ENDSUBENT          108          0                                 1233800299999 
SUBENT        12338003   20101116                             13691233800300001 
BIB                  4          5                                 1233800300002 
REACTION   (92-U-233(N,F),,SIG)                                   1233800300003 
DETECTOR   (FISCH) Ionization chamber                             1233800300004 
MONITOR    (92-U-235(N,F),,SIG) Normalized to 235U fission        1233800300005 
            from BNL-325 (1965).                                  1233800300006 
STATUS     (DEP,12338002)                                         1233800300007 
ENDBIB               5          0                                 1233800300008 
NOCOMMON             0          0                                 1233800300009 
DATA                 2         61                                 1233800300010 
EN         DATA                                                   1233800300011 
MEV        B                                                      1233800300012 
 1.30   -02 4.19   +00                                            1233800300013 
 2.70   -02 3.30   +00                                            1233800300014 
 3.45   -02 3.03   +00                                            1233800300015 
 4.10   -02 2.85   +00                                            1233800300016 
 5.45   -02 2.83   +00                                            1233800300017 
 8.20   -02 2.47   +00                                            1233800300018 
 9.80   -02 2.27   +00                                            1233800300019 
 1.15   -01 2.24   +00                                            1233800300020 
 1.30   -01 2.23   +00                                            1233800300021 
 1.52   -01 2.23   +00                                            1233800300022 
 1.75   -01 2.22   +00                                            1233800300023 
 2.08   -01 2.27   +00                                            1233800300024 
 2.33   -01 2.24   +00                                            1233800300025 
 2.55   -01 2.31   +00                                            1233800300026 
 3.29   -01 2.22   +00                                            1233800300027 
 3.45   -01 2.24   +00                                            1233800300028 
 3.63   -01 2.14   +00                                            1233800300029 
 4.55   -01 2.18   +00                                            1233800300030 
 5.20   -01 2.15   +00                                            1233800300031 
 5.45   -01 2.09   +00                                            1233800300032 
 5.80   -01 2.15   +00                                            1233800300033 
 6.60   -01 2.04   +00                                            1233800300034 
 7.10   -01 2.01   +00                                            1233800300035 
 7.40   -01 1.98   +00                                            1233800300036 
 7.60   -01 2.09   +00                                            1233800300037 
 7.90   -01 2.00   +00                                            1233800300038 
 8.30   -01 2.02   +00                                            1233800300039 
 9.10   -01 2.03   +00                                            1233800300040 
 9.20   -01 1.99   +00                                            1233800300041 
 1.03   +00 1.99   +00                                            1233800300042 
 1.09   +00 2.06   +00                                            1233800300043 
 1.13   +00 2.01   +00                                            1233800300044 
 1.15   +00 1.97   +00                                            1233800300045 
 1.19   +00 1.92   +00                                            1233800300046 
 1.23   +00 2.02   +00                                            1233800300047 
 1.27   +00 2.01   +00                                            1233800300048 
 1.31   +00 1.98   +00                                            1233800300049 
 1.36   +00 2.03   +00                                            1233800300050 
 1.41   +00 1.92   +00                                            1233800300051 
 1.45   +00 1.98   +00                                            1233800300052 
 1.50   +00 2.01   +00                                            1233800300053 
 1.54   +00 1.95   +00                                            1233800300054 
 1.59   +00 2.04   +00                                            1233800300055 
 1.64   +00 1.93   +00                                            1233800300056 
 1.68   +00 2.07   +00                                            1233800300057 
 1.79   +00 2.09   +00                                            1233800300058 
 1.81   +00 2.00   +00                                            1233800300059 
 1.87   +00 2.06   +00                                            1233800300060 
 2.02   +00 2.07   +00                                            1233800300061 
 2.05   +00 2.01   +00                                            1233800300062 
 2.09   +00 2.09   +00                                            1233800300063 
 2.17   +00 2.00   +00                                            1233800300064 
 2.23   +00 2.09   +00                                            1233800300065 
 2.28   +00 2.11   +00                                            1233800300066 
 2.34   +00 2.01   +00                                            1233800300067 
 2.53   +00 2.07   +00                                            1233800300068 
 2.70   +00 2.00   +00                                            1233800300069 
 2.88   +00 2.04   +00                                            1233800300070 
 2.94   +00 2.07   +00                                            1233800300071 
 2.98   +00 1.98   +00                                            1233800300072 
 3.05   +00 2.03   +00                                            1233800300073 
ENDDATA             63          0                                 1233800300074 
ENDSUBENT           73          0                                 1233800399999 
SUBENT        12338004   20101116                             13691233800400001 
BIB                  2          2                                 1233800400002 
REACTION   ((92-U-234(N,F),,SIG)/(92-U-235(N,F),,SIG))            1233800400003 
DETECTOR   (FISCH) Ionization chamber                             1233800400004 
ENDBIB               2          0                                 1233800400005 
NOCOMMON             0          0                                 1233800400006 
DATA                 2         58                                 1233800400007 
EN         DATA                                                   1233800400008 
MEV        NO-DIM                                                 1233800400009 
 2.85   -01 3.     -03                                            1233800400010 
 3.15   -01 2.0    -02                                            1233800400011 
 3.60   -01 7.3    -02                                            1233800400012 
 3.75   -01 1.05   -01                                            1233800400013 
 3.95   -01 1.17   -01                                            1233800400014 
 4.25   -01 1.41   -01                                            1233800400015 
 4.62   -01 2.23   -01                                            1233800400016 
 4.90   -01 2.85   -01                                            1233800400017 
 5.22   -01 3.68   -01                                            1233800400018 
 5.50   -01 4.47   -01                                            1233800400019 
 5.63   -01 4.82   -01                                            1233800400020 
 6.00   -01 5.65   -01                                            1233800400021 
 6.40   -01 6.05   -01                                            1233800400022 
 6.70   -01 6.88   -01                                            1233800400023 
 7.05   -01 7.72   -01                                            1233800400024 
 7.20   -01 8.40   -01                                            1233800400025 
 7.40   -01 8.60   -01                                            1233800400026 
 7.70   -01 9.73   -01                                            1233800400027 
 8.02   -01 1.055  +00                                            1233800400028 
 8.50   -01 1.082  +00                                            1233800400029 
 8.90   -01 1.034  +00                                            1233800400030 
 9.35   -01 9.78   -01                                            1233800400031 
 9.75   -01 9.50   -01                                            1233800400032 
 1.020  +00 9.00   -01                                            1233800400033 
 1.065  +00 8.75   -01                                            1233800400034 
 1.115  +00 9.00   -01                                            1233800400035 
 1.135  +00 9.33   -01                                            1233800400036 
 1.155  +00 9.88   -01                                            1233800400037 
 1.200  +00 9.90   -01                                            1233800400038 
 1.240  +00 9.45   -01                                            1233800400039 
 1.290  +00 9.84   -01                                            1233800400040 
 1.335  +00 9.70   -01                                            1233800400041 
 1.380  +00 1.000  +00                                            1233800400042 
 1.445  +00 1.015  +00                                            1233800400043 
 1.485  +00 1.027  +00                                            1233800400044 
 1.525  +00 1.085  +00                                            1233800400045 
 1.615  +00 1.125  +00                                            1233800400046 
 1.740  +00 1.140  +00                                            1233800400047 
 1.760  +00 1.115  +00                                            1233800400048 
 1.810  +00 1.104  +00                                            1233800400049 
 1.850  +00 1.200  +00                                            1233800400050 
 1.908  +00 1.161  +00                                            1233800400051 
 1.955  +00 1.189  +00                                            1233800400052 
 2.000  +00 1.189  +00                                            1233800400053 
 2.035  +00 1.159  +00                                            1233800400054 
 2.105  +00 1.125  +00                                            1233800400055 
 2.200  +00 1.137  +00                                            1233800400056 
 2.250  +00 1.132  +00                                            1233800400057 
 2.310  +00 1.123  +00                                            1233800400058 
 2.355  +00 1.110  +00                                            1233800400059 
 2.407  +00 1.124  +00                                            1233800400060 
 2.507  +00 1.107  +00                                            1233800400061 
 2.610  +00 1.153  +00                                            1233800400062 
 2.700  +00 1.140  +00                                            1233800400063 
 2.835  +00 1.173  +00                                            1233800400064 
 2.875  +00 1.140  +00                                            1233800400065 
 2.930  +00 1.200  +00                                            1233800400066 
 2.99   +00 1.189  +00                                            1233800400067 
ENDDATA             60          0                                 1233800400068 
ENDSUBENT           67          0                                 1233800499999 
NOSUBENT      12338005   20101116                             13691233800500001 
SUBENT        12338006   20101116                             13691233800600001 
BIB                  4          6                                 1233800600002 
REACTION   (92-U-236(N,F),,SIG)                                   1233800600003 
DETECTOR   (FISCH)    Back-to-back fission counter                1233800600004 
MONITOR    (92-U-235(N,F),,SIG) Relative to U235 fission.         1233800600005 
STATUS     (DEP,12338007)                                         1233800600006 
           Renormalization, by author, of data originally         1233800600007 
            published in Phys.Rev. 100, 763 (1955).               1233800600008 
ENDBIB               6          0                                 1233800600009 
NOCOMMON             0          0                                 1233800600010 
DATA                 4        101                                 1233800600011 
EN         EN-RSL     DATA       DATA-ERR                         1233800600012 
MEV        MEV        B          PER-CENT                         1233800600013 
 3.07   -01 7.9    -02 2.6    -03   91.                           1233800600014 
 4.06   -01 7.7    -02 4.7    -03   81.                           1233800600015 
 4.21   -01 8.6    -02 6.6    -03   52.                           1233800600016 
 4.45   -01 7.7    -02 5.     -03   73.                           1233800600017 
 4.59   -01 8.5    -02 1.0    -02   31.                           1233800600018 
 4.83   -01 7.6    -02 6.4    -03   52.                           1233800600019 
 4.97   -01 8.4    -02 8.8    -03   37.                           1233800600020 
 5.19   -01 7.6    -02 8.7    -03   35.                           1233800600021 
 5.36   -01 8.3    -02 1.1    -02   30.                           1233800600022 
 5.59   -01 7.6    -02 1.2    -02   26.                           1233800600023 
 5.73   -01 8.2    -02 9.6    -03   35.                           1233800600024 
 5.96   -01 7.6    -02 1.3    -02   24.                           1233800600025 
 6.12   -01 8.1    -02 1.7    -02   19.                           1233800600026 
 6.33   -01 7.6    -02 2.0    -02   15.                           1233800600027 
 6.50   -01 8.0    -02 2.0    -02   15.                           1233800600028 
 6.71   -01 7.5    -02 2.5    -02   12.                           1233800600029 
 6.88   -01 7.9    -02 3.1    -02    7.2                          1233800600030 
 6.98   -01            1.0    -02                                 1233800600031 
 7.02   -01            4.3    -02                                 1233800600032 
 7.27   -01 7.8    -02 4.8    -02    5.0                          1233800600033 
 7.28   -01            4.0    -02                                 1233800600034 
 7.48   -01            4.5    -02                                 1233800600035 
 7.60   -01            5.5    -02                                 1233800600036 
 7.68   -01 7.7    -02 7.8    -02    3.1                          1233800600037 
 7.75   -01            8.3    -02                                 1233800600038 
 7.88   -01            8.0    -02                                 1233800600039 
 8.05   -01 7.5    -02 1.15   -01    2.2                          1233800600040 
 8.10   -01            1.20   -01                                 1233800600041 
 8.44   -01 7.4    -02 1.54   -01    1.9                          1233800600042 
 8.45   -01            1.85   -01                                 1233800600043 
 8.90   -01            2.00   -01                                 1233800600044 
 8.99   -01            1.83   -01                                 1233800600045 
 9.15   -01            2.28   -01                                 1233800600046 
 9.20   -01            2.55   -01                                 1233800600047 
 9.47   -01            3.25   -01                                 1233800600048 
 9.80   -01            3.54   -01                                 1233800600049 
 1.000  +00            3.56   -01                                 1233800600050 
 1.032  +00            3.54   -01                                 1233800600051 
 1.079  +00            3.88   -01                                 1233800600052 
 1.081  +00            3.80   -01                                 1233800600053 
 1.099  +00            4.13   -01                                 1233800600054 
 1.120  +00            4.53   -01                                 1233800600055 
 1.175  +00            5.20   -01                                 1233800600056 
 1.209  +00            5.98   -01                                 1233800600057 
 1.25   +00            6.2    -01                                 1233800600058 
 1.28   +00            6.45   -01                                 1233800600059 
 1.29   +00            7.10   -01                                 1233800600060 
 1.33   +00            7.05   -01                                 1233800600061 
 1.335  +00            7.25   -01                                 1233800600062 
 1.370  +00            7.00   -01                                 1233800600063 
 1.410  +00            7.10   -01                                 1233800600064 
 1.430  +00            7.25   -01                                 1233800600065 
 1.440  +00            7.35   -01                                 1233800600066 
 1.450  +00            7.20   -01                                 1233800600067 
 1.490  +00            6.90   -01                                 1233800600068 
 1.520  +00            6.70   -01                                 1233800600069 
 1.530  +00            6.55   -01                                 1233800600070 
 1.560  +00            6.75   -01                                 1233800600071 
 1.600  +00            6.60   -01                                 1233800600072 
 1.640  +00            7.05   -01                                 1233800600073 
 1.680  +00            7.25   -01                                 1233800600074 
 1.730  +00            7.40   -01                                 1233800600075 
 1.740  +00            7.65   -01                                 1233800600076 
 1.785  +00            7.60   -01                                 1233800600077 
 1.825  +00            7.65   -01                                 1233800600078 
 1.840  +00            7.70   -01                                 1233800600079 
 1.900  +00            7.68   -01                                 1233800600080 
 1.935  +00            8.10   -01                                 1233800600081 
 1.990  +00            7.95   -01                                 1233800600082 
 2.030  +00            8.05   -01                                 1233800600083 
 2.095  +00            8.10   -01                                 1233800600084 
 2.135  +00            8.48   -01                                 1233800600085 
 2.200  +00            8.50   -01                                 1233800600086 
 2.230  +00            8.40   -01                                 1233800600087 
 2.300  +00            8.75   -01                                 1233800600088 
 2.340  +00            8.90   -01                                 1233800600089 
 2.400  +00            8.85   -01                                 1233800600090 
 2.430  +00            8.85   -01                                 1233800600091 
 2.500  +00            8.98   -01                                 1233800600092 
 2.530  +00            8.90   -01                                 1233800600093 
 2.610  +00            8.85   -01                                 1233800600094 
 2.650  +00            8.30   -01                                 1233800600095 
 2.710  +00            8.85   -01                                 1233800600096 
 2.740  +00            8.75   -01                                 1233800600097 
 2.825  +00            8.85   -01                                 1233800600098 
 2.865  +00            8.40   -01                                 1233800600099 
 2.930  +00            9.05   -01                                 1233800600100 
 3.000  +00            9.25   -01                                 1233800600101 
 3.030  +00            9.35   -01                                 1233800600102 
 3.140  +00            9.40   -01                                 1233800600103 
 3.220  +00            9.35   -01                                 1233800600104 
 3.250  +00            9.53   -01                                 1233800600105 
 3.360  +00            9.35   -01                                 1233800600106 
 3.480  +00            9.30   -01                                 1233800600107 
 3.530  +00            9.50   -01                                 1233800600108 
 3.580  +00            9.53   -01                                 1233800600109 
 3.690  +00            9.90   -01                                 1233800600110 
 3.800  +00            9.80   -01                                 1233800600111 
 3.940  +00            9.45   -01                                 1233800600112 
 4.010  +00            9.95   -01                                 1233800600113 
 4.050  +00            9.60   -01                                 1233800600114 
ENDDATA            103          0                                 1233800600115 
ENDSUBENT          114          0                                 1233800699999 
SUBENT        12338007   20101116                             13691233800700001 
BIB                  2          2                                 1233800700002 
REACTION   ((92-U-236(N,F),,SIG)/(92-U-235(N,F),,SIG))            1233800700003 
DETECTOR   (FISCH)    Ionization chamber                          1233800700004 
ENDBIB               2          0                                 1233800700005 
NOCOMMON             0          0                                 1233800700006 
DATA                 2         59                                 1233800700007 
EN         DATA                                                   1233800700008 
MEV        NO-DIM                                                 1233800700009 
 6.90   -01 1.0    -02                                            1233800700010 
 6.99   -01 3.6    -02                                            1233800700011 
 7.20   -01 2.8    -02                                            1233800700012 
 7.39   -01 3.3    -02                                            1233800700013 
 7.52   -01 4.2    -02                                            1233800700014 
 7.70   -01 7.3    -02                                            1233800700015 
 7.88   -01 6.9    -02                                            1233800700016 
 8.02   -01 9.5    -02                                            1233800700017 
 8.35   -01 1.57   -01                                            1233800700018 
 8.65   -01 1.70   -01                                            1233800700019 
 8.85   -01 1.59   -01                                            1233800700020 
 9.01   -01 1.90   -01                                            1233800700021 
 9.10   -01 2.19   -01                                            1233800700022 
 9.35   -01 2.24   -01                                            1233800700023 
 9.40   -01 2.66   -01                                            1233800700024 
 9.75   -01 2.78   -01                                            1233800700025 
 9.80   -01 2.73   -01                                            1233800700026 
 9.95   -01 2.89   -01                                            1233800700027 
 1.01   +00 2.90   -01                                            1233800700028 
 1.03   +00 2.87   -01                                            1233800700029 
 1.03   +00 3.22   -01                                            1233800700030 
 1.05   +00 3.08   -01                                            1233800700031 
 1.06   +00 3.03   -01                                            1233800700032 
 1.08   +00 3.28   -01                                            1233800700033 
 1.09   +00 3.75   -01                                            1233800700034 
 1.12   +00 3.63   -01                                            1233800700035 
 1.15   +00 4.12   -01                                            1233800700036 
 1.21   +00 4.75   -01                                            1233800700037 
 1.26   +00 5.01   -01                                            1233800700038 
 1.29   +00 5.67   -01                                            1233800700039 
 1.32   +00 5.70   -01                                            1233800700040 
 1.37   +00 5.60   -01                                            1233800700041 
 1.41   +00 5.64   -01                                            1233800700042 
 1.44   +00 5.79   -01                                            1233800700043 
 1.50   +00 5.39   -01                                            1233800700044 
 1.56   +00 5.35   -01                                            1233800700045 
 1.60   +00 5.28   -01                                            1233800700046 
 1.65   +00 5.60   -01                                            1233800700047 
 1.71   +00 6.29   -01                                            1233800700048 
 1.73   +00 5.88   -01                                            1233800700049 
 1.79   +00 6.04   -01                                            1233800700050 
 1.82   +00 6.03   -01                                            1233800700051 
 1.85   +00 6.08   -01                                            1233800700052 
 1.90   +00 6.08   -01                                            1233800700053 
 1.94   +00 6.39   -01                                            1233800700054 
 2.03   +00 6.36   -01                                            1233800700055 
 2.11   +00 6.39   -01                                            1233800700056 
 2.14   +00 6.68   -01                                            1233800700057 
 2.20   +00 6.72   -01                                            1233800700058 
 2.23   +00 6.14   -01                                            1233800700059 
 2.31   +00 6.94   -01                                            1233800700060 
 2.40   +00 6.94   -01                                            1233800700061 
 2.43   +00 6.94   -01                                            1233800700062 
 2.53   +00 6.98   -01                                            1233800700063 
 2.62   +00 6.82   -01                                            1233800700064 
 2.71   +00 6.99   -01                                            1233800700065 
 2.84   +00 6.93   -01                                            1233800700066 
 2.93   +00 7.05   -01                                            1233800700067 
 3.00   +00 7.20   -01                                            1233800700068 
ENDDATA             61          0                                 1233800700069 
ENDSUBENT           68          0                                 1233800799999 
SUBENT        12338008   20101116                             13691233800800001 
BIB                  4          4                                 1233800800002 
REACTION   (92-U-238(N,F),,SIG)                                   1233800800003 
DETECTOR   (FISCH)    Ionization chamber                          1233800800004 
MONITOR    (92-U-235(N,F),,SIG) Relative to U235 fission.         1233800800005 
STATUS     (DEP,12338009)                                         1233800800006 
ENDBIB               4          0                                 1233800800007 
NOCOMMON             0          0                                 1233800800008 
DATA                 2         90                                 1233800800009 
EN         DATA                                                   1233800800010 
MEV        B                                                      1233800800011 
 4.20   -01 0.     +00                                            1233800800012 
 4.94   -01 2.     -04                                            1233800800013 
 5.73   -01 5.     -04                                            1233800800014 
 6.09   -01 1.2    -03                                            1233800800015 
 6.43   -01 1.1    -03                                            1233800800016 
 6.80   -01 1.0    -03                                            1233800800017 
 7.01   -01 1.0    -03                                            1233800800018 
 7.20   -01 1.6    -03                                            1233800800019 
 7.40   -01 1.7    -03                                            1233800800020 
 7.56   -01 1.8    -03                                            1233800800021 
 7.77   -01 2.2    -03                                            1233800800022 
 7.94   -01 2.6    -03                                            1233800800023 
 8.14   -01 3.6    -03                                            1233800800024 
 8.31   -01 4.1    -03                                            1233800800025 
 8.52   -01 5.6    -03                                            1233800800026 
 8.69   -01 6.3    -03                                            1233800800027 
 8.92   -01 7.6    -03                                            1233800800028 
 9.09   -01 1.06   -02                                            1233800800029 
 9.29   -01 1.11   -02                                            1233800800030 
 9.49   -01 1.40   -02                                            1233800800031 
 9.69   -01 1.36   -02                                            1233800800032 
 9.92   -01 1.32   -02                                            1233800800033 
 1.008  +00 1.35   -02                                            1233800800034 
 1.028  +00 1.40   -02                                            1233800800035 
 1.046  +00 1.47   -02                                            1233800800036 
 1.067  +00 1.58   -02                                            1233800800037 
 1.086  +00 2.24   -02                                            1233800800038 
 1.107  +00 2.78   -02                                            1233800800039 
 1.126  +00 2.81   -02                                            1233800800040 
 1.146  +00 3.52   -02                                            1233800800041 
 1.165  +00 4.21   -02                                            1233800800042 
 1.186  +00 4.20   -02                                            1233800800043 
 1.206  +00 4.20   -02                                            1233800800044 
 1.229  +00 4.09   -02                                            1233800800045 
 1.246  +00 4.58   -02                                            1233800800046 
 1.266  +00 4.59   -02                                            1233800800047 
 1.289  +00 5.48   -02                                            1233800800048 
 1.306  +00 6.25   -02                                            1233800800049 
 1.320  +00 8.04   -02                                            1233800800050 
 1.345  +00 8.80   -02                                            1233800800051 
 1.368  +00 1.15   -01                                            1233800800052 
 1.385  +00 1.40   -01                                            1233800800053 
 1.408  +00 1.70   -01                                            1233800800054 
 1.433  +00 2.07   -01                                            1233800800055 
 1.450  +00 2.43   -01                                            1233800800056 
 1.476  +00 2.98   -01                                            1233800800057 
 1.485  +00 2.56   -01                                            1233800800058 
 1.498  +00 3.20   -01                                            1233800800059 
 1.515  +00 3.52   -01                                            1233800800060 
 1.535  +00 3.50   -01                                            1233800800061 
 1.565  +00 3.69   -01                                            1233800800062 
 1.580  +00 3.70   -01                                            1233800800063 
 1.605  +00 3.99   -01                                            1233800800064 
 1.620  +00 4.15   -01                                            1233800800065 
 1.650  +00 4.26   -01                                            1233800800066 
 1.668  +00 4.44   -01                                            1233800800067 
 1.693  +00 4.40   -01                                            1233800800068 
 1.710  +00 4.47   -01                                            1233800800069 
 1.738  +00 4.65   -01                                            1233800800070 
 1.753  +00 4.81   -01                                            1233800800071 
 1.776  +00 4.89   -01                                            1233800800072 
 1.800  +00 5.05   -01                                            1233800800073 
 1.820  +00 5.13   -01                                            1233800800074 
 1.845  +00 5.34   -01                                            1233800800075 
 1.876  +00 5.24   -01                                            1233800800076 
 1.923  +00 5.55   -01                                            1233800800077 
 1.965  +00 5.54   -01                                            1233800800078 
 2.017  +00 5.58   -01                                            1233800800079 
 2.053  +00 5.67   -01                                            1233800800080 
 2.080  +00 5.79   -01                                            1233800800081 
 2.118  +00 5.87   -01                                            1233800800082 
 2.153  +00 5.80   -01                                            1233800800083 
 2.200  +00 5.83   -01                                            1233800800084 
 2.205  +00 5.88   -01                                            1233800800085 
 2.300  +00 5.86   -01                                            1233800800086 
 2.345  +00 5.91   -01                                            1233800800087 
 2.395  +00 5.76   -01                                            1233800800088 
 2.440  +00 5.68   -01                                            1233800800089 
 2.480  +00 5.89   -01                                            1233800800090 
 2.500  +00 5.85   -01                                            1233800800091 
 2.550  +00 5.88   -01                                            1233800800092 
 2.600  +00 5.75   -01                                            1233800800093 
 2.650  +00 5.74   -01                                            1233800800094 
 2.705  +00 5.86   -01                                            1233800800095 
 2.746  +00 5.85   -01                                            1233800800096 
 2.800  +00 5.78   -01                                            1233800800097 
 2.855  +00 5.88   -01                                            1233800800098 
 2.902  +00 5.62   -01                                            1233800800099 
 2.954  +00 5.77   -01                                            1233800800100 
 2.995  +00 5.83   -01                                            1233800800101 
ENDDATA             92          0                                 1233800800102 
ENDSUBENT          101          0                                 1233800899999 
SUBENT        12338009   20101116                             13691233800900001 
BIB                  2          2                                 1233800900002 
REACTION   ((92-U-238(N,F),,SIG)/(92-U-235(N,F),,SIG))            1233800900003 
DETECTOR   (FISCH)    Ionization chamber                          1233800900004 
ENDBIB               2          0                                 1233800900005 
NOCOMMON             0          0                                 1233800900006 
DATA                 3         90                                 1233800900007 
EN         DATA       DATA-ERR                                    1233800900008 
MEV        NO-DIM     NO-DIM                                      1233800900009 
 4.20   -01 0.                                                    1233800900010 
 4.94   -01 2.     -04                                            1233800900011 
 5.73   -01 5.     -04                                            1233800900012 
 6.09   -01 1.2    -03                                            1233800900013 
 6.43   -01 1.1    -03                                            1233800900014 
 6.80   -01 1.0    -03 5.     -04                                 1233800900015 
 7.01   -01 1.0    -03                                            1233800900016 
 7.20   -01 1.5    -03                                            1233800900017 
 7.40   -01 1.7    -03                                            1233800900018 
 7.57   -01 1.9    -03                                            1233800900019 
 7.77   -01 2.3    -03                                            1233800900020 
 7.94   -01 2.6    -03                                            1233800900021 
 8.14   -01 3.6    -03                                            1233800900022 
 8.32   -01 4.2    -03                                            1233800900023 
 8.52   -01 5.6    -03                                            1233800900024 
 8.68   -01 6.4    -03                                            1233800900025 
 8.92   -01 7.7    -03                                            1233800900026 
 9.09   -01 1.07   -02                                            1233800900027 
 9.29   -01 1.12   -02                                            1233800900028 
 9.49   -01 1.4    -02 5.     -04                                 1233800900029 
 9.68   -01 1.37   -02                                            1233800900030 
 9.92   -01 1.33   -02                                            1233800900031 
 1.009  +00 1.36   -02                                            1233800900032 
 1.028  +00 1.41   -02                                            1233800900033 
 1.047  +00 1.48   -02                                            1233800900034 
 1.067  +00 1.59   -02                                            1233800900035 
 1.086  +00 1.77   -02                                            1233800900036 
 1.106  +00 2.18   -02                                            1233800900037 
 1.126  +00 2.23   -02                                            1233800900038 
 1.146  +00 2.77   -02                                            1233800900039 
 1.165  +00 3.03   -02                                            1233800900040 
 1.186  +00 3.29   -02 8.     -04                                 1233800900041 
 1.207  +00 3.30   -02                                            1233800900042 
 1.229  +00 3.23   -02                                            1233800900043 
 1.246  +00 3.59   -02                                            1233800900044 
 1.266  +00 3.60   -02                                            1233800900045 
 1.289  +00 4.31   -02                                            1233800900046 
 1.304  +00 4.9    -02                                            1233800900047 
 1.322  +00 6.3    -02                                            1233800900048 
 1.343  +00 7.0    -02                                            1233800900049 
 1.370  +00 9.0    -02                                            1233800900050 
 1.387  +00 1.10   -01                                            1233800900051 
 1.410  +00 1.34   -01                                            1233800900052 
 1.432  +00 1.62   -01                                            1233800900053 
 1.451  +00 1.90   -01                                            1233800900054 
 1.475  +00 2.30   -01                                            1233800900055 
 1.482  +00 2.00   -01                                            1233800900056 
 1.498  +00 2.50   -01                                            1233800900057 
 1.513  +00 2.75   -01                                            1233800900058 
 1.535  +00 2.73   -01                                            1233800900059 
 1.563  +00 2.85   -01                                            1233800900060 
 1.583  +00 2.87   -01                                            1233800900061 
 1.600  +00 3.10   -01                                            1233800900062 
 1.621  +00 3.23   -01                                            1233800900063 
 1.650  +00 3.29   -01                                            1233800900064 
 1.670  +00 3.44   -01                                            1233800900065 
 1.690  +00 3.40   -01                                            1233800900066 
 1.710  +00 3.45   -01                                            1233800900067 
 1.737  +00 3.59   -01                                            1233800900068 
 1.754  +00 3.72   -01                                            1233800900069 
 1.780  +00 3.75   -01                                            1233800900070 
 1.800  +00 3.85   -01                                            1233800900071 
 1.820  +00 3.90   -01                                            1233800900072 
 1.843  +00 4.07   -01                                            1233800900073 
 1.879  +00 4.02   -01                                            1233800900074 
 1.924  +00 4.20   -01                                            1233800900075 
 1.963  +00 4.20   -01                                            1233800900076 
 2.017  +00 4.23   -01                                            1233800900077 
 2.050  +00 4.28   -01                                            1233800900078 
 2.080  +00 4.38   -01                                            1233800900079 
 2.115  +00 4.45   -01                                            1233800900080 
 2.150  +00 4.39   -01                                            1233800900081 
 2.200  +00 4.40   -01                                            1233800900082 
 2.250  +00 4.42   -01                                            1233800900083 
 2.300  +00 4.44   -01                                            1233800900084 
 2.342  +00 4.50   -01                                            1233800900085 
 2.384  +00 4.40   -01                                            1233800900086 
 2.443  +00 4.35   -01                                            1233800900087 
 2.480  +00 4.53   -01                                            1233800900088 
 2.500  +00 4.50   -01                                            1233800900089 
 2.550  +00 4.52   -01                                            1233800900090 
 2.601  +00 4.44   -01                                            1233800900091 
 2.650  +00 4.45   -01                                            1233800900092 
 2.705  +00 4.51   -01                                            1233800900093 
 2.745  +00 4.52   -01                                            1233800900094 
 2.799  +00 4.50   -01                                            1233800900095 
 2.850  +00 4.57   -01                                            1233800900096 
 2.901  +00 4.38   -01                                            1233800900097 
 2.951  +00 4.50   -01                                            1233800900098 
 2.995  +00 4.53   -01                                            1233800900099 
ENDDATA             92          0                                 1233800900100 
ENDSUBENT           99          0                                 1233800999999 
ENDENTRY             9          0                                 1233899999999 
