ENTRY            12720   19821223                             00001272000000001 
SUBENT        12720001   19821223                             00001272000100001 
BIB                 11         13                                 1272000100002 
INSTITUTE  (1USAORL)                                              1272000100003 
REFERENCE  (J,NSE,79,265,8111)                                    1272000100004 
AUTHOR     (R.L.MACKLIN)                                          1272000100005 
TITLE      GOLD NEUTRON CAPTURE CROSS SECTION FROM 100 TO 2000    1272000100006 
            KEV.                                                  1272000100007 
FACILITY   (LINAC) ORELA.                                         1272000100008 
SAMPLE     13.01-G AU METAL.                                      1272000100009 
INC-SPECT  ENERGY RESOLUTION RANGED FROM 0.25 PERCENT (FWHM) AT   1272000100010 
            100 KEV TO 0.80 PERCENT AT 2 MEV.                     1272000100011 
METHOD     (TOF). 40-M FLIGHT PATH.                               1272000100012 
DETECTOR   (SCIN) PAIR OF LIQUID SCINTILLATORS FLANKING SAMPLE.   1272000100013 
STATUS     (APRVD) APPROVED BY R.L.MACKLIN, 82/12/20.             1272000100014 
HISTORY    (820803C)                                              1272000100015 
ENDBIB              13          0                                 1272000100016 
NOCOMMON             0          0                                 1272000100017 
ENDSUBENT           16          0                                 1272000199999 
SUBENT        12720002   19821223                             00001272000200001 
BIB                  6         13                                 1272000200002 
REACTION   (79-AU-197(N,G)79-AU-198,,SIG,,AV)                     1272000200003 
MONITOR    (3-LI-6(N,T)2-HE-4,,SIG)                               1272000200004 
           ABSOLUTE CALIBATION AT 4.9-EV RESONANCE                1272000200005 
CORRECTION CORRECTED FOR 5.6 PERCENT GAMMA-RAY ENERGY LOSS IN     1272000200006 
            SAMPLE, DEAD TIME, BACKGROUND, RESONANCE              1272000200007 
            SELF-SHIELDING AND MULTIPLE SCATTERING.               1272000200008 
ERR-ANALYS (ERR-S) STATISTICAL UNCERTAINTY                        1272000200009 
STATUS     ORELA RUN 8560. SUPERSEDES DATA PUBLISHED IN           1272000200010 
            NUC.SCI.ENG. 79, 265 (1981) (ORELA RUN 8330).         1272000200011 
            DATA TAKEN FROM PRIVATE COMM.,MACKLIN,1982.           1272000200012 
            CORRECTED FOR ERROR IN AVERAGE S-WAVE                 1272000200013 
            STATISTICAL WEIGHT FACTOR USED.                       1272000200014 
HISTORY    (821122A) DATA REPLACED UP TO 400 KEV.                 1272000200015 
ENDBIB              13          0                                 1272000200016 
NOCOMMON             0          0                                 1272000200017 
DATA                 3        542                                 1272000200018 
EN-MEAN    DATA       ERR-S                                       1272000200019 
KEV        MB         MB                                          1272000200020 
   2.75     2487.0     5.3                                        1272000200021 
   3.00     2105.7     5.2                                        1272000200022 
   3.25     2655.3     5.8                                        1272000200023 
   3.50     2844.9     6.1                                        1272000200024 
   3.75     1859.4     5.6                                        1272000200025 
   4.00     2991.4     6.6                                        1272000200026 
   4.25     2588.5     6.5                                        1272000200027 
   4.50     1769.1     6.0                                        1272000200028 
   4.75     1745.7     6.1                                        1272000200029 
   5.00     1657.0     6.1                                        1272000200030 
   5.25     1606.8     6.3                                        1272000200031 
   5.50     2113.7     6.9                                        1272000200032 
   5.75     1907.8     7.1                                        1272000200033 
   6.00     1992.8     7.0                                        1272000200034 
   6.25     1736.4     6.2                                        1272000200035 
   6.50     1511.0     6.1                                        1272000200036 
   6.75     1598.9     6.4                                        1272000200037 
   7.00     1803.3     6.5                                        1272000200038 
   7.25     1512.6     6.3                                        1272000200039 
   7.50     1694.7     6.6                                        1272000200040 
   7.75     1066.0     5.9                                        1272000200041 
   8.00     1526.3     6.7                                        1272000200042 
   8.25     1299.7     6.6                                        1272000200043 
   8.50     1260.6     6.7                                        1272000200044 
   8.75     1122.0     6.4                                        1272000200045 
   9.00     1292.7     7.1                                        1272000200046 
   9.25     1232.8     6.9                                        1272000200047 
   9.50      999.5     6.8                                        1272000200048 
   9.75     1026.6     6.7                                        1272000200049 
  10.00     1238.0     7.2                                        1272000200050 
  10.25     1129.3     7.4                                        1272000200051 
  10.50      952.5     6.7                                        1272000200052 
  10.75      718.1     6.1                                        1272000200053 
  11.00     1310.8     7.6                                        1272000200054 
  11.25     1333.2     8.0                                        1272000200055 
  11.50     1024.4     7.3                                        1272000200056 
  11.75     1123.6     7.6                                        1272000200057 
  12.00     1159.9     7.3                                        1272000200058 
  12.25     1064.4     6.5                                        1272000200059 
  12.50      701.0     6.1                                        1272000200060 
  12.75     1009.5     6.7                                        1272000200061 
  13.00     1094.3     7.0                                        1272000200062 
  13.25      829.1     6.6                                        1272000200063 
  13.50      943.4     7.0                                        1272000200064 
  13.75      757.3     6.4                                        1272000200065 
  14.00      961.2     7.2                                        1272000200066 
  14.25      752.8     6.6                                        1272000200067 
  14.50      896.6     7.2                                        1272000200068 
  14.75      871.9     7.2                                        1272000200069 
  15.00      821.7     6.9                                        1272000200070 
  15.25      751.7     6.8                                        1272000200071 
  15.50      815.0     7.1                                        1272000200072 
  15.75      866.6     7.3                                        1272000200073 
  16.00      628.9     6.5                                        1272000200074 
  16.25      806.9     7.2                                        1272000200075 
  16.50      786.7     7.2                                        1272000200076 
  16.75      750.5     7.0                                        1272000200077 
  17.00      782.7     7.2                                        1272000200078 
  17.25      887.6     7.7                                        1272000200079 
  17.50      732.9     7.2                                        1272000200080 
  17.75      701.0     7.0                                        1272000200081 
  18.00      825.1     7.6                                        1272000200082 
  18.25      768.1     7.3                                        1272000200083 
  18.50      809.6     7.6                                        1272000200084 
  18.75      667.3     6.9                                        1272000200085 
  19.00      823.2     7.7                                        1272000200086 
  19.25      625.5     6.7                                        1272000200087 
  19.50      566.9     6.6                                        1272000200088 
  19.75      587.7     6.7                                        1272000200089 
  20.00      690.0     7.2                                        1272000200090 
  20.25      704.7     7.4                                        1272000200091 
  20.50      671.5     7.1                                        1272000200092 
  20.75      567.1     6.7                                        1272000200093 
  21.00      696.8     7.4                                        1272000200094 
  21.25      588.6     6.9                                        1272000200095 
  21.50      696.6     7.3                                        1272000200096 
  21.75      596.8     6.9                                        1272000200097 
  22.00      669.7     7.3                                        1272000200098 
  22.25      451.3     6.1                                        1272000200099 
  22.50      558.8     6.8                                        1272000200100 
  22.75      611.0     7.0                                        1272000200101 
  23.00      555.2     6.9                                        1272000200102 
  23.25      570.4     6.9                                        1272000200103 
  23.50      631.4     7.3                                        1272000200104 
  23.75      572.0     7.0                                        1272000200105 
  24.00      626.0     7.2                                        1272000200106 
  24.25      602.6     7.2                                        1272000200107 
  24.50      656.3     7.5                                        1272000200108 
  24.75      477.9     6.4                                        1272000200109 
  25.00      568.6     7.1                                        1272000200110 
  25.25      727.0     7.9                                        1272000200111 
  25.50      561.4     7.1                                        1272000200112 
  25.75      551.8     7.0                                        1272000200113 
  26.00      540.3     7.0                                        1272000200114 
  26.25      538.9     7.1                                        1272000200115 
  26.50      533.5     7.2                                        1272000200116 
  26.75      589.1     7.6                                        1272000200117 
  27.00      611.6     7.7                                        1272000200118 
  27.25      564.6     7.5                                        1272000200119 
  27.50      562.1     7.5                                        1272000200120 
  27.75      559.1     7.4                                        1272000200121 
  28.00      590.2     7.6                                        1272000200122 
  28.25      539.2     7.3                                        1272000200123 
  28.50      705.4     8.3                                        1272000200124 
  28.75      593.2     7.6                                        1272000200125 
  29.00      579.7     7.7                                        1272000200126 
  29.25      480.6     6.9                                        1272000200127 
  29.50      625.4     7.9                                        1272000200128 
  29.75      560.9     7.5                                        1272000200129 
  30.00      490.5     7.1                                        1272000200130 
  30.25      643.5     8.1                                        1272000200131 
  30.50      550.2     7.5                                        1272000200132 
  30.75      522.9     7.4                                        1272000200133 
  31.00      509.5     7.3                                        1272000200134 
  31.25      471.3     7.1                                        1272000200135 
  31.50      477.0     7.1                                        1272000200136 
  31.75      505.6     7.4                                        1272000200137 
  32.00      497.2     7.3                                        1272000200138 
  32.25      492.4     7.3                                        1272000200139 
  32.50      513.2     7.5                                        1272000200140 
  32.75      542.0     7.7                                        1272000200141 
  33.00      504.6     7.4                                        1272000200142 
  33.25      496.3     7.4                                        1272000200143 
  33.50      614.0     8.2                                        1272000200144 
  33.75      470.7     7.2                                        1272000200145 
  34.00      459.1     7.2                                        1272000200146 
  34.25      449.4     7.2                                        1272000200147 
  34.50      466.4     7.3                                        1272000200148 
  34.75      519.3     7.7                                        1272000200149 
  35.00      484.7     7.5                                        1272000200150 
  35.25      467.5     7.4                                        1272000200151 
  35.50      552.9     7.9                                        1272000200152 
  35.75      463.7     7.3                                        1272000200153 
  36.00      534.1     7.8                                        1272000200154 
  36.25      442.8     7.3                                        1272000200155 
  36.50      467.0     7.5                                        1272000200156 
  36.75      476.3     7.5                                        1272000200157 
  37.00      472.1     7.5                                        1272000200158 
  37.25      528.7     7.8                                        1272000200159 
  37.50      485.4     7.5                                        1272000200160 
  37.75      538.8     8.0                                        1272000200161 
  38.00      508.0     7.7                                        1272000200162 
  38.25      545.9     8.0                                        1272000200163 
  38.50      529.2     8.0                                        1272000200164 
  38.75      524.3     7.9                                        1272000200165 
  39.00      508.6     7.9                                        1272000200166 
  39.25      474.4     7.5                                        1272000200167 
  39.50      539.5     8.0                                        1272000200168 
  39.75      526.3     8.0                                        1272000200169 
  40.00      436.6     7.3                                        1272000200170 
  40.25      503.3     7.9                                        1272000200171 
  40.50      473.2     7.5                                        1272000200172 
  40.75      510.1     7.9                                        1272000200173 
  41.00      486.1     7.8                                        1272000200174 
  41.25      471.0     7.6                                        1272000200175 
  41.50      493.9     7.9                                        1272000200176 
  41.75      486.1     7.8                                        1272000200177 
  42.00      401.9     7.2                                        1272000200178 
  42.25      431.3     7.4                                        1272000200179 
  42.50      446.1     7.6                                        1272000200180 
  42.75      422.9     7.4                                        1272000200181 
  43.00      399.5     7.2                                        1272000200182 
  43.25      524.6     8.1                                        1272000200183 
  43.50      446.6     7.5                                        1272000200184 
  43.75      431.0     7.4                                        1272000200185 
  44.00      381.8     7.3                                        1272000200186 
  44.25      400.9     7.3                                        1272000200187 
  44.50      412.0     7.3                                        1272000200188 
  44.75      496.4     8.1                                        1272000200189 
  45.00      493.5     8.0                                        1272000200190 
  45.25      398.8     7.4                                        1272000200191 
  45.50      401.0     7.4                                        1272000200192 
  45.75      423.9     7.6                                        1272000200193 
  46.00      416.6     7.5                                        1272000200194 
  46.25      425.2     7.6                                        1272000200195 
  46.50      405.6     7.3                                        1272000200196 
  46.75      466.5     7.9                                        1272000200197 
  47.00      487.7     8.0                                        1272000200198 
  47.25      433.8     7.6                                        1272000200199 
  47.50      442.6     7.6                                        1272000200200 
  47.75      420.5     7.6                                        1272000200201 
  48.00      415.2     7.6                                        1272000200202 
  48.25      451.5     7.8                                        1272000200203 
  48.50      412.9     7.6                                        1272000200204 
  48.75      414.4     7.7                                        1272000200205 
  49.00      332.9     6.9                                        1272000200206 
  49.25      398.6     7.4                                        1272000200207 
  49.50      421.7     7.5                                        1272000200208 
  49.75      424.2     7.7                                        1272000200209 
  50.00      403.5     7.5                                        1272000200210 
  50.25      395.0     7.5                                        1272000200211 
  50.50      405.4     7.6                                        1272000200212 
  50.75      469.3     8.1                                        1272000200213 
  51.00      415.9     7.8                                        1272000200214 
  51.25      425.8     7.7                                        1272000200215 
  51.50      405.9     7.6                                        1272000200216 
  51.75      415.4     7.7                                        1272000200217 
  52.00      380.9     7.3                                        1272000200218 
  52.25      368.8     7.3                                        1272000200219 
  52.50      429.8     7.7                                        1272000200220 
  52.75      375.2     7.3                                        1272000200221 
  53.00      396.5     7.5                                        1272000200222 
  53.25      416.5     7.9                                        1272000200223 
  53.50      383.5     7.6                                        1272000200224 
  53.75      403.3     7.7                                        1272000200225 
  54.00      390.2     7.4                                        1272000200226 
  54.25      386.9     7.6                                        1272000200227 
  54.50      399.8     7.6                                        1272000200228 
  54.75      398.6     7.6                                        1272000200229 
  55.00      391.2     7.6                                        1272000200230 
  55.25      387.2     7.5                                        1272000200231 
  55.50      377.6     7.4                                        1272000200232 
  55.75      367.4     7.4                                        1272000200233 
  56.00      424.6     8.2                                        1272000200234 
  56.25      385.4     7.6                                        1272000200235 
  56.50      423.4     8.0                                        1272000200236 
  56.75      425.4     8.0                                        1272000200237 
  57.00      367.4     7.5                                        1272000200238 
  57.25      353.5     7.4                                        1272000200239 
  57.50      369.3     7.4                                        1272000200240 
  57.75      384.9     7.8                                        1272000200241 
  58.00      398.8     7.8                                        1272000200242 
  58.25      375.1     7.6                                        1272000200243 
  58.50      411.5     7.9                                        1272000200244 
  58.75      394.7     7.7                                        1272000200245 
  59.00      354.1     7.4                                        1272000200246 
  59.25      368.3     7.4                                        1272000200247 
  59.50      342.1     7.2                                        1272000200248 
  59.75      389.7     7.7                                        1272000200249 
  60.00      405.8     7.9                                        1272000200250 
  60.25      351.9     7.3                                        1272000200251 
  60.50      365.4     7.6                                        1272000200252 
  60.75      400.4     7.9                                        1272000200253 
  61.00      381.3     7.7                                        1272000200254 
  61.25      359.2     7.6                                        1272000200255 
  61.50      342.4     7.4                                        1272000200256 
  61.75      360.7     7.5                                        1272000200257 
  62.00      331.7     7.3                                        1272000200258 
  62.25      349.9     7.5                                        1272000200259 
  62.50      388.6     8.0                                        1272000200260 
  62.75      394.2     7.9                                        1272000200261 
  63.00      386.7     7.8                                        1272000200262 
  63.25      367.9     7.7                                        1272000200263 
  63.50      356.6     7.5                                        1272000200264 
  63.75      364.5     7.7                                        1272000200265 
  64.00      335.0     7.3                                        1272000200266 
  64.25      353.2     7.5                                        1272000200267 
  64.50      367.5     7.8                                        1272000200268 
  64.75      364.5     7.6                                        1272000200269 
  65.00      366.2     7.7                                        1272000200270 
  65.25      351.8     7.7                                        1272000200271 
  65.50      322.9     7.1                                        1272000200272 
  65.75      343.6     7.6                                        1272000200273 
  66.00      362.0     7.6                                        1272000200274 
  66.25      377.5     7.9                                        1272000200275 
  66.50      338.2     7.4                                        1272000200276 
  66.75      335.0     7.5                                        1272000200277 
  67.00      350.5     7.7                                        1272000200278 
  67.25      379.0     7.9                                        1272000200279 
  67.50      390.3     8.0                                        1272000200280 
  67.75      359.8     7.8                                        1272000200281 
  68.00      382.3     8.1                                        1272000200282 
  68.25      396.8     8.2                                        1272000200283 
  68.50      351.5     7.8                                        1272000200284 
  68.75      392.2     8.1                                        1272000200285 
  69.00      378.1     8.0                                        1272000200286 
  69.25      375.6     8.0                                        1272000200287 
  69.50      341.5     7.6                                        1272000200288 
  69.75      318.8     7.4                                        1272000200289 
  70.00      328.9     7.4                                        1272000200290 
  70.25      360.7     7.8                                        1272000200291 
  70.50      354.7     7.7                                        1272000200292 
  70.75      337.6     7.4                                        1272000200293 
  71.00      346.2     7.6                                        1272000200294 
  71.25      348.9     7.8                                        1272000200295 
  71.50      330.0     7.5                                        1272000200296 
  71.75      349.4     7.7                                        1272000200297 
  72.00      373.5     8.0                                        1272000200298 
  72.25      339.2     7.6                                        1272000200299 
  72.50      350.0     7.7                                        1272000200300 
  72.75      372.1     8.0                                        1272000200301 
  73.00      386.3     8.2                                        1272000200302 
  73.25      371.4     8.1                                        1272000200303 
  73.50      367.0     8.1                                        1272000200304 
  73.75      355.0     8.1                                        1272000200305 
  74.00      345.4     7.8                                        1272000200306 
  74.25      342.2     7.9                                        1272000200307 
  74.50      335.7     7.7                                        1272000200308 
  74.75      345.4     7.7                                        1272000200309 
  75.00      361.8     8.0                                        1272000200310 
  75.25      357.3     8.0                                        1272000200311 
  75.50      340.9     7.9                                        1272000200312 
  75.75      324.8     7.5                                        1272000200313 
  76.00      352.7     8.0                                        1272000200314 
  76.25      351.7     8.0                                        1272000200315 
  76.50      334.5     7.8                                        1272000200316 
  76.75      292.8     7.4                                        1272000200317 
  77.00      336.2     7.8                                        1272000200318 
  77.25      353.7     8.1                                        1272000200319 
  77.50      336.5     7.9                                        1272000200320 
  77.75      310.4     7.6                                        1272000200321 
  78.00      350.1     8.2                                        1272000200322 
  78.25      315.7     7.7                                        1272000200323 
  78.50      309.0     7.7                                        1272000200324 
  78.75      336.7     8.0                                        1272000200325 
  79.00      328.1     7.7                                        1272000200326 
  79.25      335.4     8.1                                        1272000200327 
  79.50      355.0     8.2                                        1272000200328 
  79.75      338.0     8.0                                        1272000200329 
  80.00      321.8     7.8                                        1272000200330 
  80.25      314.3     7.9                                        1272000200331 
  80.50      298.0     7.5                                        1272000200332 
  80.75      309.2     7.6                                        1272000200333 
  81.00      319.1     7.8                                        1272000200334 
  81.25      321.0     7.7                                        1272000200335 
  81.50      314.4     7.9                                        1272000200336 
  81.75      311.2     7.6                                        1272000200337 
  82.00      329.7     7.8                                        1272000200338 
  82.25      358.5     8.2                                        1272000200339 
  82.50      352.0     8.2                                        1272000200340 
  82.75      321.3     7.8                                        1272000200341 
  83.00      305.0     7.8                                        1272000200342 
  83.25      306.4     7.7                                        1272000200343 
  83.50      298.1     7.7                                        1272000200344 
  83.75      312.7     7.8                                        1272000200345 
  84.00      327.3     7.8                                        1272000200346 
  84.25      326.7     8.0                                        1272000200347 
  84.50      321.0     8.1                                        1272000200348 
  84.75      293.8     7.6                                        1272000200349 
  85.00      312.4     8.0                                        1272000200350 
  85.25      320.2     8.0                                        1272000200351 
  85.50      315.8     7.9                                        1272000200352 
  85.75      303.8     7.9                                        1272000200353 
  86.00      314.2     8.0                                        1272000200354 
  86.25      313.4     7.9                                        1272000200355 
  86.50      299.3     7.7                                        1272000200356 
  86.75      316.7     8.0                                        1272000200357 
  87.00      308.8     7.9                                        1272000200358 
  87.25      272.1     7.4                                        1272000200359 
  87.50      277.1     7.6                                        1272000200360 
  87.75      316.4     8.1                                        1272000200361 
  88.00      311.9     8.1                                        1272000200362 
  88.25      281.6     7.7                                        1272000200363 
  88.50      279.1     7.7                                        1272000200364 
  88.75      282.5     7.7                                        1272000200365 
  89.00      305.6     7.9                                        1272000200366 
  89.25      307.6     7.8                                        1272000200367 
  89.50      293.3     7.7                                        1272000200368 
  89.75      290.9     7.7                                        1272000200369 
  90.00      315.2     8.2                                        1272000200370 
  90.25      296.5     7.7                                        1272000200371 
  90.50      306.0     8.1                                        1272000200372 
  90.75      315.8     8.3                                        1272000200373 
  91.00      289.3     7.9                                        1272000200374 
  91.25      266.7     7.4                                        1272000200375 
  91.50      287.8     7.7                                        1272000200376 
  91.75      312.7     8.2                                        1272000200377 
  92.00      286.3     7.9                                        1272000200378 
  92.25      281.5     7.8                                        1272000200379 
  92.50      274.1     7.7                                        1272000200380 
  92.75      293.9     8.0                                        1272000200381 
  93.00      304.7     8.1                                        1272000200382 
  93.25      299.8     8.0                                        1272000200383 
  93.50      294.2     8.1                                        1272000200384 
  93.75      293.4     7.9                                        1272000200385 
  94.00      305.9     8.2                                        1272000200386 
  94.25      299.3     8.1                                        1272000200387 
  94.50      299.5     8.1                                        1272000200388 
  94.75      306.5     8.1                                        1272000200389 
  95.00      303.4     8.0                                        1272000200390 
  95.25      320.1     8.3                                        1272000200391 
  95.50      317.1     8.4                                        1272000200392 
  95.75      288.4     7.8                                        1272000200393 
  96.00      290.9     8.1                                        1272000200394 
  96.25      287.3     8.1                                        1272000200395 
  96.50      279.1     7.8                                        1272000200396 
  96.75      262.3     7.5                                        1272000200397 
  97.00      272.2     7.9                                        1272000200398 
  97.25      280.4     8.1                                        1272000200399 
  97.50      303.3     8.3                                        1272000200400 
  97.75      308.9     8.2                                        1272000200401 
  98.00      296.5     8.2                                        1272000200402 
  98.25      296.1     8.3                                        1272000200403 
  98.50      270.9     7.8                                        1272000200404 
  98.75      277.1     8.0                                        1272000200405 
  99.00      285.7     7.9                                        1272000200406 
  99.25      306.1     8.3                                        1272000200407 
  99.50      292.7     8.1                                        1272000200408 
  99.75      293.3     8.2                                        1272000200409 
 100.00      290.4     8.1                                        1272000200410 
 100.50      299.8     4.1                                        1272000200411 
 101.50      317.2     4.3                                        1272000200412 
 102.50      302.0     4.2                                        1272000200413 
 103.50      285.5     4.1                                        1272000200414 
 104.50      312.3     4.3                                        1272000200415 
 105.50      307.7     4.2                                        1272000200416 
 106.50      311.4     4.3                                        1272000200417 
 107.50      296.6     4.3                                        1272000200418 
 108.50      303.1     4.3                                        1272000200419 
 109.50      283.1     4.1                                        1272000200420 
 110.50      295.4     4.3                                        1272000200421 
 111.50      292.0     4.3                                        1272000200422 
 112.50      297.7     4.3                                        1272000200423 
 113.50      277.0     4.2                                        1272000200424 
 114.50      293.6     4.3                                        1272000200425 
 115.50      273.1     4.2                                        1272000200426 
 116.50      262.0     4.1                                        1272000200427 
 117.50      286.1     4.4                                        1272000200428 
 118.50      291.6     4.3                                        1272000200429 
 119.50      281.1     4.3                                        1272000200430 
 120.50      276.3     4.3                                        1272000200431 
 121.50      280.9     4.4                                        1272000200432 
 122.50      277.1     4.3                                        1272000200433 
 123.50      276.7     4.3                                        1272000200434 
 124.50      282.4     4.4                                        1272000200435 
 125.50      283.2     4.4                                        1272000200436 
 126.50      272.8     4.3                                        1272000200437 
 127.50      284.9     4.4                                        1272000200438 
 128.50      271.7     4.3                                        1272000200439 
 129.50      274.6     4.4                                        1272000200440 
 130.50      278.1     4.4                                        1272000200441 
 131.50      287.3     4.5                                        1272000200442 
 132.50      293.0     4.5                                        1272000200443 
 133.50      271.3     4.3                                        1272000200444 
 134.50      283.9     4.4                                        1272000200445 
 135.50      292.6     4.6                                        1272000200446 
 136.50      285.3     4.6                                        1272000200447 
 137.50      281.8     4.5                                        1272000200448 
 138.50      277.0     4.5                                        1272000200449 
 139.50      280.0     4.5                                        1272000200450 
 140.50      271.2     4.5                                        1272000200451 
 141.50      269.4     4.5                                        1272000200452 
 142.50      275.8     4.5                                        1272000200453 
 143.50      276.2     4.5                                        1272000200454 
 144.50      278.1     4.6                                        1272000200455 
 145.50      275.4     4.5                                        1272000200456 
 146.50      270.8     4.6                                        1272000200457 
 147.50      268.7     4.5                                        1272000200458 
 148.50      257.0     4.4                                        1272000200459 
 149.50      261.8     4.5                                        1272000200460 
 150.50      270.7     4.6                                        1272000200461 
 151.50      276.9     4.6                                        1272000200462 
 152.50      269.7     4.5                                        1272000200463 
 153.50      273.7     4.7                                        1272000200464 
 154.50      274.3     4.6                                        1272000200465 
 155.50      265.8     4.6                                        1272000200466 
 156.50      269.9     4.7                                        1272000200467 
 157.50      266.8     4.7                                        1272000200468 
 158.50      273.1     4.7                                        1272000200469 
 159.50      270.8     4.7                                        1272000200470 
 160.50      266.8     4.7                                        1272000200471 
 161.50      262.9     4.6                                        1272000200472 
 162.50      253.2     4.7                                        1272000200473 
 163.50      266.8     4.7                                        1272000200474 
 164.50      252.6     4.6                                        1272000200475 
 165.50      260.6     4.6                                        1272000200476 
 166.50      262.3     4.6                                        1272000200477 
 167.50      271.7     4.7                                        1272000200478 
 168.50      271.2     4.8                                        1272000200479 
 169.50      260.3     4.7                                        1272000200480 
 170.50      259.8     4.7                                        1272000200481 
 171.50      268.9     4.8                                        1272000200482 
 172.50      270.0     4.9                                        1272000200483 
 173.50      263.2     4.8                                        1272000200484 
 174.50      262.5     4.8                                        1272000200485 
 175.50      257.6     4.7                                        1272000200486 
 176.50      249.9     4.6                                        1272000200487 
 177.50      256.1     4.7                                        1272000200488 
 178.50      255.9     4.7                                        1272000200489 
 179.50      240.1     4.5                                        1272000200490 
 180.50      246.0     4.6                                        1272000200491 
 181.50      262.5     4.9                                        1272000200492 
 182.50      257.9     4.7                                        1272000200493 
 183.50      278.3     5.0                                        1272000200494 
 184.50      257.8     4.9                                        1272000200495 
 185.50      244.4     4.6                                        1272000200496 
 186.50      252.1     4.8                                        1272000200497 
 187.50      252.1     4.8                                        1272000200498 
 188.50      257.0     4.9                                        1272000200499 
 189.50      259.8     4.9                                        1272000200500 
 190.50      254.7     4.9                                        1272000200501 
 191.50      247.2     4.8                                        1272000200502 
 192.50      249.6     4.9                                        1272000200503 
 193.50      247.9     4.8                                        1272000200504 
 194.50      252.4     4.9                                        1272000200505 
 195.50      257.5     5.0                                        1272000200506 
 196.50      256.2     5.0                                        1272000200507 
 197.50      270.2     5.1                                        1272000200508 
 198.50      255.9     5.0                                        1272000200509 
 199.50      265.4     5.1                                        1272000200510 
 202.50      257.2     2.2                                        1272000200511 
 207.50      247.9     2.2                                        1272000200512 
 212.50      250.9     2.3                                        1272000200513 
 217.50      254.0     2.3                                        1272000200514 
 222.50      246.1     2.3                                        1272000200515 
 227.50      250.0     2.3                                        1272000200516 
 232.50      247.7     2.3                                        1272000200517 
 237.50      237.9     2.3                                        1272000200518 
 242.50      248.0     2.3                                        1272000200519 
 247.50      235.0     2.3                                        1272000200520 
 252.50      241.8     2.3                                        1272000200521 
 257.50      242.7     2.4                                        1272000200522 
 262.50      247.8     2.4                                        1272000200523 
 267.50      241.9     2.4                                        1272000200524 
 272.50      236.6     2.4                                        1272000200525 
 277.50      231.0     2.4                                        1272000200526 
 282.50      221.1     2.3                                        1272000200527 
 287.50      211.3     2.3                                        1272000200528 
 292.50      200.6     2.2                                        1272000200529 
 297.50      199.6     2.2                                        1272000200530 
 312.50      190.4     1.0                                        1272000200531 
 337.50      179.1     1.0                                        1272000200532 
 362.50      171.0     1.0                                        1272000200533 
 387.50      163.4     1.0                                        1272000200534 
 412.5       156.1     1.1                                        1272000200535 
 437.5       150.1     1.2                                        1272000200536 
 462.5       150.2     1.3                                        1272000200537 
 487.5       145.6     1.2                                        1272000200538 
 512.5       135.6     1.2                                        1272000200539 
 537.5       134.3     1.3                                        1272000200540 
 562.5       120.7     1.2                                        1272000200541 
 587.5       115.7     1.3                                        1272000200542 
 612.5       109.1     1.4                                        1272000200543 
 637.5       101.9     1.3                                        1272000200544 
 662.5        99.8     1.3                                        1272000200545 
 687.5        97.3     1.2                                        1272000200546 
 712.5        97.2     1.2                                        1272000200547 
 737.5        97.0     1.3                                        1272000200548 
 762.5        93.8     1.3                                        1272000200549 
 787.5        94.3     1.3                                        1272000200550 
 850.0        89.5     0.7                                        1272000200551 
 950.0        81.4     0.8                                        1272000200552 
1050.         80.7     0.9                                        1272000200553 
1150.         75.9     0.8                                        1272000200554 
1250.         76.4     0.9                                        1272000200555 
1350.         73.8     1.0                                        1272000200556 
1450.         75.8     1.1                                        1272000200557 
1550.         72.1     1.2                                        1272000200558 
1650.         69.7     1.3                                        1272000200559 
1750.         62.2     1.3                                        1272000200560 
1850.         59.4     1.4                                        1272000200561 
1950.         58.7     1.6                                        1272000200562 
ENDDATA            544          0                                 1272000200563 
ENDSUBENT          562          0                                 1272000299999 
ENDENTRY             2          0                                 1272099999999 
