ENTRY            12805   19840416                             00001280500000001 
SUBENT        12805001   19840416                             00001280500100001 
BIB                 12         16                                 1280500100002 
INSTITUTE  (1USAANL)                                              1280500100003 
REFERENCE  (J,NP/A,415,1,8403)                                    1280500100004 
           (R,ANL-NDM-75,8211)                                    1280500100005 
AUTHOR     (A.B.SMITH,P.T.GUENTHER,J.F.WHALEN)                    1280500100006 
TITLE      FAST-NEUTRON TOTAL AND SCATTERING CROSS SECTIONS OF    1280500100007 
            ELEMENTAL ANTIMONY                                    1280500100008 
FACILITY   (DYNAM)                                                1280500100009 
INC-SOURCE (P-LI7)                                                1280500100010 
METHOD     (TOF)  5.4 METER FLIGHT PATH                           1280500100011 
DETECTOR   (SCIN) PROTON RECOIL SCINTILLATORS                     1280500100012 
MONITOR    (6-C-0(N,TOT),,SIG)                                    1280500100013 
INC-SPECT  BEAM RESOLUTION 50 TO 70 KEV                           1280500100014 
STATUS     (APRVD) A.B.SMITH, 83/3/18.                            1280500100015 
           DATA RECEIVED IN PRIVATE COMMUNICATION 2/4/83          1280500100016 
HISTORY    (830217C)                                              1280500100017 
           (840416A) REFERENCE ADDED.                             1280500100018 
ENDBIB              16          0                                 1280500100019 
NOCOMMON             0          0                                 1280500100020 
ENDSUBENT           19          0                                 1280500199999 
SUBENT        12805002   19830304                             00001280500200001 
BIB                  5          7                                 1280500200002 
REACTION   (51-SB-0(N,TOT),,SIG,,AV)                              1280500200003 
SAMPLE     METALLIC ANTIMONY CYLINDER, 2.5 CM DIAMETER AND 1.25   1280500200004 
             CM LONG                                              1280500200005 
CORRECTION DATA WERE CORRECTED FOR DEAD-TIME                      1280500200006 
ANALYSIS   DATA WERE AVERAGED OVER 50 KEV INTERVALS               1280500200007 
ERR-ANALYS (DATA-ERR) TOTAL UNCERTAINTY. THE STATISTICAL          1280500200008 
            UNCERTAINTY IS ABOUT 1 PERCENT.                       1280500200009 
ENDBIB               7          0                                 1280500200010 
NOCOMMON             0          0                                 1280500200011 
DATA                 3         69                                 1280500200012 
EN-MEAN    DATA       DATA-ERR                                    1280500200013 
MEV        B          B                                           1280500200014 
  8.096E-01  6.885E+00  9.468E-02                                 1280500200015 
  8.732E-01  6.700E+00  8.905E-02                                 1280500200016 
  9.365E-01  6.756E+00  8.251E-02                                 1280500200017 
  9.993E-01  6.678E+00  8.169E-02                                 1280500200018 
  1.062E+00  6.705E+00  8.164E-02                                 1280500200019 
  1.124E+00  6.631E+00  7.800E-02                                 1280500200020 
  1.186E+00  6.633E+00  7.595E-02                                 1280500200021 
  1.247E+00  6.425E+00  7.664E-02                                 1280500200022 
  1.308E+00  6.518E+00  7.503E-02                                 1280500200023 
  1.369E+00  6.514E+00  7.315E-02                                 1280500200024 
  1.429E+00  6.394E+00  7.145E-02                                 1280500200025 
  1.489E+00  6.207E+00  7.206E-02                                 1280500200026 
  1.548E+00  6.139E+00  7.278E-02                                 1280500200027 
  1.608E+00  6.165E+00  7.120E-02                                 1280500200028 
  1.667E+00  6.182E+00  7.109E-02                                 1280500200029 
  1.725E+00  6.145E+00  7.267E-02                                 1280500200030 
  1.784E+00  6.105E+00  7.338E-02                                 1280500200031 
  1.842E+00  5.930E+00  6.724E-02                                 1280500200032 
  1.899E+00  5.755E+00  7.332E-02                                 1280500200033 
  1.957E+00  5.818E+00  7.066E-02                                 1280500200034 
  2.014E+00  5.787E+00  7.720E-02                                 1280500200035 
  2.071E+00  5.765E+00  7.825E-02                                 1280500200036 
  2.127E+00  5.734E+00  7.827E-02                                 1280500200037 
  2.184E+00  5.584E+00  7.884E-02                                 1280500200038 
  2.240E+00  5.504E+00  8.202E-02                                 1280500200039 
  2.295E+00  5.437E+00  8.447E-02                                 1280500200040 
  2.351E+00  5.318E+00  8.199E-02                                 1280500200041 
  2.406E+00  5.396E+00  8.024E-02                                 1280500200042 
  2.461E+00  5.303E+00  8.637E-02                                 1280500200043 
  2.516E+00  5.202E+00  8.791E-02                                 1280500200044 
  2.570E+00  5.241E+00  8.521E-02                                 1280500200045 
  2.625E+00  4.962E+00  8.363E-02                                 1280500200046 
  2.679E+00  5.099E+00  8.088E-02                                 1280500200047 
  2.733E+00  4.992E+00  7.902E-02                                 1280500200048 
  2.786E+00  5.052E+00  7.701E-02                                 1280500200049 
  2.840E+00  5.033E+00  7.497E-02                                 1280500200050 
  2.893E+00  4.856E+00  7.200E-02                                 1280500200051 
  2.946E+00  4.758E+00  7.134E-02                                 1280500200052 
  2.999E+00  4.729E+00  5.848E-02                                 1280500200053 
  3.052E+00  4.738E+00  6.886E-02                                 1280500200054 
  3.104E+00  4.717E+00  6.804E-02                                 1280500200055 
  3.156E+00  4.663E+00  6.649E-02                                 1280500200056 
  3.208E+00  4.630E+00  6.672E-02                                 1280500200057 
  3.260E+00  4.780E+00  6.679E-02                                 1280500200058 
  3.312E+00  4.669E+00  6.526E-02                                 1280500200059 
  3.364E+00  4.652E+00  6.654E-02                                 1280500200060 
  3.415E+00  4.601E+00  6.665E-02                                 1280500200061 
  3.467E+00  4.715E+00  6.843E-02                                 1280500200062 
  3.518E+00  4.611E+00  8.452E-02                                 1280500200063 
  3.569E+00  4.531E+00  8.291E-02                                 1280500200064 
  3.620E+00  4.538E+00  8.642E-02                                 1280500200065 
  3.670E+00  4.421E+00  8.971E-02                                 1280500200066 
  3.721E+00  4.531E+00  9.126E-02                                 1280500200067 
  3.771E+00  4.604E+00  9.696E-02                                 1280500200068 
  3.822E+00  4.420E+00  1.005E-01                                 1280500200069 
  3.872E+00  4.567E+00  9.859E-02                                 1280500200070 
  3.922E+00  4.504E+00  1.002E-01                                 1280500200071 
  3.972E+00  4.508E+00  1.004E-01                                 1280500200072 
  4.022E+00  4.384E+00  1.033E-01                                 1280500200073 
  4.072E+00  4.385E+00  1.128E-01                                 1280500200074 
  4.122E+00  4.437E+00  1.073E-01                                 1280500200075 
  4.172E+00  4.373E+00  1.082E-01                                 1280500200076 
  4.221E+00  4.402E+00  1.098E-01                                 1280500200077 
  4.271E+00  4.533E+00  1.104E-01                                 1280500200078 
  4.320E+00  4.481E+00  1.133E-01                                 1280500200079 
  4.370E+00  4.336E+00  1.173E-01                                 1280500200080 
  4.419E+00  4.424E+00  1.185E-01                                 1280500200081 
  4.469E+00  4.414E+00  1.214E-01                                 1280500200082 
  4.518E+00  4.369E+00  1.251E-01                                 1280500200083 
ENDDATA             71          0                                 1280500200084 
ENDSUBENT           83          0                                 1280500299999 
SUBENT        12805003   19830304                             00001280500300001 
BIB                  5          9                                 1280500300002 
REACTION   ((51-SB-0(N,EL),,DA,,AV)+(51-SB-0(N,INL),PAR,DA,,AV))  1280500300003 
SAMPLE     METALLIC ANTIMONY CYLINDER, 2 CM DIAMETER AND 2 CM LONG1280500300004 
ANALYSIS   DATA WERE AVERAGED OVER 50 KEV INTERVALS               1280500300005 
CORRECTION DATA WERE CORRECTED FOR MULTIPLE-SCATTERING, BEAM-     1280500300006 
            ATTENUATION AND ANGULAR-RESOLUTION.                   1280500300007 
ERR-ANALYS (DATA-ERR) OVERALL UNCERTAINTY LESS THAN 5 PERCENT     1280500300008 
              STATISTICAL UNCERTAINTY     LESS THAN 1 PERCENT     1280500300009 
              DETECTOR NORMALIZATION                3 PERCENT     1280500300010 
              CORRECTIONS                           1 PERCENT     1280500300011 
ENDBIB               9          0                                 1280500300012 
COMMON               2          3                                 1280500300013 
E-EXC-MAX  ANG-RSL                                                1280500300014 
KEV        ADEG                                                   1280500300015 
  160.       0.7                                                  1280500300016 
ENDCOMMON            3          0                                 1280500300017 
DATA                 4        140                                 1280500300018 
EN-MEAN    ANG        DATA       DATA-ERR                         1280500300019 
MEV        ADEG       B/SR       PER-CENT                         1280500300020 
   1.55E+00   2.10E+01   1.62E+00   5.00                          1280500300021 
   1.55E+00   3.09E+01   1.34E+00   5.00                          1280500300022 
   1.55E+00   4.88E+01   8.18E-01   5.00                          1280500300023 
   1.55E+00   6.48E+01   4.08E-01   5.00                          1280500300024 
   1.55E+00   8.17E+01   1.80E-01   5.00                          1280500300025 
   1.55E+00   9.77E+01   1.04E-01   5.00                          1280500300026 
   1.55E+00   1.14E+02   9.08E-02   5.00                          1280500300027 
   1.55E+00   1.30E+02   1.38E-01   5.00                          1280500300028 
   1.55E+00   1.47E+02   2.32E-01   5.00                          1280500300029 
   1.55E+00   1.57E+02   3.02E-01   5.00                          1280500300030 
   1.65E+00   2.10E+01   1.61E+00   5.00                          1280500300031 
   1.65E+00   3.09E+01   1.33E+00   5.00                          1280500300032 
   1.65E+00   4.88E+01   7.75E-01   5.00                          1280500300033 
   1.65E+00   6.48E+01   3.61E-01   5.00                          1280500300034 
   1.65E+00   8.17E+01   1.60E-01   5.00                          1280500300035 
   1.65E+00   9.77E+01   9.18E-02   5.00                          1280500300036 
   1.65E+00   1.14E+02   7.79E-02   5.00                          1280500300037 
   1.65E+00   1.30E+02   1.19E-01   5.00                          1280500300038 
   1.65E+00   1.47E+02   2.15E-01   5.00                          1280500300039 
   1.65E+00   1.57E+02   2.80E-01   5.00                          1280500300040 
   1.75E+00   2.10E+01   1.61E+00   5.00                          1280500300041 
   1.75E+00   3.09E+01   1.31E+00   5.00                          1280500300042 
   1.75E+00   4.88E+01   7.37E-01   5.00                          1280500300043 
   1.75E+00   6.48E+01   3.28E-01   5.00                          1280500300044 
   1.75E+00   8.17E+01   1.47E-01   5.00                          1280500300045 
   1.75E+00   9.77E+01   8.74E-02   5.00                          1280500300046 
   1.75E+00   1.14E+02   6.89E-02   5.00                          1280500300047 
   1.75E+00   1.30E+02   1.07E-01   5.00                          1280500300048 
   1.75E+00   1.47E+02   2.00E-01   5.00                          1280500300049 
   1.75E+00   1.57E+02   2.61E-01   5.00                          1280500300050 
   1.87E+00   2.10E+01   1.60E+00   5.00                          1280500300051 
   1.87E+00   3.09E+01   1.29E+00   5.00                          1280500300052 
   1.87E+00   4.88E+01   6.90E-01   5.00                          1280500300053 
   1.87E+00   6.48E+01   3.02E-01   5.00                          1280500300054 
   1.87E+00   8.17E+01   1.24E-01   5.00                          1280500300055 
   1.87E+00   9.77E+01   6.89E-02   5.00                          1280500300056 
   1.87E+00   1.14E+02   5.92E-02   5.07                          1280500300057 
   1.87E+00   1.30E+02   9.31E-02   5.00                          1280500300058 
   1.87E+00   1.47E+02   1.76E-01   5.00                          1280500300059 
   1.87E+00   1.57E+02   2.36E-01   5.00                          1280500300060 
   1.93E+00   2.10E+01   1.62E+00   5.00                          1280500300061 
   1.93E+00   3.09E+01   1.28E+00   5.00                          1280500300062 
   1.93E+00   4.88E+01   6.61E-01   5.00                          1280500300063 
   1.93E+00   6.48E+01   2.87E-01   5.00                          1280500300064 
   1.93E+00   8.17E+01   1.17E-01   5.00                          1280500300065 
   1.93E+00   9.77E+01   6.19E-02   5.00                          1280500300066 
   1.93E+00   1.14E+02   5.29E-02   5.67                          1280500300067 
   1.93E+00   1.30E+02   8.39E-02   5.00                          1280500300068 
   1.93E+00   1.47E+02   1.66E-01   5.00                          1280500300069 
   1.93E+00   1.57E+02   2.19E-01   5.00                          1280500300070 
   2.05E+00   2.10E+01   1.61E+00   5.00                          1280500300071 
   2.05E+00   3.09E+01   1.23E+00   5.00                          1280500300072 
   2.05E+00   4.78E+01   5.99E-01   5.00                          1280500300073 
   2.05E+00   6.48E+01   2.62E-01   5.00                          1280500300074 
   2.05E+00   8.08E+01   1.15E-01   5.00                          1280500300075 
   2.05E+00   9.77E+01   4.76E-02   6.30                          1280500300076 
   2.05E+00   1.14E+02   4.58E-02   6.55                          1280500300077 
   2.05E+00   1.31E+02   7.95E-02   5.00                          1280500300078 
   2.05E+00   1.47E+02   1.48E-01   5.00                          1280500300079 
   2.05E+00   1.57E+02   2.02E-01   5.00                          1280500300080 
   2.15E+00   2.10E+01   1.56E+00   5.00                          1280500300081 
   2.15E+00   3.09E+01   1.17E+00   5.00                          1280500300082 
   2.15E+00   4.78E+01   5.53E-01   5.00                          1280500300083 
   2.15E+00   6.48E+01   2.36E-01   5.00                          1280500300084 
   2.15E+00   8.08E+01   1.01E-01   5.00                          1280500300085 
   2.15E+00   9.77E+01   4.22E-02   7.11                          1280500300086 
   2.15E+00   1.14E+02   4.01E-02   7.48                          1280500300087 
   2.15E+00   1.31E+02   7.52E-02   5.00                          1280500300088 
   2.15E+00   1.47E+02   1.32E-01   5.00                          1280500300089 
   2.15E+00   1.57E+02   1.83E-01   5.00                          1280500300090 
   2.25E+00   2.10E+01   1.57E+00   5.00                          1280500300091 
   2.25E+00   3.09E+01   1.18E+00   5.00                          1280500300092 
   2.25E+00   4.78E+01   5.48E-01   5.00                          1280500300093 
   2.25E+00   6.48E+01   2.26E-01   5.00                          1280500300094 
   2.25E+00   8.08E+01   8.84E-02   5.00                          1280500300095 
   2.25E+00   9.77E+01   3.77E-02   7.96                          1280500300096 
   2.25E+00   1.14E+02   3.73E-02   8.04                          1280500300097 
   2.25E+00   1.31E+02   6.95E-02   5.00                          1280500300098 
   2.25E+00   1.47E+02   1.23E-01   5.00                          1280500300099 
   2.25E+00   1.57E+02   1.67E-01   5.00                          1280500300100 
   2.35E+00   2.10E+01   1.54E+00   5.00                          1280500300101 
   2.35E+00   3.09E+01   1.13E+00   5.00                          1280500300102 
   2.35E+00   4.78E+01   5.12E-01   5.00                          1280500300103 
   2.35E+00   6.48E+01   2.09E-01   5.00                          1280500300104 
   2.35E+00   8.08E+01   8.22E-02   5.00                          1280500300105 
   2.35E+00   9.77E+01   2.88E-02  10.40                          1280500300106 
   2.35E+00   1.14E+02   3.37E-02   8.90                          1280500300107 
   2.35E+00   1.31E+02   6.24E-02   5.00                          1280500300108 
   2.35E+00   1.47E+02   1.12E-01   5.00                          1280500300109 
   2.35E+00   1.57E+02   1.56E-01   5.00                          1280500300110 
   2.45E+00   2.10E+01   1.48E+00   5.00                          1280500300111 
   2.45E+00   3.09E+01   1.05E+00   5.00                          1280500300112 
   2.45E+00   4.78E+01   4.57E-01   5.00                          1280500300113 
   2.45E+00   6.48E+01   1.93E-01   5.00                          1280500300114 
   2.45E+00   8.08E+01   7.76E-02   5.00                          1280500300115 
   2.45E+00   9.77E+01   2.28E-02  13.20                          1280500300116 
   2.45E+00   1.14E+02   3.42E-02   8.77                          1280500300117 
   2.45E+00   1.31E+02   6.04E-02   5.00                          1280500300118 
   2.45E+00   1.47E+02   1.02E-01   5.00                          1280500300119 
   2.45E+00   1.57E+02   1.46E-01   5.00                          1280500300120 
   2.55E+00   2.10E+01   1.44E+00   5.00                          1280500300121 
   2.55E+00   3.09E+01   1.00E+00   5.00                          1280500300122 
   2.55E+00   4.78E+01   4.26E-01   5.00                          1280500300123 
   2.55E+00   6.48E+01   1.76E-01   5.00                          1280500300124 
   2.55E+00   8.08E+01   7.07E-02   5.00                          1280500300125 
   2.55E+00   9.77E+01   2.31E-02  13.00                          1280500300126 
   2.55E+00   1.14E+02   3.40E-02   8.82                          1280500300127 
   2.55E+00   1.31E+02   6.17E-02   5.00                          1280500300128 
   2.55E+00   1.47E+02   9.62E-02   5.00                          1280500300129 
   2.55E+00   1.57E+02   1.38E-01   5.00                          1280500300130 
   2.65E+00   2.10E+01   1.46E+00   5.00                          1280500300131 
   2.65E+00   3.09E+01   1.01E+00   5.00                          1280500300132 
   2.65E+00   4.78E+01   4.14E-01   5.00                          1280500300133 
   2.65E+00   6.48E+01   1.66E-01   5.00                          1280500300134 
   2.65E+00   8.08E+01   6.82E-02   5.00                          1280500300135 
   2.65E+00   9.77E+01   2.36E-02  12.70                          1280500300136 
   2.65E+00   1.14E+02   3.17E-02   9.46                          1280500300137 
   2.65E+00   1.31E+02   5.74E-02   5.23                          1280500300138 
   2.65E+00   1.47E+02   9.01E-02   5.00                          1280500300139 
   2.65E+00   1.57E+02   1.25E-01   5.00                          1280500300140 
   2.75E+00   2.10E+01   1.51E+00   5.00                          1280500300141 
   2.75E+00   3.09E+01   1.06E+00   5.00                          1280500300142 
   2.75E+00   4.78E+01   4.33E-01   5.00                          1280500300143 
   2.75E+00   6.48E+01   1.70E-01   5.00                          1280500300144 
   2.75E+00   8.08E+01   6.79E-02   5.00                          1280500300145 
   2.75E+00   9.77E+01   2.28E-02  13.20                          1280500300146 
   2.75E+00   1.14E+02   2.39E-02  12.60                          1280500300147 
   2.75E+00   1.31E+02   5.16E-02   5.81                          1280500300148 
   2.75E+00   1.47E+02   7.85E-02   5.00                          1280500300149 
   2.75E+00   1.57E+02   1.00E-01   5.00                          1280500300150 
   2.85E+00   2.10E+01   1.40E+00   5.00                          1280500300151 
   2.85E+00   3.09E+01   9.79E-01   5.00                          1280500300152 
   2.85E+00   4.78E+01   3.81E-01   5.00                          1280500300153 
   2.85E+00   6.48E+01   1.49E-01   5.00                          1280500300154 
   2.85E+00   8.08E+01   6.58E-02   5.00                          1280500300155 
   2.85E+00   9.77E+01   1.56E-02  19.20                          1280500300156 
   2.85E+00   1.14E+02   2.80E-02  10.70                          1280500300157 
   2.85E+00   1.31E+02   5.34E-02   5.62                          1280500300158 
   2.85E+00   1.47E+02   7.00E-02   5.00                          1280500300159 
   2.85E+00   1.57E+02   9.06E-02   5.00                          1280500300160 
ENDDATA            142          0                                 1280500300161 
ENDSUBENT          160          0                                 1280500399999 
SUBENT        12805004   19830304                             00001280500400001 
BIB                  4          8                                 1280500400002 
REACTION   ((51-SB-0(N,EL),,DA)+(51-SB-0(N,INL),PAR,DA))          1280500400003 
SAMPLE     METALLIC ANTIMONY CYLINDER, 2 CM DIAMETER AND 2 CM LONG1280500400004 
CORRECTION DATA WERE CORRECTED FOR MULTIPLE-SCATTERING, BEAM-     1280500400005 
            ATTENUATION AND ANGULAR-RESOLUTION.                   1280500400006 
ERR-ANALYS (DATA-ERR) OVERALL UNCERTAINTY LESS THAN 5 PERCENT     1280500400007 
              STATISTICAL UNCERTAINTY     LESS THAN 1 PERCENT     1280500400008 
              DETECTOR NORMALIZATION                3 PERCENT     1280500400009 
              CORRECTIONS                           1 PERCENT     1280500400010 
ENDBIB               8          0                                 1280500400011 
COMMON               2          3                                 1280500400012 
E-EXC-MAX  ANG-RSL                                                1280500400013 
KEV        ADEG                                                   1280500400014 
  160.       0.7                                                  1280500400015 
ENDCOMMON            3          0                                 1280500400016 
DATA                 4        120                                 1280500400017 
EN         ANG        DATA       DATA-ERR                         1280500400018 
MEV        ADEG       B/SR       PER-CENT                         1280500400019 
   3.00E+00   2.10E+01   1.46E+00   5.00                          1280500400020 
   3.00E+00   2.50E+01   1.17E+00   5.00                          1280500400021 
   3.00E+00   3.09E+01   1.01E+00   5.00                          1280500400022 
   3.00E+00   3.49E+01   7.37E-01   5.00                          1280500400023 
   3.00E+00   4.64E+01   4.03E-01   5.00                          1280500400024 
   3.00E+00   5.08E+01   2.62E-01   5.00                          1280500400025 
   3.00E+00   6.18E+01   1.68E-01   5.00                          1280500400026 
   3.00E+00   6.68E+01   1.25E-01   5.00                          1280500400027 
   3.00E+00   7.77E+01   8.17E-02   5.00                          1280500400028 
   3.00E+00   8.28E+01   5.45E-02   5.50                          1280500400029 
   3.00E+00   9.27E+01   3.04E-02   9.87                          1280500400030 
   3.00E+00   9.87E+01   1.59E-02  18.90                          1280500400031 
   3.00E+00   1.09E+02   1.81E-02  16.60                          1280500400032 
   3.00E+00   1.15E+02   2.86E-02  10.50                          1280500400033 
   3.00E+00   1.24E+02   4.67E-02   6.42                          1280500400034 
   3.00E+00   1.31E+02   5.40E-02   5.56                          1280500400035 
   3.00E+00   1.40E+02   5.86E-02   5.12                          1280500400036 
   3.00E+00   1.47E+02   6.48E-02   5.00                          1280500400037 
   3.00E+00   1.50E+02   6.26E-02   5.00                          1280500400038 
   3.00E+00   1.57E+02   8.06E-02   5.00                          1280500400039 
   3.20E+00   1.95E+01   1.48E+00   5.00                          1280500400040 
   3.20E+00   2.35E+01   1.33E+00   5.00                          1280500400041 
   3.20E+00   2.94E+01   9.82E-01   5.00                          1280500400042 
   3.20E+00   3.34E+01   8.19E-01   5.00                          1280500400043 
   3.20E+00   4.49E+01   3.60E-01   5.00                          1280500400044 
   3.20E+00   4.93E+01   2.80E-01   5.00                          1280500400045 
   3.20E+00   6.03E+01   1.50E-01   5.00                          1280500400046 
   3.20E+00   6.53E+01   1.26E-01   5.00                          1280500400047 
   3.20E+00   7.62E+01   8.24E-02   5.00                          1280500400048 
   3.20E+00   8.13E+01   6.49E-02   5.00                          1280500400049 
   3.20E+00   9.12E+01   2.46E-02  12.20                          1280500400050 
   3.20E+00   9.72E+01   1.57E-02  19.00                          1280500400051 
   3.20E+00   1.07E+02   1.89E-02  15.90                          1280500400052 
   3.20E+00   1.13E+02   2.81E-02  10.60                          1280500400053 
   3.20E+00   1.22E+02   5.63E-02   5.32                          1280500400054 
   3.20E+00   1.30E+02   6.05E-02   5.00                          1280500400055 
   3.20E+00   1.39E+02   6.21E-02   5.00                          1280500400056 
   3.20E+00   1.46E+02   6.23E-02   5.00                          1280500400057 
   3.20E+00   1.48E+02   5.92E-02   5.05                          1280500400058 
   3.20E+00   1.55E+02   6.33E-02   5.00                          1280500400059 
   3.40E+00   1.95E+01   1.51E+00   5.00                          1280500400060 
   3.40E+00   2.35E+01   1.33E+00   5.00                          1280500400061 
   3.40E+00   2.94E+01   9.63E-01   5.00                          1280500400062 
   3.40E+00   3.34E+01   7.84E-01   5.00                          1280500400063 
   3.40E+00   4.49E+01   3.26E-01   5.00                          1280500400064 
   3.40E+00   4.93E+01   2.52E-01   5.00                          1280500400065 
   3.40E+00   6.03E+01   1.54E-01   5.00                          1280500400066 
   3.40E+00   6.53E+01   1.23E-01   5.00                          1280500400067 
   3.40E+00   7.62E+01   8.81E-02   5.00                          1280500400068 
   3.40E+00   8.13E+01   6.72E-02   5.00                          1280500400069 
   3.40E+00   9.12E+01   2.32E-02  12.90                          1280500400070 
   3.40E+00   9.72E+01   1.47E-02  20.40                          1280500400071 
   3.40E+00   1.07E+02   1.98E-02  15.10                          1280500400072 
   3.40E+00   1.13E+02   3.11E-02   9.62                          1280500400073 
   3.40E+00   1.22E+02   5.75E-02   5.20                          1280500400074 
   3.40E+00   1.30E+02   6.10E-02   5.00                          1280500400075 
   3.40E+00   1.39E+02   6.04E-02   5.00                          1280500400076 
   3.40E+00   1.46E+02   5.41E-02   5.54                          1280500400077 
   3.40E+00   1.48E+02   5.51E-02   5.42                          1280500400078 
   3.40E+00   1.55E+02   5.57E-02   5.38                          1280500400079 
   3.60E+00   2.10E+01   1.33E+00   5.00                          1280500400080 
   3.60E+00   2.50E+01   1.13E+00   5.00                          1280500400081 
   3.60E+00   3.09E+01   7.76E-01   5.00                          1280500400082 
   3.60E+00   3.49E+01   6.05E-01   5.00                          1280500400083 
   3.60E+00   4.64E+01   2.25E-01   5.00                          1280500400084 
   3.60E+00   5.08E+01   1.77E-01   5.00                          1280500400085 
   3.60E+00   6.18E+01   1.22E-01   5.00                          1280500400086 
   3.60E+00   6.68E+01   1.17E-01   5.00                          1280500400087 
   3.60E+00   7.77E+01   7.97E-02   5.00                          1280500400088 
   3.60E+00   8.28E+01   5.76E-02   5.21                          1280500400089 
   3.60E+00   9.27E+01   1.88E-02  16.00                          1280500400090 
   3.60E+00   9.87E+01   1.36E-02  22.10                          1280500400091 
   3.60E+00   1.09E+02   2.46E-02  12.20                          1280500400092 
   3.60E+00   1.15E+02   4.17E-02   7.19                          1280500400093 
   3.60E+00   1.24E+02   6.49E-02   5.00                          1280500400094 
   3.60E+00   1.31E+02   6.94E-02   5.00                          1280500400095 
   3.60E+00   1.40E+02   5.50E-02   5.45                          1280500400096 
   3.60E+00   1.47E+02   4.74E-02   6.33                          1280500400097 
   3.60E+00   1.50E+02   4.56E-02   6.58                          1280500400098 
   3.60E+00   1.57E+02   4.66E-02   6.44                          1280500400099 
   3.80E+00   2.10E+01   1.37E+00   5.00                          1280500400100 
   3.80E+00   2.50E+01   1.10E+00   5.00                          1280500400101 
   3.80E+00   3.09E+01   7.88E-01   5.00                          1280500400102 
   3.80E+00   3.49E+01   5.66E-01   5.00                          1280500400103 
   3.80E+00   4.64E+01   1.99E-01   5.00                          1280500400104 
   3.80E+00   5.08E+01   1.43E-01   5.00                          1280500400105 
   3.80E+00   6.18E+01   1.06E-01   5.00                          1280500400106 
   3.80E+00   6.68E+01   1.04E-01   5.00                          1280500400107 
   3.80E+00   7.77E+01   8.34E-02   5.00                          1280500400108 
   3.80E+00   8.28E+01   6.11E-02   5.00                          1280500400109 
   3.80E+00   9.27E+01   2.29E-02  11.80                          1280500400110 
   3.80E+00   9.87E+01   1.21E-02  22.40                          1280500400111 
   3.80E+00   1.09E+02   1.65E-02  16.40                          1280500400112 
   3.80E+00   1.15E+02   3.20E-02   8.43                          1280500400113 
   3.80E+00   1.24E+02   5.98E-02   5.00                          1280500400114 
   3.80E+00   1.31E+02   6.43E-02   5.00                          1280500400115 
   3.80E+00   1.40E+02   5.49E-02   5.00                          1280500400116 
   3.80E+00   1.47E+02   4.46E-02   6.05                          1280500400117 
   3.80E+00   1.50E+02   3.64E-02   7.43                          1280500400118 
   3.80E+00   1.57E+02   3.00E-02   9.01                          1280500400119 
   4.00E+00   2.10E+01   1.31E+00   5.00                          1280500400120 
   4.00E+00   2.50E+01   1.10E+00   5.00                          1280500400121 
   4.00E+00   3.09E+01   7.21E-01   5.00                          1280500400122 
   4.00E+00   3.49E+01   5.31E-01   5.00                          1280500400123 
   4.00E+00   4.64E+01   1.55E-01   5.00                          1280500400124 
   4.00E+00   5.08E+01   1.23E-01   5.00                          1280500400125 
   4.00E+00   6.18E+01   1.13E-01   5.00                          1280500400126 
   4.00E+00   6.68E+01   1.13E-01   5.00                          1280500400127 
   4.00E+00   7.77E+01   9.02E-02   5.00                          1280500400128 
   4.00E+00   8.28E+01   6.48E-02   5.00                          1280500400129 
   4.00E+00   9.27E+01   2.05E-02  14.60                          1280500400130 
   4.00E+00   9.87E+01   1.11E-02  27.00                          1280500400131 
   4.00E+00   1.09E+02   2.52E-02  11.90                          1280500400132 
   4.00E+00   1.15E+02   4.44E-02   6.76                          1280500400133 
   4.00E+00   1.24E+02   7.53E-02   5.00                          1280500400134 
   4.00E+00   1.31E+02   7.37E-02   5.00                          1280500400135 
   4.00E+00   1.40E+02   5.48E-02   5.47                          1280500400136 
   4.00E+00   1.47E+02   3.71E-02   8.09                          1280500400137 
   4.00E+00   1.50E+02   3.27E-02   9.17                          1280500400138 
   4.00E+00   1.57E+02   2.82E-02  10.60                          1280500400139 
ENDDATA            122          0                                 1280500400140 
ENDSUBENT          139          0                                 1280500499999 
SUBENT        12805005   19830304                             00001280500500001 
BIB                  5          9                                 1280500500002 
REACTION   (51-SB-0(N,INL),PAR,SIG)                               1280500500003 
SAMPLE     METALLIC ANTIMONY CYLINDER, 2 CM DIAMETER AND 2 CM LONG1280500500004 
CORRECTION DATA FOR 491. KEV EXCITATION CORRECTED FOR CONTRIBUTION1280500500005 
            OF SECOND SOURCE NEUTRON GROUP.                       1280500500006 
ANALYSIS   (INTAD) OBTAINED FROM INTEGRATING A SECOND ORDER       1280500500007 
            LEGENDRE FIT TO DIFFERENTIAL DATA.                    1280500500008 
ERR-ANALYS (DATA-ERR) OVERALL UNCERTAINTY FROM 15 TO 30 PERCENT   1280500500009 
              DETECTOR NORMALIZATION                3 PERCENT     1280500500010 
              CORRECTIONS                           1 PERCENT     1280500500011 
ENDBIB               9          0                                 1280500500012 
NOCOMMON             0          0                                 1280500500013 
DATA                 5         33                                 1280500500014 
E-EXC      E-EXC-ERR  EN         DATA       DATA-ERR              1280500500015 
KEV        KEV        MEV        B          B                     1280500500016 
   491.                 1.900E+00  2.100E-01  8.040E-02           1280500500017 
   491.                 2.000E+00  1.650E-01  7.890E-02           1280500500018 
   491.                 2.100E+00  1.090E-01  7.190E-02           1280500500019 
   491.                 2.200E+00  9.300E-02  7.130E-02           1280500500020 
   491.                 2.300E+00  8.500E-02  7.370E-02           1280500500021 
  1050.    32.          1.900E+00  4.400E-01  2.200E-01           1280500500022 
  1050.    32.          2.100E+00  5.280E-01  1.320E-01           1280500500023 
  1050.    32.          2.200E+00  5.330E-01  1.070E-01           1280500500024 
  1050.    32.          2.300E+00  5.370E-01  8.050E-02           1280500500025 
  1050.    32.          2.400E+00  4.340E-01  8.680E-02           1280500500026 
  1050.    32.          2.500E+00  4.360E-01  8.720E-02           1280500500027 
  1050.    32.          2.600E+00  3.600E-01  6.480E-02           1280500500028 
  1050.    32.          2.700E+00  3.370E-01  6.740E-02           1280500500029 
  1050.    32.          2.800E+00  2.560E-01  5.120E-02           1280500500030 
  1050.    32.          2.900E+00  2.400E-01  6.000E-02           1280500500031 
  1050.    32.          3.000E+00  2.100E-01  3.780E-02           1280500500032 
  1050.    32.          3.200E+00  1.970E-01  4.930E-02           1280500500033 
  1050.    32.          3.400E+00  1.700E-01  5.100E-02           1280500500034 
  1050.    32.          3.600E+00  1.390E-01  4.170E-02           1280500500035 
  1050.    32.          3.800E+00  1.220E-01  4.270E-02           1280500500036 
  1050.    32.          4.000E+00  1.280E-01  4.480E-02           1280500500037 
  1436.    33.          2.400E+00  3.900E-01  1.370E-01           1280500500038 
  1436.    33.          2.500E+00  5.060E-01  1.770E-01           1280500500039 
  1436.    33.          2.600E+00  5.050E-01  1.510E-01           1280500500040 
  1436.    33.          2.700E+00  4.730E-01  1.420E-01           1280500500041 
  1436.    33.          2.800E+00  3.300E-01  7.560E-02           1280500500042 
  1436.    33.          2.900E+00  3.000E-01  9.000E-02           1280500500043 
  1436.    33.          3.000E+00  2.610E-01  6.520E-02           1280500500044 
  1436.    33.          3.200E+00  2.050E-01  4.100E-02           1280500500045 
  1436.    33.          3.400E+00  1.620E-01  4.050E-02           1280500500046 
  1805.    30.          2.900E+00  2.480E-01  7.440E-02           1280500500047 
  1805.    30.          3.000E+00  2.330E-01  6.990E-02           1280500500048 
  1805.    30.          3.200E+00  1.780E-01  5.340E-02           1280500500049 
ENDDATA             35          0                                 1280500500050 
ENDSUBENT           49          0                                 1280500599999 
ENDENTRY             5          0                                 1280599999999 
