ENTRY            12820   19840416                             00001282000000001 
SUBENT        12820001   19840416                             00001282000100001 
BIB                 12         23                                 1282000100002 
INSTITUTE  (1USAORL)                                              1282000100003 
REFERENCE  (J,NSE,86,362,8404)                                    1282000100004 
AUTHOR     (R.L.MACKLIN)                                          1282000100005 
TITLE      NEUTRON CAPTURE CROSS SECTIONS OF TANTALUM FROM 2.6 TO 1282000100006 
            1900 KEV.                                             1282000100007 
FACILITY   (LINAC)  ORELA                                         1282000100008 
SAMPLE     METAL FOIL CONTAINING 11.667 G NATURAL TANTALUM.       1282000100009 
            THE FOIL DIMENSIONS ARE 25.5 X 53.4 X 0.55 MM.        1282000100010 
METHOD     PROMPT GAMMA PULSE-HEIGHT WEIGHTING.                   1282000100011 
           (TOF) 40.12-M FLIGHT PATH.                             1282000100012 
DETECTOR   (SCIN) NE226 LIQUID SCINTILLATOR.                      1282000100013 
           (GLASD) LI-6 GLASS FLUX MONITOR.                       1282000100014 
MONITOR    (3-LI-6(N,T)2-HE-4,,SIG) FLUX MONITOR.                 1282000100015 
           (92-U-235(N,F),,SIG) FLUX MONITOR.                     1282000100016 
           NORMALIZED USING SATURATED 4.9EV AU RESONANCE.         1282000100017 
CORRECTION CORRECTED FOR DEAD-TIME, TIME-DEPENDENT AND TIME       1282000100018 
            INDEPENDENT BACKGROUNDS, SCATTERED NEUTRONS, GAMMA-   1282000100019 
            RAY ABSORPTION, DETECTOR EFFICIENCY, EXCITATION       1282000100020 
            ENERGY AND ELECTRONIC GAIN SHIFT.                     1282000100021 
STATUS     (APRVD) R.L.MACKLIN, 83/11/28.                         1282000100022 
HISTORY    (830715C)                                              1282000100023 
           (830926U) BIB REVISED                                  1282000100024 
           (840416A) REFERENCE, TITLE UPDATED.                    1282000100025 
ENDBIB              23          0                                 1282000100026 
NOCOMMON             0          0                                 1282000100027 
ENDSUBENT           26          0                                 1282000199999 
SUBENT        12820002   19840416                             00001282000200001 
BIB                  4          5                                 1282000200002 
REACTION   (73-TA-181(N,G)73-TA-182,,SIG,,AV)                     1282000200003 
CORRECTION DATA HAVE BEEN CORRECTED FOR RESONANCE SELF-PROTECTION 1282000200004 
ERR-ANALYS (ERR-S) STATISTICAL UNCERTAINTY                        1282000200005 
HISTORY    (830715C)   DATA COMPILED                              1282000200006 
           (830926U)   BIB MODIFICATIONS                          1282000200007 
ENDBIB               5          0                                 1282000200008 
NOCOMMON             0          0                                 1282000200009 
DATA                 3        388                                 1282000200010 
EN-MEAN    DATA       ERR-S                                       1282000200011 
KEV        MB         MB                                          1282000200012 
   2.75     3764.3     15.2                                       1282000200013 
   3.00     4018.5     16.0                                       1282000200014 
   3.25     3726.7     15.6                                       1282000200015 
   3.50     3590.1     15.7                                       1282000200016 
   3.75     3419.0     15.6                                       1282000200017 
   4.00     2807.1     14.7                                       1282000200018 
   4.25     3431.3     16.3                                       1282000200019 
   4.50     2575.5     14.5                                       1282000200020 
   4.75     2679.6     15.0                                       1282000200021 
   5.00     2374.2     14.4                                       1282000200022 
   5.25     2595.0     15.2                                       1282000200023 
   5.50     2336.7     14.7                                       1282000200024 
   5.75     2430.0     15.2                                       1282000200025 
   6.00     2273.3     15.5                                       1282000200026 
   6.25     2314.8     15.2                                       1282000200027 
   6.50     2008.3     14.5                                       1282000200028 
   6.75     1963.7     14.6                                       1282000200029 
   7.00     1950.2     14.5                                       1282000200030 
   7.25     1710.6     13.7                                       1282000200031 
   7.50     1984.3     14.6                                       1282000200032 
   7.75     1876.3     14.7                                       1282000200033 
   8.00     1793.3     14.7                                       1282000200034 
   8.25     1752.4     14.5                                       1282000200035 
   8.50     1717.3     14.6                                       1282000200036 
   8.75     1687.4     14.5                                       1282000200037 
   9.00     1726.0     14.7                                       1282000200038 
   9.25     1540.3     14.3                                       1282000200039 
   9.50     1682.4     14.9                                       1282000200040 
   9.75     1585.6     14.5                                       1282000200041 
  10.00     1495.0     14.5                                       1282000200042 
  10.25     1548.8     14.6                                       1282000200043 
  10.50     1262.0     13.3                                       1282000200044 
  10.75     1418.9     14.4                                       1282000200045 
  11.00     1279.8     13.6                                       1282000200046 
  11.25     1263.3     13.6                                       1282000200047 
  11.50     1395.3     14.5                                       1282000200048 
  11.75     1337.3     14.2                                       1282000200049 
  12.00     1294.1     14.4                                       1282000200050 
  12.25     1429.7     14.8                                       1282000200051 
  12.50     1197.8     13.7                                       1282000200052 
  12.75     1212.4     13.8                                       1282000200053 
  13.00     1199.0     13.8                                       1282000200054 
  13.25     1037.7     13.1                                       1282000200055 
  13.50     1076.9     13.5                                       1282000200056 
  13.75     1204.1     14.1                                       1282000200057 
  14.00     1147.6     13.9                                       1282000200058 
  14.25     1108.5     13.9                                       1282000200059 
  14.50     1201.7     14.3                                       1282000200060 
  14.75     1013.9     13.7                                       1282000200061 
  15.00     1147.1     14.1                                       1282000200062 
  15.25      985.4     13.4                                       1282000200063 
  15.50     1134.1     14.3                                       1282000200064 
  15.75      885.1     12.9                                       1282000200065 
  16.00     1079.4     14.0                                       1282000200066 
  16.25      975.0     13.6                                       1282000200067 
  16.50     1066.1     14.1                                       1282000200068 
  16.75     1059.4     14.2                                       1282000200069 
  17.00      956.5     13.6                                       1282000200070 
  17.25      872.4     13.2                                       1282000200071 
  17.50      899.8     13.2                                       1282000200072 
  17.75      951.6     14.0                                       1282000200073 
  18.00      897.3     13.4                                       1282000200074 
  18.25      866.5     13.4                                       1282000200075 
  18.50      920.4     13.8                                       1282000200076 
  18.75      892.8     13.7                                       1282000200077 
  19.00      908.7     13.7                                       1282000200078 
  19.25      961.1     14.0                                       1282000200079 
  19.50      973.7     14.2                                       1282000200080 
  19.75      925.1     14.3                                       1282000200081 
  20.00      896.3     14.0                                       1282000200082 
  20.25      925.1     14.1                                       1282000200083 
  20.50      891.6     14.1                                       1282000200084 
  20.75      920.7     14.5                                       1282000200085 
  21.00      839.7     13.5                                       1282000200086 
  21.25      795.6     13.4                                       1282000200087 
  21.50      851.9     13.9                                       1282000200088 
  21.75      825.5     13.8                                       1282000200089 
  22.00      805.1     13.4                                       1282000200090 
  22.25      841.6     14.0                                       1282000200091 
  22.50      905.6     14.5                                       1282000200092 
  22.75      866.1     14.4                                       1282000200093 
  23.00      781.9     13.7                                       1282000200094 
  23.25      778.3     13.4                                       1282000200095 
  23.50      787.7     13.8                                       1282000200096 
  23.75      730.6     13.4                                       1282000200097 
  24.00      782.5     13.9                                       1282000200098 
  24.25      671.7     13.1                                       1282000200099 
  24.50      761.3     13.5                                       1282000200100 
  24.75      790.4     13.9                                       1282000200101 
  25.00      728.8     13.4                                       1282000200102 
  25.25      705.5     13.4                                       1282000200103 
  25.50      710.6     13.3                                       1282000200104 
  25.75      729.1     13.5                                       1282000200105 
  26.00      768.3     14.0                                       1282000200106 
  26.25      807.4     14.5                                       1282000200107 
  26.50      739.9     14.2                                       1282000200108 
  26.75      651.9     13.4                                       1282000200109 
  27.00      666.7     13.6                                       1282000200110 
  27.25      726.1     14.2                                       1282000200111 
  27.50      676.5     14.1                                       1282000200112 
  27.75      701.4     14.1                                       1282000200113 
  28.00      808.6     15.1                                       1282000200114 
  28.25      718.4     14.0                                       1282000200115 
  28.50      715.0     14.2                                       1282000200116 
  28.75      656.9     13.8                                       1282000200117 
  29.00      636.1     13.6                                       1282000200118 
  29.25      642.2     13.6                                       1282000200119 
  29.50      644.5     13.2                                       1282000200120 
  29.75      654.4     14.1                                       1282000200121 
  30.00      651.5     13.6                                       1282000200122 
  30.25      582.8     13.2                                       1282000200123 
  30.50      667.8     14.5                                       1282000200124 
  30.75      661.8     13.8                                       1282000200125 
  31.00      662.6     14.0                                       1282000200126 
  31.25      609.4     13.8                                       1282000200127 
  31.50      592.3     13.5                                       1282000200128 
  31.75      558.0     13.2                                       1282000200129 
  32.00      560.7     13.0                                       1282000200130 
  32.25      634.7     14.0                                       1282000200131 
  32.50      564.6     13.3                                       1282000200132 
  32.75      632.3     14.0                                       1282000200133 
  33.00      578.3     13.4                                       1282000200134 
  33.25      638.6     14.1                                       1282000200135 
  33.50      591.5     13.5                                       1282000200136 
  33.75      620.5     14.0                                       1282000200137 
  34.00      581.5     13.7                                       1282000200138 
  34.25      622.6     14.2                                       1282000200139 
  34.50      597.0     13.9                                       1282000200140 
  34.75      641.9     14.4                                       1282000200141 
  35.00      640.0     14.2                                       1282000200142 
  35.25      612.0     14.4                                       1282000200143 
  35.50      597.9     14.0                                       1282000200144 
  35.75      580.4     13.6                                       1282000200145 
  36.00      582.6     13.9                                       1282000200146 
  36.25      568.7     13.7                                       1282000200147 
  36.50      590.6     14.1                                       1282000200148 
  36.75      580.0     14.2                                       1282000200149 
  37.00      581.0     13.8                                       1282000200150 
  37.25      558.3     13.3                                       1282000200151 
  37.50      580.5     14.4                                       1282000200152 
  37.75      561.3     14.0                                       1282000200153 
  38.00      591.5     14.1                                       1282000200154 
  38.25      600.8     14.5                                       1282000200155 
  38.50      567.5     13.9                                       1282000200156 
  38.75      557.3     13.8                                       1282000200157 
  39.00      559.4     13.8                                       1282000200158 
  39.25      561.5     13.6                                       1282000200159 
  39.50      505.6     13.2                                       1282000200160 
  39.75      561.9     13.9                                       1282000200161 
  40.00      526.8     13.6                                       1282000200162 
  40.25      532.1     13.6                                       1282000200163 
  40.50      544.3     14.2                                       1282000200164 
  40.75      559.0     14.2                                       1282000200165 
  41.00      554.7     14.0                                       1282000200166 
  41.25      546.8     13.6                                       1282000200167 
  41.50      576.7     14.6                                       1282000200168 
  41.75      508.8     13.7                                       1282000200169 
  42.00      529.2     14.0                                       1282000200170 
  42.25      518.2     13.8                                       1282000200171 
  42.50      525.5     13.9                                       1282000200172 
  42.75      535.6     13.8                                       1282000200173 
  43.00      531.3     14.1                                       1282000200174 
  43.25      510.0     13.9                                       1282000200175 
  43.50      547.4     14.0                                       1282000200176 
  43.75      536.9     14.4                                       1282000200177 
  44.00      497.3     13.4                                       1282000200178 
  44.25      478.8     13.4                                       1282000200179 
  44.50      475.1     13.7                                       1282000200180 
  44.75      566.6     14.7                                       1282000200181 
  45.00      504.4     14.2                                       1282000200182 
  45.25      524.5     14.5                                       1282000200183 
  45.50      488.7     13.3                                       1282000200184 
  45.75      521.1     14.4                                       1282000200185 
  46.00      476.8     13.8                                       1282000200186 
  46.25      470.6     13.5                                       1282000200187 
  46.50      499.5     13.8                                       1282000200188 
  46.75      461.5     13.3                                       1282000200189 
  47.00      493.0     14.0                                       1282000200190 
  47.25      469.2     13.4                                       1282000200191 
  47.50      496.7     14.0                                       1282000200192 
  47.75      492.2     14.0                                       1282000200193 
  48.00      469.4     13.3                                       1282000200194 
  48.25      515.2     14.3                                       1282000200195 
  48.50      497.4     13.8                                       1282000200196 
  48.75      500.6     13.9                                       1282000200197 
  49.00      474.1     13.5                                       1282000200198 
  49.25      470.4     13.3                                       1282000200199 
  49.50      482.5     13.8                                       1282000200200 
  49.75      450.2     13.3                                       1282000200201 
  50.00      481.5     13.8                                       1282000200202 
  50.25      469.8     14.0                                       1282000200203 
  50.50      494.1     14.3                                       1282000200204 
  50.75      437.6     13.6                                       1282000200205 
  51.00      462.1     14.0                                       1282000200206 
  51.25      463.4     13.8                                       1282000200207 
  51.50      461.2     13.7                                       1282000200208 
  51.75      502.4     14.2                                       1282000200209 
  52.00      465.6     14.1                                       1282000200210 
  52.25      524.7     15.1                                       1282000200211 
  52.50      469.2     14.2                                       1282000200212 
  52.75      419.0     13.1                                       1282000200213 
  53.00      445.4     13.3                                       1282000200214 
  53.25      424.2     13.1                                       1282000200215 
  53.50      493.7     14.3                                       1282000200216 
  53.75      464.8     13.6                                       1282000200217 
  54.00      428.2     13.2                                       1282000200218 
  54.25      417.4     13.5                                       1282000200219 
  54.50      414.7     12.8                                       1282000200220 
  54.75      468.0     13.7                                       1282000200221 
  55.00      418.0     13.3                                       1282000200222 
  55.25      491.5     14.4                                       1282000200223 
  55.50      451.6     13.6                                       1282000200224 
  55.75      428.5     13.4                                       1282000200225 
  56.00      403.7     13.5                                       1282000200226 
  56.25      471.4     13.9                                       1282000200227 
  56.50      424.6     13.8                                       1282000200228 
  56.75      408.2     13.4                                       1282000200229 
  57.00      450.6     14.2                                       1282000200230 
  57.25      415.7     13.3                                       1282000200231 
  57.50      434.9     13.5                                       1282000200232 
  57.75      442.7     13.9                                       1282000200233 
  58.00      420.5     13.6                                       1282000200234 
  58.25      414.5     13.5                                       1282000200235 
  58.50      443.9     14.2                                       1282000200236 
  58.75      432.8     13.2                                       1282000200237 
  59.00      455.1     14.2                                       1282000200238 
  59.25      413.9     13.3                                       1282000200239 
  59.50      406.1     13.6                                       1282000200240 
  59.75      395.1     13.2                                       1282000200241 
  60.00      412.7     13.6                                       1282000200242 
  60.25      418.8     13.3                                       1282000200243 
  60.50      420.5     13.9                                       1282000200244 
  60.75      391.9     12.9                                       1282000200245 
  61.00      438.0     14.1                                       1282000200246 
  61.25      448.2     14.4                                       1282000200247 
  61.50      420.0     13.5                                       1282000200248 
  61.75      400.1     13.3                                       1282000200249 
  62.00      430.7     14.4                                       1282000200250 
  62.25      385.8     12.9                                       1282000200251 
  62.50      393.1     13.4                                       1282000200252 
  62.75      424.4     14.1                                       1282000200253 
  63.00      422.8     14.0                                       1282000200254 
  63.25      416.7     14.1                                       1282000200255 
  63.50      399.7     13.5                                       1282000200256 
  63.75      392.4     13.5                                       1282000200257 
  64.00      395.8     13.7                                       1282000200258 
  64.25      394.9     13.8                                       1282000200259 
  64.50      398.3     13.5                                       1282000200260 
  64.75      436.4     14.2                                       1282000200261 
  65.00      428.9     14.1                                       1282000200262 
  65.25      404.3     14.0                                       1282000200263 
  65.50      404.2     13.3                                       1282000200264 
  65.75      382.5     12.9                                       1282000200265 
  66.00      399.4     13.8                                       1282000200266 
  66.25      359.2     13.1                                       1282000200267 
  66.50      421.3     14.4                                       1282000200268 
  66.75      371.7     13.1                                       1282000200269 
  67.00      389.7     13.8                                       1282000200270 
  67.25      398.7     13.4                                       1282000200271 
  67.50      393.6     13.4                                       1282000200272 
  67.75      403.5     14.2                                       1282000200273 
  68.00      400.7     13.9                                       1282000200274 
  68.25      397.9     13.9                                       1282000200275 
  68.50      368.1     13.1                                       1282000200276 
  68.75      383.1     13.8                                       1282000200277 
  69.00      386.6     13.6                                       1282000200278 
  69.25      402.6     14.0                                       1282000200279 
  69.50      364.0     13.2                                       1282000200280 
  69.75      391.0     13.7                                       1282000200281 
  70.00      398.2     14.3                                       1282000200282 
  70.25      371.4     13.3                                       1282000200283 
  70.50      363.0     13.3                                       1282000200284 
  70.75      361.3     12.9                                       1282000200285 
  71.00      410.0     13.9                                       1282000200286 
  71.25      404.0     14.1                                       1282000200287 
  71.50      412.4     14.4                                       1282000200288 
  71.75      381.4     13.2                                       1282000200289 
  72.00      397.4     14.1                                       1282000200290 
  72.25      372.3     13.4                                       1282000200291 
  72.50      411.8     14.1                                       1282000200292 
  72.75      363.9     13.5                                       1282000200293 
  73.00      381.3     13.8                                       1282000200294 
  73.25      374.0     13.4                                       1282000200295 
  73.50      378.8     13.9                                       1282000200296 
  73.75      403.8     14.2                                       1282000200297 
  74.00      380.9     14.3                                       1282000200298 
  74.25      367.8     14.0                                       1282000200299 
  74.50      362.3     13.4                                       1282000200300 
  74.75      374.2     14.2                                       1282000200301 
  75.00      401.0     14.2                                       1282000200302 
  75.25      405.4     14.5                                       1282000200303 
  75.50      391.0     14.3                                       1282000200304 
  75.75      366.9     13.3                                       1282000200305 
  76.00      393.4     14.2                                       1282000200306 
  76.25      371.7     14.2                                       1282000200307 
  76.50      386.6     13.7                                       1282000200308 
  76.75      379.3     14.2                                       1282000200309 
  77.00      382.9     14.1                                       1282000200310 
  77.25      332.4     12.8                                       1282000200311 
  77.50      393.2     14.7                                       1282000200312 
  77.75      368.0     13.8                                       1282000200313 
  78.00      388.0     14.6                                       1282000200314 
  78.25      360.3     14.0                                       1282000200315 
  78.50      371.2     13.9                                       1282000200316 
  78.75      373.0     14.1                                       1282000200317 
  79.00      362.9     14.6                                       1282000200318 
  79.25      369.2     13.9                                       1282000200319 
  79.50      379.6     14.5                                       1282000200320 
  79.75      349.1     14.0                                       1282000200321 
  80.00      347.0     13.8                                       1282000200322 
  80.25      342.0     13.7                                       1282000200323 
  80.50      334.1     13.1                                       1282000200324 
  80.75      354.8     12.9                                       1282000200325 
  81.00      334.4     13.1                                       1282000200326 
  81.25      330.3     12.8                                       1282000200327 
  81.50      369.5     14.0                                       1282000200328 
  81.75      373.7     13.8                                       1282000200329 
  82.00      343.1     13.0                                       1282000200330 
  82.25      352.3     14.0                                       1282000200331 
  82.50      354.7     14.2                                       1282000200332 
  82.75      370.8     14.7                                       1282000200333 
  83.00      344.4     13.9                                       1282000200334 
  83.25      344.5     13.8                                       1282000200335 
  83.50      365.5     13.9                                       1282000200336 
  83.75      384.4     14.4                                       1282000200337 
  84.00      353.2     14.5                                       1282000200338 
  84.25      339.4     13.8                                       1282000200339 
  84.50      368.4     14.1                                       1282000200340 
  84.75      354.2     13.8                                       1282000200341 
  85.00      324.1     13.0                                       1282000200342 
  85.25      352.5     14.1                                       1282000200343 
  85.50      345.0     13.8                                       1282000200344 
  85.75      333.3     13.5                                       1282000200345 
  86.00      330.9     13.9                                       1282000200346 
  86.25      336.9     13.6                                       1282000200347 
  86.50      362.1     14.8                                       1282000200348 
  86.75      351.9     14.4                                       1282000200349 
  87.00      330.2     14.1                                       1282000200350 
  87.25      299.9     13.1                                       1282000200351 
  87.50      333.0     13.7                                       1282000200352 
  87.75      343.2     14.0                                       1282000200353 
  88.00      326.3     13.3                                       1282000200354 
  88.25      363.6     14.2                                       1282000200355 
  88.50      307.0     13.8                                       1282000200356 
  88.75      321.2     13.9                                       1282000200357 
  89.00      343.6     14.1                                       1282000200358 
  89.25      329.4     13.7                                       1282000200359 
  89.50      342.9     14.9                                       1282000200360 
  89.75      349.6     14.6                                       1282000200361 
  90.00      330.8     13.9                                       1282000200362 
  90.25      331.8     13.8                                       1282000200363 
  90.50      333.1     14.9                                       1282000200364 
  90.75      345.7     15.0                                       1282000200365 
  91.00      304.4     13.7                                       1282000200366 
  91.25      325.9     14.5                                       1282000200367 
  91.50      317.4     13.3                                       1282000200368 
  91.75      306.4     13.4                                       1282000200369 
  92.00      359.1     14.8                                       1282000200370 
  92.25      341.5     14.0                                       1282000200371 
  92.50      330.0     14.3                                       1282000200372 
  92.75      325.9     13.9                                       1282000200373 
  93.00      321.1     14.0                                       1282000200374 
  93.25      334.6     14.1                                       1282000200375 
  93.50      302.5     13.1                                       1282000200376 
  93.75      330.8     14.2                                       1282000200377 
  94.00      365.8     15.5                                       1282000200378 
  94.25      339.0     15.0                                       1282000200379 
  94.50      320.0     14.0                                       1282000200380 
  94.75      358.7     15.6                                       1282000200381 
  95.00      328.1     13.9                                       1282000200382 
  95.25      317.9     14.0                                       1282000200383 
  95.50      346.9     14.5                                       1282000200384 
  95.75      331.2     14.8                                       1282000200385 
  96.00      331.2     14.5                                       1282000200386 
  96.25      316.4     14.0                                       1282000200387 
  96.50      298.0     13.0                                       1282000200388 
  96.75      299.7     13.6                                       1282000200389 
  97.00      327.7     14.5                                       1282000200390 
  97.50      337.7     14.7                                       1282000200391 
  97.75      357.3     14.9                                       1282000200392 
  98.00      323.5     14.5                                       1282000200393 
  98.25      328.2     14.8                                       1282000200394 
  98.50      327.1     14.4                                       1282000200395 
  98.75      297.5     13.9                                       1282000200396 
  99.00      319.9     14.1                                       1282000200397 
  99.25      321.7     14.1                                       1282000200398 
  99.50      316.0     14.2                                       1282000200399 
  99.75      328.0     14.5                                       1282000200400 
ENDDATA            390          0                                 1282000200401 
ENDSUBENT          400          0                                 1282000299999 
SUBENT        12820003   19840416                             00001282000300001 
BIB                  4         16                                 1282000300002 
REACTION   (73-TA-181(N,G)73-TA-182,,SIG,,AV)                     1282000300003 
CORRECTION DATA HAVE BEEN CORRECTED FOR RESONANCE SELF-PROTECTION 1282000300004 
ERR-ANALYS (ERR-S) STATISTICAL UNCERTAINTY.  LESS THAN 0.9 PERCENT1282000300005 
             BELOW 700 KEV.                                       1282000300006 
           (ERR-1) NORMALIZATION UNCERTAINTY                      1282000300007 
           (ERR-2) MONITOR EFFICIENCY UNCERTAINTY DUE TO          1282000300008 
             THE SHAPE OF 6-LI(N,ALPHA) CROSS SECTION             1282000300009 
           (ERR-3) MONITOR EFFICIENCY UNCERTAINTY DUE TO CROSS    1282000300010 
             CALIBRATION WITH THE 235-U(N,FISSION) CROSS          1282000300011 
             SECTION                                              1282000300012 
           (ERR-4) UNCERTAINTY DUE TO THE GAMMA-RAY SPECTRUM      1282000300013 
           (+ERR-5) UNCERTAINTY DUE TO POSSIBLE SENSITIVITY OF    1282000300014 
              THE DETECTORS TO INELASTIC GAMMAS                   1282000300015 
           (-ERR-5) UNCERTAINTY DUE TO POSSIBLE SENSITIVITY OF    1282000300016 
              THE DETECTORS TO INELASTIC GAMMAS                   1282000300017 
HISTORY    (830926C)                                              1282000300018 
ENDBIB              16          0                                 1282000300019 
COMMON               1          3                                 1282000300020 
ERR-1                                                             1282000300021 
PER-CENT                                                          1282000300022 
 2.4                                                              1282000300023 
ENDCOMMON            3          0                                 1282000300024 
DATA                 9         22                                 1282000300025 
EN-MIN     EN-MAX     DATA       ERR-S      ERR-2      ERR-3      1282000300026 
ERR-4      +ERR-5     -ERR-5                                      1282000300027 
KEV        KEV        MB         MB         PER-CENT   PER-CENT   1282000300028 
PER-CENT   PER-CENT   PER-CENT                                    1282000300029 
  100.       150.       293.                 2.4        0.8       1282000300030 
                                                                  1282000300031 
  150.       200.       235.                 2.4        1.3       1282000300032 
                                                                  1282000300033 
  200.       300.       199.                 2.4        1.8       1282000300034 
                                                                  1282000300035 
  300.       400.       168.                 2.4        1.8       1282000300036 
                                                                  1282000300037 
  400.       500.       156.                 2.4        1.9       1282000300038 
                                                                  1282000300039 
  500.       600.       140.                 2.4        1.9       1282000300040 
                                                                  1282000300041 
  600.       700.       125.                 2.4        2.0       1282000300042 
                                                                  1282000300043 
  700.       725.       117.1     1.9        2.4        2.3       1282000300044 
                                                                  1282000300045 
  725.       750.       118.8     1.9        2.4        2.3       1282000300046 
                                                                  1282000300047 
  750.       775.       116.6     2.0        2.4        2.3       1282000300048 
                                                                  1282000300049 
  775.       800.       112.9     1.9        2.4        2.3       1282000300050 
                                                                  1282000300051 
  800.       900.       111.4     1.1        2.4        2.4       1282000300052 
                                                                  1282000300053 
  900.      1000.       105.6     1.2        2.4        2.4       1282000300054 
                                                                  1282000300055 
 1000.      1100.       102.2     1.7        2.4        2.5       1282000300056 
 0.3                                                              1282000300057 
 1100.      1200.        99.1     1.7        2.4        2.5       1282000300058 
 0.6                                                              1282000300059 
 1200.      1300.        96.6     1.8        2.4        2.5       1282000300060 
 0.9                                                              1282000300061 
 1300.      1400.        86.9     2.0        2.4        2.6       1282000300062 
 1.2                                                              1282000300063 
 1400.      1500.        84.0     2.1        2.4        2.6       1282000300064 
 1.5                                                              1282000300065 
 1500.      1600.        83.3     2.4        2.4        2.6       1282000300066 
 1.8                                                              1282000300067 
 1600.      1700.        77.9     2.5        2.4        2.6       1282000300068 
 2.2                                                              1282000300069 
 1700.      1800.        72.3     2.5        2.4        2.7       1282000300070 
 2.6        0.0          2.0                                      1282000300071 
 1800.      1900.        70.6     2.9        2.4        2.7       1282000300072 
 3.0        0.0          2.7                                      1282000300073 
ENDDATA             48          0                                 1282000300074 
ENDSUBENT           73          0                                 1282000399999 
SUBENT        12820004   19840416                             00001282000400001 
BIB                  6         16                                 1282000400002 
REACTION  1(73-TA-181(N,0),,EN)                                   1282000400003 
          2(((73-TA-181(N,EL),,WID,,G)/(73-TA-181(N,G),,WID))/    1282000400004 
           (73-TA-181(N,TOT),,WID))                               1282000400005 
          3(73-TA-181(N,EL),,WID,,G)                              1282000400006 
          4(73-TA-181(N,G),,WID)                                  1282000400007 
ANALYSIS   (MLA)                                                  1282000400008 
ASSUMED    (ASSUM1,73-TA-181(N,EL),,WID,,G) TAKEN FROM TSUBONE,   1282000400009 
            ET AL., NUC.SCI.TECH.20,707(1983).                    1282000400010 
           (ASSUM2,73-TA-181(N,G),,WID)                           1282000400011 
ERR-ANALYS (ERR-S) STATISTICAL UNCERTAINTY                        1282000400012 
             RESONANCE ENERGIES HAVE A ESTIMATED UNCERTAINTY OF   1282000400013 
               0.07 PERCENT FOR WELL DEFINED PEAKS.               1282000400014 
             SYSTEMATIC UNCERTAINTY IN G*GAMMA N*GAMMA G/         1282000400015 
               GAMMA T ESTIMATED AT 2.5 PERCENT.                  1282000400016 
FLAG       (1.) POSSIBLE DOUBLE OR MULTIPLET                      1282000400017 
HISTORY    (830926C)                                              1282000400018 
ENDBIB              16          0                                 1282000400019 
NOCOMMON             0          0                                 1282000400020 
DATA                10        189                                 1282000400021 
DATA      1DATA      2ERR-S     2DATA      3ERR-S     3ASSUM1     1282000400022 
DATA      4ERR-S     4ASSUM2     FLAG                             1282000400023 
EV         MILLI-EV   MILLI-EV   MILLI-EV   MILLI-EV   MILLI-EV   1282000400024 
MILLI-EV   MILLI-EV   MILLI-EV   NO-DIM                           1282000400025 
 2626.2     17.6       1.2         27.8       2.9                 1282000400026 
                        95.                                       1282000400027 
 2630.2      5.7       1.1          6.6       1.5                 1282000400028 
                        90.                                       1282000400029 
 2634.1     11.0       1.1         14.5       2.0                 1282000400030 
                        90.                                       1282000400031 
 2639.5     13.2       1.3         18.6       2.6                 1282000400032 
                        90.                                       1282000400033 
 2640.9     15.5       1.3         23.5       2.6                 1282000400034 
                        90.                                       1282000400035 
 2646.8     21.7       1.3                               34.8     1282000400036 
 113.5      17.8                                                  1282000400037 
 2653.8      8.6       0.9         10.6       1.3                 1282000400038 
                        90.                                       1282000400039 
 2659.5      8.4       1.8         10.3       2.6                 1282000400040 
                        90.                                       1282000400041 
 2662.1     17.3       1.8         27.8       4.9                 1282000400042 
                        90.                                       1282000400043 
 2666.2      8.6       1.0         10.7       1.5                 1282000400044 
                        90.                                       1282000400045 
 2672.4      5.8       0.9          6.6       1.1                 1282000400046 
                        90.                                       1282000400047 
 2676.5      5.7       1.1          6.5       1.4                 1282000400048 
                        90.                                       1282000400049 
 2680.7      6.8       2.4          8.0       3.3                 1282000400050 
                        90.                                       1282000400051 
 2683.0     20.7       2.3         38.0       7.8                 1282000400052 
                        90.                                       1282000400053 
 2697.1     26.4       1.2         62.3       7.0                 1282000400054 
                        90.       1.0                             1282000400055 
 2705.6     23.5       1.2                               41.3     1282000400056 
 107.6      12.7                                                  1282000400057 
 2716.2     31.0       0.8         95.8       7.8                 1282000400058 
                        90.                                       1282000400059 
 2721.8     17.3       0.8         27.8       2.0                 1282000400060 
                        90.                                       1282000400061 
 2726.1     13.6       1.3         19.4       2.5                 1282000400062 
                        90.                                       1282000400063 
 2728.4     13.2       1.4         18.6       2.7                 1282000400064 
                        90.                                       1282000400065 
 2732.3     27.2       1.0                               94.5     1282000400066 
  75.4       3.8                                                  1282000400067 
 2738.6      8.5       0.5         10.5       0.8                 1282000400068 
                        90.                                       1282000400069 
 2747.2      8.5       0.5         10.5       0.7                 1282000400070 
                        90.                                       1282000400071 
 2762.6     26.9       1.0                              176.4     1282000400072 
  62.6       2.6                                                  1282000400073 
 2766.7     24.2       1.1                              118.4     1282000400074 
  59.9       3.4                                                  1282000400075 
 2774.3      9.7       0.5         12.3       0.8                 1282000400076 
                        90.                                       1282000400077 
 2787.0     32.9       0.2        117.0       2.4                 1282000400078 
                        90.       1.0                             1282000400079 
 2798.4      6.8       0.8          7.9       1.1                 1282000400080 
                        90.                                       1282000400081 
 2802.2     20.2       0.8                               41.6     1282000400082 
  77.3       5.8                                                  1282000400083 
 2812.4     12.3       0.7         16.9       1.3                 1282000400084 
                        90.                                       1282000400085 
 2817.3     19.6       1.0                               48.3     1282000400086 
  65.1       5.4                                                  1282000400087 
 2822.2     20.6       0.8                              101.1     1282000400088 
  51.0       2.5                                                  1282000400089 
 2830.4     18.8       1.2         31.9       3.4                 1282000400090 
                        90.                                       1282000400091 
 2839.9     18.3       3.2         30.4       8.9                 1282000400092 
                        90.                                       1282000400093 
 2841.4      7.7       2.6          9.2       3.7                 1282000400094 
                        90.                                       1282000400095 
 2849.8      4.8       0.9          5.4       1.1                 1282000400096 
                        90.                                       1282000400097 
 2857.3     21.2       1.2         39.4       4.3                 1282000400098 
                        90.                                       1282000400099 
 2866.0     44.0       1.6                               79.6     1282000400100 
 193.2      16.1                  1.0                             1282000400101 
 2876.6     13.4       1.1         19.0       2.1                 1282000400102 
                        90.                                       1282000400103 
 2884.9     14.2       1.5         20.6       3.1                 1282000400104 
                        90.                                       1282000400105 
 2889.6     14.4       1.6         21.1       3.4                 1282000400106 
                        90.                                       1282000400107 
 2893.2      9.1       1.4         11.3       2.2                 1282000400108 
                        90.                                       1282000400109 
 2898.4     14.4       1.2         20.9       2.5                 1282000400110 
                        90.                                       1282000400111 
 2913.8     36.3       1.6                              233.3     1282000400112 
  84.5       4.5                                                  1282000400113 
 2929.6     19.0       1.2                               42.3     1282000400114 
  68.1       8.1                                                  1282000400115 
 2938.0     32.3       1.9                               48.2     1282000400116 
 192.8      35.2                  1.0                             1282000400117 
 2942.3     22.2       2.2                               73.6     1282000400118 
  62.8       8.9                                                  1282000400119 
 2950.4     21.6       1.3         41.1       4.5                 1282000400120 
                        90.       1.0                             1282000400121 
 2970.1     20.1       1.0         35.7       3.3                 1282000400122 
                        90.                                       1282000400123 
 2982.0     21.9       1.2         42.1       4.3                 1282000400124 
                        90.                                       1282000400125 
 2993.3     35.5       1.6                              102.1     1282000400126 
 107.2       7.2                                                  1282000400127 
 3001.0     33.7       2.8                               55.7     1282000400128 
 167.7      35.7                  1.0                             1282000400129 
 3004.6     32.4       2.4                               92.7     1282000400130 
  98.2      10.9                                                  1282000400131 
 3011.8     26.6       3.2                               93.0     1282000400132 
  73.3      12.5                                                  1282000400133 
 3014.7     16.5       3.1         25.9       7.7                 1282000400134 
                        90.                                       1282000400135 
 3017.8     15.6       2.4         23.6       5.4                 1282000400136 
                        90.                                       1282000400137 
 3026.7     20.1       1.4         35.8       4.3                 1282000400138 
                        90.                                       1282000400139 
 3030.9     10.8       1.2         14.2       3.2                 1282000400140 
                        90.                                       1282000400141 
 3032.6     18.1       1.7         30.1       4.6                 1282000400142 
                        90.                                       1282000400143 
 3043.4     26.4       1.3         62.4       7.3                 1282000400144 
                        90.                                       1282000400145 
 3055.2     37.6       0.3        212.4       8.9                 1282000400146 
                        90.       1.0                             1282000400147 
 3061.6     17.1       1.3         27.4       3.4                 1282000400148 
                        90.                                       1282000400149 
 3070.4     15.8       1.1         24.2       2.6                 1282000400150 
                        90.                                       1282000400151 
 3079.8     29.5       1.5                              122.4     1282000400152 
  76.5       5.1                                                  1282000400153 
 3086.2     19.5       0.7                               65.9     1282000400154 
  54.3       2.9                                                  1282000400155 
 3090.7     13.4       1.1         19.0       2.2                 1282000400156 
                        90.                                       1282000400157 
 3094.3     18.1       0.9         30.0       2.5                 1282000400158 
                        90.                                       1282000400159 
 3099.6     21.1       1.0         39.1       3.3                 1282000400160 
                        90.                                       1282000400161 
 3103.7     14.8       1.0                               39.5     1282000400162 
  46.7       5.0                                                  1282000400163 
 3107.4     25.8       1.0                              130.1     1282000400164 
  63.3       3.2                                                  1282000400165 
 3112.4     15.5       1.2         23.5       2.7                 1282000400166 
                        90.                                       1282000400167 
 3114.9      8.1       1.2          9.9       1.8                 1282000400168 
                        90.                                       1282000400169 
 3119.3     19.3       0.7         33.5       2.1                 1282000400170 
                        90.                                       1282000400171 
 3126.5      8.1       0.4          9.9       0.6                 1282000400172 
                        90.                                       1282000400173 
 3134.6     27.7       0.9                               50.5     1282000400174 
 121.2       8.4                  1.0                             1282000400175 
 3138.8     10.6       0.7         13.8       1.2                 1282000400176 
                        90.                                       1282000400177 
 3144.4     30.0       1.1                              324.8     1282000400178 
                                                                  1282000400179 
 3149.4     27.3       0.9         67.6       5.3                 1282000400180 
                        90.                                       1282000400181 
 3153.5      8.5       0.7         10.5       1.0                 1282000400182 
                        90.                                       1282000400183 
 3160.1     22.4       0.6         43.9       2.2                 1282000400184 
                        90.                                       1282000400185 
 3169.2     11.2       0.7         14.8       1.3                 1282000400186 
                        90.                                       1282000400187 
 3173.8     11.4       0.8         15.1       1.4                 1282000400188 
                        90.                                       1282000400189 
 3179.1     26.1       0.8         60.8       4.4                 1282000400190 
                        90.                                       1282000400191 
 3186.1     22.9       1.9                               49.1     1282000400192 
  84.5      13.5                                                  1282000400193 
 3187.9     13.8       2.2         19.7       4.6                 1282000400194 
                        90.                                       1282000400195 
 3195.6     12.7       0.5         17.5       1.0                 1282000400196 
                        90.                                       1282000400197 
 3202.1      9.3       0.5         11.6       0.8                 1282000400198 
                        90.                                       1282000400199 
 3211.9      7.0       0.6          8.3       0.9                 1282000400200 
                        90.                                       1282000400201 
 3215.8      5.9       0.6          6.7       0.9                 1282000400202 
                        90.                                       1282000400203 
 3222.1     15.2       0.6         22.7       1.3                 1282000400204 
                        90.                                       1282000400205 
 3231.8     30.6       1.1                               58.5     1282000400206 
 126.4       9.4                                                  1282000400207 
 3235.3     10.1       1.1         13.0       1.9                 1282000400208 
                        90.                                       1282000400209 
 3246.7     22.4       1.2         44.0       4.5                 1282000400210 
                        90.                                       1282000400211 
 3250.4     21.4       1.0                               75.4     1282000400212 
  58.7       4.0                                                  1282000400213 
 3257.7     17.0       1.0         26.9       2.5                 1282000400214 
                        90.                                       1282000400215 
 3262.0     14.3       0.8         20.8       1.6                 1282000400216 
                        90.                                       1282000400217 
 3268.0     38.9       0.8                              111.2     1282000400218 
 117.6       3.7                                                  1282000400219 
 3276.4     26.9       0.6                               71.8     1282000400220 
  84.5       3.3                                                  1282000400221 
 3286.7     33.2       0.9                               45.4     1282000400222 
 244.3      24.7                  1.0                             1282000400223 
 3290.7     16.0       0.9         24.5       2.1                 1282000400224 
                        90.                                       1282000400225 
 3296.3     20.3       0.7         36.5       2.2                 1282000400226 
                        90.                                       1282000400227 
 3306.1     14.0       0.5         20.1       1.0                 1282000400228 
                        90.                                       1282000400229 
 3318.6     18.4       1.0                               58.5     1282000400230 
  52.8       4.1                                                  1282000400231 
 3322.5     15.1       0.8         22.5       1.7                 1282000400232 
                        90.                                       1282000400233 
 3328.5     19.4       0.6         33.7       1.9                 1282000400234 
                        90.                                       1282000400235 
 3341.4     12.9       0.8         18.0       1.5                 1282000400236 
                        90.                                       1282000400237 
 3346.9     27.2       0.9                               41.4     1282000400238 
 155.6      15.5                  1.0                             1282000400239 
 3352.6     30.6       1.3                               53.9     1282000400240 
 139.4      13.6                                                  1282000400241 
 3356.0     24.9       1.4                               42.0     1282000400242 
 120.3      16.3                                                  1282000400243 
 3362.4     26.5       0.8                               40.2     1282000400244 
 152.6      13.3                                                  1282000400245 
 3369.9     23.7       0.7                               90.7     1282000400246 
  63.2       2.6                                                  1282000400247 
 3377.2     20.1       0.6         36.0       2.0                 1282000400248 
                        90.                                       1282000400249 
 3386.0     13.4       0.8         19.0       1.5                 1282000400250 
                        90.                                       1282000400251 
 3389.6     12.1       0.8         16.5       1.5                 1282000400252 
                        90.                                       1282000400253 
 3399.8     43.2       1.1                              103.0     1282000400254 
 146.3       6.2                                                  1282000400255 
 3405.3     29.1       1.1                               99.4     1282000400256 
  80.9       4.4                                                  1282000400257 
 3415.7     36.9       0.8                               88.4     1282000400258 
 124.5       4.9                                                  1282000400259 
 3422.6      5.5       0.7          6.3       0.9                 1282000400260 
                                                                  1282000400261 
 3428.9     41.2       0.9                              177.2     1282000400262 
 105.6       3.1                                                  1282000400263 
 3441.2     41.7       2.1                               71.4     1282000400264 
 197.1      23.5                  1.0                             1282000400265 
 3442.8     16.8       2.2                               56.2     1282000400266 
  47.2       9.0                                                  1282000400267 
 3451.0      1.6       0.4          1.6       0.4                 1282000400268 
                        90.                                       1282000400269 
 3458.1     23.9       0.8         50.1       3.5                 1282000400270 
                        90.                                       1282000400271 
 3462.5      6.6       0.9          7.7       1.2                 1282000400272 
                        90.                                       1282000400273 
 3468.4     23.3       0.7                               56.3     1282000400274 
  78.2       3.9                                                  1282000400275 
 3477.1     21.1       0.6         39.2       2.0                 1282000400276 
                        90.                                       1282000400277 
 3487.4     27.4       1.5                               54.2     1282000400278 
 108.9      11.9                                                  1282000400279 
 3490.8     22.6       1.1         44.8       4.4                 1282000400280 
                        90.                                       1282000400281 
 3495.5      5.6       0.5          6.4       0.7                 1282000400282 
                        90.                                       1282000400283 
 3507.2     21.3       0.6         39.8       2.0                 1282000400284 
                        90.                                       1282000400285 
 3517.3     24.9       1.0                              119.5     1282000400286 
  61.9       3.2                                                  1282000400287 
 3522.0     16.7       1.3         26.3       3.3                 1282000400288 
                        90.                                       1282000400289 
 3525.1     19.5       1.3         34.0       3.9                 1282000400290 
                        90.                                       1282000400291 
 3534.1     22.5       0.6         44.2       2.3                 1282000400292 
                        90.                                       1282000400293 
 3548.6     44.4       0.9                              112.0     1282000400294 
 145.0       5.1                  1.0                             1282000400295 
 3556.3     14.6       0.7         21.5       1.6                 1282000400296 
                        90.                                       1282000400297 
 3564.8     29.6       0.8         83.6       6.4                 1282000400298 
                        90.                                       1282000400299 
 3573.4      7.4       0.5          8.8       0.7                 1282000400300 
                        90.                                       1282000400301 
 3584.0     39.6       1.0                               95.0     1282000400302 
 133.7       5.5                                                  1282000400303 
 3591.4     27.7       0.9         70.0       5.5                 1282000400304 
                        90.                                       1282000400305 
 3598.9     31.0       0.9         96.2       8.3                 1282000400306 
                        90.                                       1282000400307 
 3610.1     18.1       0.7                               41.9     1282000400308 
  63.0       4.3                                                  1282000400309 
 3618.1     36.0       1.6                              126.6     1282000400310 
  98.9       6.0                                                  1282000400311 
 3621.9     19.8       1.4         34.9       4.5                 1282000400312 
                        90.                                       1282000400313 
 3627.7     30.5       1.2                               49.5     1282000400314 
 156.9      15.7                  1.0                             1282000400315 
 3632.3     10.7       1.0         14.0       1.7                 1282000400316 
                        90.                                       1282000400317 
 3639.2      2.8       0.7          3.0       0.8                 1282000400318 
                        90.                                       1282000400319 
 3645.4     20.2       0.7         36.3       2.4                 1282000400320 
                        90.                                       1282000400321 
 3654.5     17.3       0.6         28.0       1.4                 1282000400322 
                        90.                                       1282000400323 
 3659.0      7.4       0.6          8.8       0.8                 1282000400324 
                        90.                                       1282000400325 
 3665.6     25.1       0.8         55.4       3.8                 1282000400326 
                        90.                                       1282000400327 
 3670.2     24.2       0.7         51.2       3.2                 1282000400328 
                        90.                                       1282000400329 
 3681.9     39.4       0.8                              166.1     1282000400330 
 101.7       2.8                                                  1282000400331 
 3686.2     18.1       0.7         30.0       2.0                 1282000400332 
                        90.                                       1282000400333 
 3692.8     29.7       0.6                              121.4     1282000400334 
  77.3       2.2                                                  1282000400335 
 3699.1     13.5       0.7         19.2       1.3                 1282000400336 
                        90.                                       1282000400337 
 3706.9     35.2       0.9        153.0      18.0                 1282000400338 
                        90.       1.0                             1282000400339 
 3710.6     21.4       0.9         40.3       3.3                 1282000400340 
                        90.                                       1282000400341 
 3736.2     65.5       1.8        300.                            1282000400342 
 165.1       5.7                  1.0                             1282000400343 
 3746.4     34.8       1.6        300.                            1282000400344 
  77.5       4.0                                                  1282000400345 
 3752.7     25.1       1.5         55.8       7.2                 1282000400346 
                        90.                                       1282000400347 
 3763.9     16.0       1.3         24.5       3.2                 1282000400348 
                        90.                                       1282000400349 
 3769.3     19.2       1.3         33.1       3.8                 1282000400350 
                        90.       1.0                             1282000400351 
 3784.0     31.1       2.5        300.                            1282000400352 
  68.2       6.2                                                  1282000400353 
 3789.5     51.0       2.2        300.                            1282000400354 
 121.0       6.4                                                  1282000400355 
 3796.0     15.9       1.5         24.4       3.5                 1282000400356 
                        90.                                       1282000400357 
 3803.8     46.0       1.6        300.                            1282000400358 
 107.0       4.4                  1.0                             1282000400359 
 3815.6     12.8       0.9         17.8       1.8                 1282000400360 
                        90.                                       1282000400361 
 3826.1     41.0       1.5        300.                            1282000400362 
  93.4       3.9                                                  1282000400363 
 3836.8     20.3       1.2         36.6       3.9                 1282000400364 
                        90.       1.0                             1282000400365 
 3845.0     36.9       1.9        300.                            1282000400366 
  82.9       4.7                                                  1282000400367 
 3851.7     47.1       1.8        300.                            1282000400368 
 110.0       5.1                                                  1282000400369 
 3861.7     18.4       1.1         30.7       3.1                 1282000400370 
                        90.                                       1282000400371 
 3869.4     12.6       1.1         17.4       2.1                 1282000400372 
                        90.                                       1282000400373 
 3881.7      8.3       0.6         10.1       0.9                 1282000400374 
                        90.                                       1282000400375 
 3889.5     23.2       0.7         47.1       2.7                 1282000400376 
                        90.                                       1282000400377 
 3902.9     26.4       0.9         62.3       4.9                 1282000400378 
                        90.                                       1282000400379 
 3909.9     40.2       1.1        300.                            1282000400380 
  91.5        3.0                                                 1282000400381 
 3915.2     16.4       1.1         25.5       2.6                 1282000400382 
                        90.                                       1282000400383 
 3930.6     34.8       0.9        300.                            1282000400384 
  77.5       2.3                                                  1282000400385 
 3937.0      8.7       0.7         10.7       1.1                 1282000400386 
                        90.                                       1282000400387 
 3944.2     23.7       1.2         49.2       5.0                 1282000400388 
                        90.                                       1282000400389 
 3949.0     15.8       0.9         24.1       2.1                 1282000400390 
                        90.                                       1282000400391 
 3961.4     17.6       0.9         28.5       2.4                 1282000400392 
                        90.                                       1282000400393 
 3967.0     31.6       1.1        300.                            1282000400394 
  69.5       2.6                                                  1282000400395 
 3973.6     16.8       0.8         26.5       2.0                 1282000400396 
                        90.                                       1282000400397 
 3986.8     28.1       1.4         72.9       9.4                 1282000400398 
                        90.                                       1282000400399 
 3991.0     11.3       2.0         14.9       3.5                 1282000400400 
                        90.                                       1282000400401 
 3995.0     26.6       1.4         63.3       8.0                 1282000400402 
                        90.                                       1282000400403 
ENDDATA            382          0                                 1282000400404 
ENDSUBENT          403          0                                 1282000499999 
ENDENTRY             4          0                                 1282099999999 
