ENTRY            12869   20091005                             13571286900000001 
SUBENT        12869001   20091005                             13571286900100001 
BIB                  8         14                                 1286900100002 
INSTITUTE  (1USAANL)                                              1286900100003 
REFERENCE  (J,NP/A,448,280,198601)                                1286900100004 
AUTHOR     (P.Guenther,D.L.Smith,A.B.Smith,J.F.Whalen)            1286900100005 
TITLE      Total, elastic and gamma-production cross sections for 1286900100006 
            few-MeV neutrons on elemental copper.                 1286900100007 
FACILITY   (DYNAM,1USAANL)                                        1286900100008 
INC-SOURCE (P-LI7)                                                1286900100009 
STATUS     (TABLE) Data received in private comm., 1985/9/23.     1286900100010 
           (APRVD) P.T.Guenther, 1986/3/18.                       1286900100011 
HISTORY    (19851004C)                                            1286900100012 
           (19860324A) Reference update, miscellaneous corrections1286900100013 
           (20091212A) VM:Updated to new date formats,lower case. 1286900100014 
                       BIB section updated. Corrections to data   1286900100015 
                       sets 4, 8, 9.                              1286900100016 
ENDBIB              14          0                                 1286900100017 
NOCOMMON             0          0                                 1286900100018 
ENDSUBENT           17          0                                 1286900199999 
SUBENT        12869002   20091212                             13571286900200001 
BIB                  6          9                                 1286900200002 
REACTION   (29-CU-0(N,TOT),,SIG,,AV)                              1286900200003 
SAMPLE     Metallic copper cylinder, 2.5 cm diameter and 1.25     1286900200004 
            cm long.                                              1286900200005 
INC-SPECT  Beam resolution between 50 and 100 keV.                1286900200006 
           Energy resolution given is averaging interval.         1286900200007 
CORRECTION Data were corrected for dead-time                      1286900200008 
ANALYSIS   Data were averaged over 200 keV intervals              1286900200009 
ERR-ANALYS (ERR-S) Statistical uncertainty.                       1286900200010 
           (EN-ERR) Energy uncertainty.                           1286900200011 
ENDBIB               9          0                                 1286900200012 
COMMON               2          3                                 1286900200013 
EN-ERR     EN-RSL                                                 1286900200014 
KEV        KEV                                                    1286900200015 
 10.       200.                                                   1286900200016 
ENDCOMMON            3          0                                 1286900200017 
DATA                 3         34                                 1286900200018 
EN-MEAN    DATA       ERR-S                                       1286900200019 
MEV        B          B                                           1286900200020 
    1.20000    3.21314     .02054                                 1286900200021 
    1.30000    3.17582     .02087                                 1286900200022 
    1.40000    3.13515     .02140                                 1286900200023 
    1.50000    3.10086     .02165                                 1286900200024 
    1.60000    3.08388     .02215                                 1286900200025 
    1.70000    3.07711     .02293                                 1286900200026 
    1.80000    3.07568     .02347                                 1286900200027 
    1.90000    3.07570     .02419                                 1286900200028 
    2.00000    3.08504     .02473                                 1286900200029 
    2.10000    3.10515     .02517                                 1286900200030 
    2.20000    3.10330     .02567                                 1286900200031 
    2.30000    3.11204     .02575                                 1286900200032 
    2.40000    3.14263     .02595                                 1286900200033 
    2.50000    3.17104     .02566                                 1286900200034 
    2.60000    3.18504     .02536                                 1286900200035 
    2.70000    3.21010     .02449                                 1286900200036 
    2.80000    3.24303     .02365                                 1286900200037 
    2.90000    3.26503     .02267                                 1286900200038 
    3.00000    3.29219     .02173                                 1286900200039 
    3.10000    3.32017     .02088                                 1286900200040 
    3.20000    3.34858     .02013                                 1286900200041 
    3.30000    3.37965     .02026                                 1286900200042 
    3.40000    3.40008     .02065                                 1286900200043 
    3.50000    3.43604     .02121                                 1286900200044 
    3.60000    3.48048     .02201                                 1286900200045 
    3.70000    3.52031     .02318                                 1286900200046 
    3.80000    3.54562     .02418                                 1286900200047 
    3.90000    3.58669     .02538                                 1286900200048 
    4.00000    3.61252     .02655                                 1286900200049 
    4.10000    3.63720     .02800                                 1286900200050 
    4.20000    3.67144     .02905                                 1286900200051 
    4.30000    3.69429     .03031                                 1286900200052 
    4.40000    3.71263     .03068                                 1286900200053 
    4.50000    3.72610     .03098                                 1286900200054 
ENDDATA             36          0                                 1286900200055 
ENDSUBENT           54          0                                 1286900299999 
SUBENT        12869003   20091212                             13571286900300001 
BIB                  8         15                                 1286900300002 
REACTION   (29-CU-0(N,EL)29-CU-0,,DA,,AV)                         1286900300003 
SAMPLE     Metallic copper cylinder, 2.0 Cm diameter and 2.0 Cm   1286900300004 
            long.                                                 1286900300005 
DETECTOR   (SCIN) Proton recoil scintillators                     1286900300006 
MONITOR    (6-C-0(N,TOT),,SIG)                                    1286900300007 
INC-SPECT  Beam resolution between 50 and 100 keV.                1286900300008 
           Energy resolution given is averaging interval.         1286900300009 
CORRECTION Data were corrected for multiple-scattering, beam-     1286900300010 
            attenuation and angular-resolution.                   1286900300011 
ANALYSIS   Data were averaged over 200 keV intervals.             1286900300012 
ERR-ANALYS (ERR-S) Statistical uncertainty.                       1286900300013 
            Total uncertainty estimated at 6% or 2-3 mb/Sr,       1286900300014 
            whichever is greater.                                 1286900300015 
           (EN-ERR) Energy uncertainty                            1286900300016 
           (ANG-ERR) Angular uncertainty                          1286900300017 
ENDBIB              15          0                                 1286900300018 
COMMON               3          3                                 1286900300019 
EN-ERR     EN-RSL     ANG-ERR                                     1286900300020 
KEV        KEV        ADEG                                        1286900300021 
 20.       200.        0.7                                        1286900300022 
ENDCOMMON            3          0                                 1286900300023 
DATA                 4        250                                 1286900300024 
EN-MEAN    ANG        DATA       ERR-S                            1286900300025 
MEV        ADEG       B/SR       B/SR                             1286900300026 
   1.50E+00  2.080E+01  6.008E-01  5.500E-03                      1286900300027 
   1.50E+00  3.070E+01  4.922E-01  4.700E-03                      1286900300028 
   1.50E+00  4.760E+01  2.853E-01  3.534E-03                      1286900300029 
   1.50E+00  6.450E+01  1.502E-01  2.769E-03                      1286900300030 
   1.50E+00  8.050E+01  1.192E-01  1.967E-03                      1286900300031 
   1.50E+00  9.750E+01  1.243E-01  2.034E-03                      1286900300032 
   1.50E+00  1.135E+02  1.326E-01  2.202E-03                      1286900300033 
   1.50E+00  1.304E+02  1.414E-01  2.301E-03                      1286900300034 
   1.50E+00  1.468E+02  1.425E-01  1.934E-03                      1286900300035 
   1.50E+00  1.568E+02  1.520E-01  2.406E-03                      1286900300036 
   1.60E+00  2.080E+01  6.028E-01  5.475E-03                      1286900300037 
   1.60E+00  3.070E+01  4.919E-01  4.675E-03                      1286900300038 
   1.60E+00  4.760E+01  2.749E-01  3.477E-03                      1286900300039 
   1.60E+00  6.450E+01  1.418E-01  2.682E-03                      1286900300040 
   1.60E+00  8.050E+01  1.140E-01  1.927E-03                      1286900300041 
   1.60E+00  9.750E+01  1.232E-01  2.051E-03                      1286900300042 
   1.60E+00  1.135E+02  1.301E-01  2.177E-03                      1286900300043 
   1.60E+00  1.304E+02  1.380E-01  2.277E-03                      1286900300044 
   1.60E+00  1.468E+02  1.381E-01  1.925E-03                      1286900300045 
   1.60E+00  1.568E+02  1.457E-01  2.333E-03                      1286900300046 
   1.70E+00  2.080E+01  6.124E-01  5.450E-03                      1286900300047 
   1.70E+00  3.070E+01  4.908E-01  4.650E-03                      1286900300048 
   1.70E+00  4.760E+01  2.619E-01  3.427E-03                      1286900300049 
   1.70E+00  6.450E+01  1.272E-01  2.532E-03                      1286900300050 
   1.70E+00  8.050E+01  1.056E-01  1.877E-03                      1286900300051 
   1.70E+00  9.750E+01  1.198E-01  2.075E-03                      1286900300052 
   1.70E+00  1.135E+02  1.269E-01  2.152E-03                      1286900300053 
   1.70E+00  1.304E+02  1.307E-01  2.228E-03                      1286900300054 
   1.70E+00  1.468E+02  1.263E-01  1.901E-03                      1286900300055 
   1.70E+00  1.568E+02  1.303E-01  2.180E-03                      1286900300056 
   1.80E+00  2.080E+01  6.223E-01  5.491E-03                      1286900300057 
   1.80E+00  3.070E+01  4.977E-01  4.671E-03                      1286900300058 
   1.80E+00  4.760E+01  2.568E-01  3.386E-03                      1286900300059 
   1.80E+00  6.450E+01  1.189E-01  2.411E-03                      1286900300060 
   1.80E+00  8.050E+01  9.748E-02  1.817E-03                      1286900300061 
   1.80E+00  9.750E+01  1.144E-01  2.056E-03                      1286900300062 
   1.80E+00  1.135E+02  1.220E-01  2.110E-03                      1286900300063 
   1.80E+00  1.304E+02  1.232E-01  2.147E-03                      1286900300064 
   1.80E+00  1.468E+02  1.168E-01  1.861E-03                      1286900300065 
   1.80E+00  1.568E+02  1.204E-01  2.079E-03                      1286900300066 
   1.90E+00  2.080E+01  6.469E-01  5.708E-03                      1286900300067 
   1.90E+00  3.070E+01  5.058E-01  4.835E-03                      1286900300068 
   1.90E+00  4.760E+01  2.449E-01  3.416E-03                      1286900300069 
   1.90E+00  6.450E+01  1.030E-01  2.287E-03                      1286900300070 
   1.90E+00  8.050E+01  8.655E-02  1.770E-03                      1286900300071 
   1.90E+00  9.750E+01  1.114E-01  2.111E-03                      1286900300072 
   1.90E+00  1.135E+02  1.192E-01  2.171E-03                      1286900300073 
   1.90E+00  1.304E+02  1.140E-01  2.126E-03                      1286900300074 
   1.90E+00  1.468E+02  1.048E-01  1.844E-03                      1286900300075 
   1.90E+00  1.568E+02  1.067E-01  2.014E-03                      1286900300076 
   2.00E+00  2.080E+01  6.713E-01  5.888E-03                      1286900300077 
   2.00E+00  3.070E+01  5.102E-01  4.966E-03                      1286900300078 
   2.00E+00  4.760E+01  2.362E-01  3.422E-03                      1286900300079 
   2.00E+00  6.450E+01  9.108E-02  2.182E-03                      1286900300080 
   2.00E+00  8.050E+01  7.864E-02  1.741E-03                      1286900300081 
   2.00E+00  9.750E+01  1.091E-01  2.163E-03                      1286900300082 
   2.00E+00  1.135E+02  1.179E-01  2.223E-03                      1286900300083 
   2.00E+00  1.304E+02  1.061E-01  2.101E-03                      1286900300084 
   2.00E+00  1.468E+02  9.278E-02  1.820E-03                      1286900300085 
   2.00E+00  1.568E+02  9.442E-02  1.961E-03                      1286900300086 
   2.10E+00  2.080E+01  6.865E-01  6.064E-03                      1286900300087 
   2.10E+00  3.070E+01  5.166E-01  5.104E-03                      1286900300088 
   2.10E+00  4.760E+01  2.310E-01  3.462E-03                      1286900300089 
   2.10E+00  6.450E+01  8.300E-02  2.122E-03                      1286900300090 
   2.10E+00  8.050E+01  7.274E-02  1.720E-03                      1286900300091 
   2.10E+00  9.750E+01  1.071E-01  2.204E-03                      1286900300092 
   2.10E+00  1.135E+02  1.163E-01  2.262E-03                      1286900300093 
   2.10E+00  1.304E+02  1.003E-01  2.101E-03                      1286900300094 
   2.10E+00  1.468E+02  8.544E-02  1.820E-03                      1286900300095 
   2.10E+00  1.568E+02  8.488E-02  1.903E-03                      1286900300096 
   2.20E+00  2.080E+01  7.111E-01  6.203E-03                      1286900300097 
   2.20E+00  3.070E+01  5.277E-01  5.202E-03                      1286900300098 
   2.20E+00  4.760E+01  2.266E-01  3.481E-03                      1286900300099 
   2.20E+00  6.450E+01  7.566E-02  2.063E-03                      1286900300100 
   2.20E+00  8.050E+01  6.824E-02  1.683E-03                      1286900300101 
   2.20E+00  9.750E+01  1.059E-01  2.222E-03                      1286900300102 
   2.20E+00  1.135E+02  1.150E-01  2.281E-03                      1286900300103 
   2.20E+00  1.304E+02  9.640E-02  2.101E-03                      1286900300104 
   2.20E+00  1.468E+02  7.942E-02  1.801E-03                      1286900300105 
   2.20E+00  1.568E+02  7.712E-02  1.847E-03                      1286900300106 
   2.30E+00  2.080E+01  7.356E-01  6.301E-03                      1286900300107 
   2.30E+00  3.070E+01  5.389E-01  5.241E-03                      1286900300108 
   2.30E+00  4.760E+01  2.233E-01  3.442E-03                      1286900300109 
   2.30E+00  6.450E+01  7.038E-02  1.984E-03                      1286900300110 
   2.30E+00  8.050E+01  6.468E-02  1.644E-03                      1286900300111 
   2.30E+00  9.750E+01  1.060E-01  2.241E-03                      1286900300112 
   2.30E+00  1.135E+02  1.145E-01  2.262E-03                      1286900300113 
   2.30E+00  1.304E+02  9.216E-02  2.045E-03                      1286900300114 
   2.30E+00  1.468E+02  7.282E-02  1.763E-03                      1286900300115 
   2.30E+00  1.568E+02  7.056E-02  1.767E-03                      1286900300116 
   2.40E+00  2.080E+01  7.520E-01  6.321E-03                      1286900300117 
   2.40E+00  3.070E+01  5.471E-01  5.221E-03                      1286900300118 
   2.40E+00  4.760E+01  2.184E-01  3.381E-03                      1286900300119 
   2.40E+00  6.450E+01  6.438E-02  1.884E-03                      1286900300120 
   2.40E+00  8.050E+01  6.052E-02  1.583E-03                      1286900300121 
   2.40E+00  9.750E+01  1.036E-01  2.202E-03                      1286900300122 
   2.40E+00  1.135E+02  1.118E-01  2.202E-03                      1286900300123 
   2.40E+00  1.304E+02  8.542E-02  1.965E-03                      1286900300124 
   2.40E+00  1.468E+02  6.436E-02  1.684E-03                      1286900300125 
   2.40E+00  1.568E+02  6.324E-02  1.666E-03                      1286900300126 
   2.50E+00  2.080E+01  7.788E-01  6.380E-03                      1286900300127 
   2.50E+00  3.070E+01  5.680E-01  5.260E-03                      1286900300128 
   2.50E+00  4.760E+01  2.197E-01  3.362E-03                      1286900300129 
   2.50E+00  6.450E+01  6.028E-02  1.806E-03                      1286900300130 
   2.50E+00  8.050E+01  5.684E-02  1.523E-03                      1286900300131 
   2.50E+00  9.750E+01  1.015E-01  2.161E-03                      1286900300132 
   2.50E+00  1.135E+02  1.087E-01  2.142E-03                      1286900300133 
   2.50E+00  1.304E+02  8.042E-02  1.886E-03                      1286900300134 
   2.50E+00  1.468E+02  5.874E-02  1.606E-03                      1286900300135 
   2.50E+00  1.568E+02  5.704E-02  1.563E-03                      1286900300136 
   2.60E+00  2.080E+01  8.034E-01  6.322E-03                      1286900300137 
   2.60E+00  3.070E+01  5.771E-01  5.163E-03                      1286900300138 
   2.60E+00  4.760E+01  2.151E-01  3.246E-03                      1286900300139 
   2.60E+00  6.450E+01  5.552E-02  1.689E-03                      1286900300140 
   2.60E+00  8.050E+01  5.436E-02  1.442E-03                      1286900300141 
   2.60E+00  9.750E+01  9.836E-02  2.082E-03                      1286900300142 
   2.60E+00  1.135E+02  1.041E-01  2.045E-03                      1286900300143 
   2.60E+00  1.304E+02  7.466E-02  1.767E-03                      1286900300144 
   2.60E+00  1.468E+02  5.230E-02  1.507E-03                      1286900300145 
   2.60E+00  1.568E+02  5.254E-02  1.485E-03                      1286900300146 
   2.70E+00  2.080E+01  8.222E-01  6.205E-03                      1286900300147 
   2.70E+00  3.070E+01  5.790E-01  5.009E-03                      1286900300148 
   2.70E+00  4.760E+01  2.082E-01  3.089E-03                      1286900300149 
   2.70E+00  6.450E+01  5.006E-02  1.555E-03                      1286900300150 
   2.70E+00  8.050E+01  5.330E-02  1.403E-03                      1286900300151 
   2.70E+00  9.750E+01  9.910E-02  2.025E-03                      1286900300152 
   2.70E+00  1.135E+02  1.026E-01  1.965E-03                      1286900300153 
   2.70E+00  1.304E+02  7.056E-02  1.648E-03                      1286900300154 
   2.70E+00  1.468E+02  4.700E-02  1.391E-03                      1286900300155 
   2.70E+00  1.568E+02  5.004E-02  1.407E-03                      1286900300156 
   2.80E+00  2.080E+01  8.384E-01  5.976E-03                      1286900300157 
   2.80E+00  3.070E+01  5.739E-01  4.971E-03                      1286900300158 
   2.80E+00  4.760E+01  1.943E-01  3.217E-03                      1286900300159 
   2.80E+00  6.450E+01  4.311E-02  2.635E-03                      1286900300160 
   2.80E+00  8.050E+01  5.370E-02  1.610E-03                      1286900300161 
   2.80E+00  9.750E+01  9.828E-02  2.485E-03                      1286900300162 
   2.80E+00  1.135E+02  9.807E-02  1.790E-03                      1286900300163 
   2.80E+00  1.304E+02  6.526E-02  1.606E-03                      1286900300164 
   2.80E+00  1.468E+02  4.158E-02  1.297E-03                      1286900300165 
   2.80E+00  1.568E+02  4.668E-02  1.308E-03                      1286900300166 
   2.90E+00  2.080E+01  8.630E-01  5.857E-03                      1286900300167 
   2.90E+00  3.070E+01  5.831E-01  4.856E-03                      1286900300168 
   2.90E+00  4.760E+01  1.933E-01  3.108E-03                      1286900300169 
   2.90E+00  6.450E+01  3.939E-02  2.574E-03                      1286900300170 
   2.90E+00  8.050E+01  5.204E-02  1.556E-03                      1286900300171 
   2.90E+00  9.750E+01  9.721E-02  2.422E-03                      1286900300172 
   2.90E+00  1.135E+02  9.541E-02  1.701E-03                      1286900300173 
   2.90E+00  1.304E+02  6.322E-02  1.524E-03                      1286900300174 
   2.90E+00  1.468E+02  3.951E-02  1.226E-03                      1286900300175 
   2.90E+00  1.568E+02  4.452E-02  1.208E-03                      1286900300176 
   3.00E+00  2.080E+01  9.073E-01  5.730E-03                      1286900300177 
   3.00E+00  3.070E+01  6.041E-01  4.872E-03                      1286900300178 
   3.00E+00  4.760E+01  1.954E-01  3.279E-03                      1286900300179 
   3.00E+00  6.450E+01  3.574E-02  3.188E-03                      1286900300180 
   3.00E+00  8.050E+01  4.949E-02  1.718E-03                      1286900300181 
   3.00E+00  9.750E+01  9.494E-02  2.759E-03                      1286900300182 
   3.00E+00  1.135E+02  9.258E-02  1.575E-03                      1286900300183 
   3.00E+00  1.304E+02  6.000E-02  1.476E-03                      1286900300184 
   3.00E+00  1.468E+02  3.528E-02  1.171E-03                      1286900300185 
   3.00E+00  1.568E+02  4.188E-02  1.109E-03                      1286900300186 
   3.10E+00  2.080E+01  9.252E-01  5.644E-03                      1286900300187 
   3.10E+00  3.070E+01  6.087E-01  4.779E-03                      1286900300188 
   3.10E+00  4.760E+01  1.915E-01  3.200E-03                      1286900300189 
   3.10E+00  6.450E+01  3.338E-02  3.162E-03                      1286900300190 
   3.10E+00  8.050E+01  4.896E-02  1.689E-03                      1286900300191 
   3.10E+00  9.750E+01  9.414E-02  2.724E-03                      1286900300192 
   3.10E+00  1.135E+02  9.121E-02  1.516E-03                      1286900300193 
   3.10E+00  1.304E+02  5.732E-02  1.414E-03                      1286900300194 
   3.10E+00  1.468E+02  3.375E-02  1.128E-03                      1286900300195 
   3.10E+00  1.568E+02  4.014E-02  1.027E-03                      1286900300196 
   3.20E+00  2.080E+01  9.513E-01  5.613E-03                      1286900300197 
   3.20E+00  3.070E+01  6.244E-01  4.867E-03                      1286900300198 
   3.20E+00  4.760E+01  1.922E-01  3.338E-03                      1286900300199 
   3.20E+00  6.450E+01  3.186E-02  3.555E-03                      1286900300200 
   3.20E+00  8.050E+01  4.678E-02  1.780E-03                      1286900300201 
   3.20E+00  9.750E+01  9.073E-02  2.940E-03                      1286900300202 
   3.20E+00  1.135E+02  8.853E-02  1.428E-03                      1286900300203 
   3.20E+00  1.304E+02  5.337E-02  1.389E-03                      1286900300204 
   3.20E+00  1.468E+02  3.111E-02  1.093E-03                      1286900300205 
   3.20E+00  1.568E+02  3.694E-02  9.455E-04                      1286900300206 
   3.30E+00  2.080E+01  9.953E-01  5.630E-03                      1286900300207 
   3.30E+00  3.070E+01  6.533E-01  4.766E-03                      1286900300208 
   3.30E+00  4.760E+01  1.989E-01  3.154E-03                      1286900300209 
   3.30E+00  6.450E+01  3.063E-02  3.142E-03                      1286900300210 
   3.30E+00  8.050E+01  4.394E-02  1.620E-03                      1286900300211 
   3.30E+00  9.750E+01  8.720E-02  2.665E-03                      1286900300212 
   3.30E+00  1.135E+02  8.669E-02  1.411E-03                      1286900300213 
   3.30E+00  1.304E+02  5.060E-02  1.271E-03                      1286900300214 
   3.30E+00  1.468E+02  2.821E-02  1.006E-03                      1286900300215 
   3.30E+00  1.568E+02  3.474E-02  9.022E-04                      1286900300216 
   3.40E+00  2.080E+01  1.010E+00  5.716E-03                      1286900300217 
   3.40E+00  3.070E+01  6.550E-01  4.937E-03                      1286900300218 
   3.40E+00  4.760E+01  1.900E-01  3.343E-03                      1286900300219 
   3.40E+00  6.450E+01  2.859E-02  3.625E-03                      1286900300220 
   3.40E+00  8.050E+01  4.444E-02  1.747E-03                      1286900300221 
   3.40E+00  9.750E+01  8.579E-02  2.951E-03                      1286900300222 
   3.40E+00  1.135E+02  8.381E-02  1.352E-03                      1286900300223 
   3.40E+00  1.304E+02  4.598E-02  1.289E-03                      1286900300224 
   3.40E+00  1.468E+02  2.603E-02  1.000E-03                      1286900300225 
   3.40E+00  1.568E+02  3.270E-02  8.614E-04                      1286900300226 
   3.50E+00  2.080E+01  1.020E+00  5.807E-03                      1286900300227 
   3.50E+00  3.070E+01  6.547E-01  4.860E-03                      1286900300228 
   3.50E+00  4.760E+01  1.810E-01  3.108E-03                      1286900300229 
   3.50E+00  6.450E+01  2.654E-02  3.207E-03                      1286900300230 
   3.50E+00  8.050E+01  4.457E-02  1.582E-03                      1286900300231 
   3.50E+00  9.750E+01  8.307E-02  2.657E-03                      1286900300232 
   3.50E+00  1.135E+02  8.037E-02  1.341E-03                      1286900300233 
   3.50E+00  1.304E+02  4.196E-02  1.201E-03                      1286900300234 
   3.50E+00  1.468E+02  2.409E-02  9.351E-04                      1286900300235 
   3.50E+00  1.568E+02  3.200E-02  8.614E-04                      1286900300236 
   3.60E+00  2.080E+01  1.065E+00  6.117E-03                      1286900300237 
   3.60E+00  3.070E+01  6.822E-01  5.265E-03                      1286900300238 
   3.60E+00  4.760E+01  1.832E-01  3.494E-03                      1286900300239 
   3.60E+00  6.450E+01  2.608E-02  3.851E-03                      1286900300240 
   3.60E+00  8.050E+01  4.383E-02  1.780E-03                      1286900300241 
   3.60E+00  9.750E+01  8.206E-02  3.091E-03                      1286900300242 
   3.60E+00  1.135E+02  7.837E-02  1.327E-03                      1286900300243 
   3.60E+00  1.304E+02  4.013E-02  1.276E-03                      1286900300244 
   3.60E+00  1.468E+02  2.268E-02  9.630E-04                      1286900300245 
   3.60E+00  1.568E+02  3.120E-02  8.414E-04                      1286900300246 
   3.70E+00  2.080E+01  1.093E+00  6.404E-03                      1286900300247 
   3.70E+00  3.070E+01  6.895E-01  5.331E-03                      1286900300248 
   3.70E+00  4.760E+01  1.758E-01  3.363E-03                      1286900300249 
   3.70E+00  6.450E+01  2.443E-02  3.527E-03                      1286900300250 
   3.70E+00  8.050E+01  4.474E-02  1.690E-03                      1286900300251 
   3.70E+00  9.750E+01  8.052E-02  2.892E-03                      1286900300252 
   3.70E+00  1.135E+02  7.487E-02  1.356E-03                      1286900300253 
   3.70E+00  1.304E+02  3.775E-02  1.244E-03                      1286900300254 
   3.70E+00  1.468E+02  2.130E-02  9.499E-04                      1286900300255 
   3.70E+00  1.568E+02  3.137E-02  8.515E-04                      1286900300256 
   3.80E+00  2.080E+01  1.111E+00  6.656E-03                      1286900300257 
   3.80E+00  3.070E+01  6.911E-01  5.548E-03                      1286900300258 
   3.80E+00  4.760E+01  1.719E-01  3.909E-03                      1286900300259 
   3.80E+00  6.450E+01  2.384E-02  3.713E-03                      1286900300260 
   3.80E+00  8.050E+01  4.418E-02  2.834E-03                      1286900300261 
   3.80E+00  9.750E+01  7.767E-02  2.838E-03                      1286900300262 
   3.80E+00  1.135E+02  7.018E-02  1.402E-03                      1286900300263 
   3.80E+00  1.304E+02  3.523E-02  1.289E-03                      1286900300264 
   3.80E+00  1.468E+02  2.011E-02  9.681E-04                      1286900300265 
   3.80E+00  1.568E+02  3.017E-02  8.789E-04                      1286900300266 
   3.90E+00  2.080E+01  1.152E+00  6.967E-03                      1286900300267 
   3.90E+00  3.070E+01  7.096E-01  5.778E-03                      1286900300268 
   3.90E+00  4.760E+01  1.736E-01  4.242E-03                      1286900300269 
   3.90E+00  6.450E+01  2.392E-02  3.808E-03                      1286900300270 
   3.90E+00  8.050E+01  4.381E-02  3.340E-03                      1286900300271 
   3.90E+00  9.750E+01  7.477E-02  2.818E-03                      1286900300272 
   3.90E+00  1.135E+02  6.684E-02  1.451E-03                      1286900300273 
   3.90E+00  1.304E+02  3.361E-02  1.312E-03                      1286900300274 
   3.90E+00  1.468E+02  1.914E-02  9.842E-04                      1286900300275 
   3.90E+00  1.568E+02  2.945E-02  9.055E-04                      1286900300276 
ENDDATA            252          0                                 1286900300277 
ENDSUBENT          276          0                                 1286900399999 
SUBENT        12869004   20091212                             13571286900400001 
BIB                  9         14                                 1286900400002 
REACTION   (29-CU-0(N,INL)29-CU-0,PAR,SIG,,AV)                    1286900400003 
SAMPLE     Metallic copper cylinder, 2.0 cm diameter and 2.0 cm   1286900400004 
            long.                                                 1286900400005 
DETECTOR   (SCIN) Proton recoil scintillators                     1286900400006 
MONITOR    (6-C-0(N,TOT),,SIG)                                    1286900400007 
INC-SPECT  Beam resolution between 50 and 100 keV                 1286900400008 
           Energy resolution given is averaging interval.         1286900400009 
CORRECTION Data were corrected for multiple-scattering and        1286900400010 
            beam-attenuation.                                     1286900400011 
ANALYSIS   Data were integrated over angle and averaged over      1286900400012 
            200 keV intervals.                                    1286900400013 
ERR-ANALYS (DATA-ERR) Total uncertainty.                          1286900400014 
HISTORY    (20091212A) Reaction product added. Error heading      1286900400015 
                       corrected.                                 1286900400016 
ENDBIB              14          0                                 1286900400017 
COMMON               1          3                                 1286900400018 
EN-RSL                                                            1286900400019 
KEV                                                               1286900400020 
200.                                                              1286900400021 
ENDCOMMON            3          0                                 1286900400022 
DATA                 5        136                                 1286900400023 
E-LVL-MEAN E-LVL-ERR  EN-MEAN    DATA       DATA-ERR              1286900400024 
MEV        MEV        MEV        B          B                     1286900400025 
       0.72        .02    1.90000     .19653     .03931           1286900400026 
       0.72        .02    2.00000     .19170     .03834           1286900400027 
       0.72        .02    2.10000     .19020     .03804           1286900400028 
       0.72        .02    2.20000     .18122     .03624           1286900400029 
       0.72        .02    2.30000     .17548     .03510           1286900400030 
       0.72        .02    2.40000     .16154     .03231           1286900400031 
       0.72        .02    2.50000     .15248     .03050           1286900400032 
       0.72        .02    2.60000     .14114     .02823           1286900400033 
       0.72        .02    2.70000     .13146     .02629           1286900400034 
       0.72        .02    2.80000     .12370     .02474           1286900400035 
       0.72        .02    2.90000     .11690     .02338           1286900400036 
       0.72        .02    3.00000     .10934     .02187           1286900400037 
       0.72        .02    3.10000     .10305     .02061           1286900400038 
       0.72        .02    3.20000     .09726     .01945           1286900400039 
       0.72        .02    3.30000     .09128     .01826           1286900400040 
       0.72        .02    3.40000     .08607     .01721           1286900400041 
       0.72        .02    3.50000     .08235     .01647           1286900400042 
       0.72        .02    3.60000     .07802     .01560           1286900400043 
       0.72        .02    3.70000     .07525     .01505           1286900400044 
       0.72        .02    3.80000     .07306     .01461           1286900400045 
       0.72        .02    3.90000     .07033     .01406           1286900400046 
       0.96        .01    2.00000     .22040     .03306           1286900400047 
       0.96        .01    2.10000     .21890     .03284           1286900400048 
       0.96        .01    2.20000     .21250     .03188           1286900400049 
       0.96        .01    2.30000     .21140     .03171           1286900400050 
       0.96        .01    2.40000     .19900     .02985           1286900400051 
       0.96        .01    2.50000     .18990     .02849           1286900400052 
       0.96        .01    2.60000     .17670     .02650           1286900400053 
       0.96        .01    2.70000     .16790     .02519           1286900400054 
       0.96        .01    2.80000     .15340     .02301           1286900400055 
       0.96        .01    2.90000     .14620     .02193           1286900400056 
       0.96        .01    3.00000     .13490     .02024           1286900400057 
       0.96        .01    3.10000     .13040     .01956           1286900400058 
       0.96        .01    3.20000     .12430     .01865           1286900400059 
       0.96        .01    3.30000     .11670     .01751           1286900400060 
       0.96        .01    3.40000     .11000     .01650           1286900400061 
       0.96        .01    3.50000     .10470     .01571           1286900400062 
       0.96        .01    3.60000     .09905     .01486           1286900400063 
       0.96        .01    3.70000     .09391     .01409           1286900400064 
       0.96        .01    3.80000     .08895     .01334           1286900400065 
       0.96        .01    3.90000     .08400     .01260           1286900400066 
       1.15        .01    2.20000     .11040     .01656           1286900400067 
       1.15        .01    2.30000     .11250     .01687           1286900400068 
       1.15        .01    2.40000     .10820     .01623           1286900400069 
       1.15        .01    2.50000     .10540     .01581           1286900400070 
       1.15        .01    2.60000     .10120     .01518           1286900400071 
       1.15        .01    2.70000     .09522     .01428           1286900400072 
       1.15        .01    2.80000     .08664     .01300           1286900400073 
       1.15        .01    2.90000     .08561     .01284           1286900400074 
       1.15        .01    3.00000     .07983     .01197           1286900400075 
       1.15        .01    3.10000     .07821     .01173           1286900400076 
       1.15        .01    3.20000     .07481     .01122           1286900400077 
       1.15        .01    3.30000     .06991     .01049           1286900400078 
       1.15        .01    3.40000     .06702     .01005           1286900400079 
       1.15        .01    3.50000     .06306     .00946           1286900400080 
       1.15        .01    3.60000     .06007     .00901           1286900400081 
       1.15        .01    3.70000     .05701     .00855           1286900400082 
       1.15        .01    3.80000     .05526     .00829           1286900400083 
       1.15        .01    3.90000     .05264     .00789           1286900400084 
       1.37        .01    2.50000     .27440     .04116           1286900400085 
       1.37        .01    2.60000     .26780     .04017           1286900400086 
       1.37        .01    2.70000     .25760     .03864           1286900400087 
       1.37        .01    2.80000     .24410     .03662           1286900400088 
       1.37        .01    2.90000     .23620     .03543           1286900400089 
       1.37        .01    3.00000     .22210     .03332           1286900400090 
       1.37        .01    3.10000     .21460     .03219           1286900400091 
       1.37        .01    3.20000     .20460     .03069           1286900400092 
       1.37        .01    3.30000     .18830     .02825           1286900400093 
       1.37        .01    3.40000     .18130     .02720           1286900400094 
       1.37        .01    3.50000     .17150     .02573           1286900400095 
       1.37        .01    3.60000     .16220     .02433           1286900400096 
       1.37        .01    3.70000     .15440     .02316           1286900400097 
       1.37        .01    3.80000     .14670     .02201           1286900400098 
       1.37        .01    3.90000     .13630     .02044           1286900400099 
       1.63        .01    2.80000     .22620     .03393           1286900400100 
       1.63        .01    2.90000     .22150     .03322           1286900400101 
       1.63        .01    3.00000     .21020     .03153           1286900400102 
       1.63        .01    3.10000     .19980     .02997           1286900400103 
       1.63        .01    3.20000     .18870     .02831           1286900400104 
       1.63        .01    3.30000     .17500     .02625           1286900400105 
       1.63        .01    3.40000     .16350     .02453           1286900400106 
       1.63        .01    3.50000     .15280     .02292           1286900400107 
       1.63        .01    3.60000     .14570     .02185           1286900400108 
       1.63        .01    3.70000     .13710     .02057           1286900400109 
       1.63        .01    3.80000     .13100     .01965           1286900400110 
       1.63        .01    3.90000     .12320     .01849           1286900400111 
       1.88        .01    2.80000     .10100     .03015           1286900400112 
       1.88        .01    2.90000     .09700     .02955           1286900400113 
       1.88        .01    3.00000     .09504     .01426           1286900400114 
       1.88        .01    3.10000     .09126     .01369           1286900400115 
       1.88        .01    3.20000     .08312     .01247           1286900400116 
       1.88        .01    3.30000     .08002     .01200           1286900400117 
       1.88        .01    3.40000     .07784     .01168           1286900400118 
       1.88        .01    3.50000     .07319     .01098           1286900400119 
       1.88        .01    3.60000     .07127     .01069           1286900400120 
       1.88        .01    3.70000     .06868     .01030           1286900400121 
       1.88        .01    3.80000     .06627     .00994           1286900400122 
       1.88        .01    3.90000     .06374     .00956           1286900400123 
       2.07        .01    2.80000     .21800     .04360           1286900400124 
       2.07        .01    2.90000     .21850     .04370           1286900400125 
       2.07        .01    3.00000     .22000     .04400           1286900400126 
       2.07        .01    3.10000     .21860     .04372           1286900400127 
       2.07        .01    3.20000     .21480     .04296           1286900400128 
       2.07        .01    3.30000     .20902     .04180           1286900400129 
       2.07        .01    3.40000     .20682     .04136           1286900400130 
       2.07        .01    3.50000     .20210     .03032           1286900400131 
       2.07        .01    3.60000     .19090     .02864           1286900400132 
       2.07        .01    3.70000     .17840     .02676           1286900400133 
       2.07        .01    3.80000     .16790     .02519           1286900400134 
       2.07        .01    3.90000     .15610     .02341           1286900400135 
       2.22        .01    3.00000     .07753     .01551           1286900400136 
       2.22        .01    3.10000     .07957     .01591           1286900400137 
       2.22        .01    3.20000     .08130     .01626           1286900400138 
       2.22        .01    3.30000     .08148     .01630           1286900400139 
       2.22        .01    3.40000     .08225     .01645           1286900400140 
       2.22        .01    3.50000     .08013     .01603           1286900400141 
       2.22        .01    3.60000     .07839     .01568           1286900400142 
       2.22        .01    3.70000     .07529     .01506           1286900400143 
       2.22        .01    3.80000     .07517     .01503           1286900400144 
       2.22        .01    3.90000     .07306     .01461           1286900400145 
       2.37        .01    3.10000     .14173     .02835           1286900400146 
       2.37        .01    3.20000     .13888     .02778           1286900400147 
       2.37        .01    3.30000     .13906     .02781           1286900400148 
       2.37        .01    3.40000     .13686     .02737           1286900400149 
       2.37        .01    3.50000     .13324     .02665           1286900400150 
       2.37        .01    3.60000     .13156     .02631           1286900400151 
       2.37        .01    3.70000     .13202     .02640           1286900400152 
       2.37        .01    3.80000     .12876     .02575           1286900400153 
       2.37        .01    3.90000     .12740     .02548           1286900400154 
       2.53        .01    3.30000     .20257     .04051           1286900400155 
       2.53        .01    3.40000     .19943     .03989           1286900400156 
       2.53        .01    3.50000     .19948     .03990           1286900400157 
       2.53        .01    3.60000     .19786     .03957           1286900400158 
       2.53        .01    3.70000     .19846     .03969           1286900400159 
       2.53        .01    3.80000     .19626     .03925           1286900400160 
       2.53        .01    3.90000     .19590     .03918           1286900400161 
ENDDATA            138          0                                 1286900400162 
ENDSUBENT          161          0                                 1286900499999 
SUBENT        12869005   20091212                             13571286900500001 
BIB                  8         56                                 1286900500002 
REACTION   (29-CU-0(N,INL)29-CU-0,PAR,SIG,G)                      1286900500003 
SAMPLE     Metallic copper, various sizes and shapes.             1286900500004 
DETECTOR   (IOCH) Low-mass ionization chamber.                    1286900500005 
           (GELI)                                                 1286900500006 
MONITOR    (92-U-235(N,F),,SIG)  ENDF/B-V                         1286900500007 
CORRECTION Data were corrected for:                               1286900500008 
            .neutron multiple scattering,                         1286900500009 
            .geometric and neutron source effects,                1286900500010 
            .gamma-ray detector efficiency,                       1286900500011 
            .neutron and photon absorption,                       1286900500012 
            .miscellaneous fission effects.                       1286900500013 
ANALYSIS   (4PI1A) Measurement at 55 and 125 degrees. These       1286900500014 
            are nodes of the p2-legendre polynomial and           1286900500015 
            distributions are assumed symmetric about 90 degrees. 1286900500016 
ERR-ANALYS (ERR-T) Total uncertainty                              1286900500017 
           Systematic errors common to all cross sections:        1286900500018 
           (ERR-1,,,0.5) neutron multiple scattering,             1286900500019 
           (ERR-2,,,0.5) geometry,                                1286900500020 
           (ERR-3,,,0.5) neutron source,                          1286900500021 
           (ERR-4,,,1.0) standard,                                1286900500022 
           (ERR-5,,,1.0) gamma detector efficiency,               1286900500023 
           (ERR-6,,,0.5) neutron absorption,                      1286900500024 
           (ERR-7,,,1.0) U deposit mass,                          1286900500025 
           (ERR-8,,,0.5) miscellaneous fission corrections,       1286900500026 
           (ERR-9,,,0.5) neutron fluence,                         1286900500027 
           Systematic errors dependent on gamma-ray energy        1286900500028 
            source, absorption and coherent scattering of         1286900500029 
            gamma-rays in the target                              1286900500030 
            Correlation - 100% with the same gamma ray,           1286900500031 
                          50% with another gamma ray              1286900500032 
                  E(gamma) (MeV)      Error (%)                   1286900500033 
                  --------------      ---------                   1286900500034 
                     0.584               6.                       1286900500035 
                     0.609               5.                       1286900500036 
                     0.742               5.                       1286900500037 
                     0.898               5.                       1286900500038 
                     1.048               4.                       1286900500039 
                     1.129               4.                       1286900500040 
                     1.481               3.                       1286900500041 
                     1.546               3.                       1286900500042 
                     1.622               3.                       1286900500043 
                     1.724               3.                       1286900500044 
                     1.859               3.                       1286900500045 
                     2.009               3.                       1286900500046 
                     2.078               3.                       1286900500047 
                     0.365               7.                       1286900500048 
                     0.450               6.                       1286900500049 
                     0.669               5.                       1286900500050 
                     0.770               5.                       1286900500051 
                     0.961               4.                       1286900500052 
                     1.114               4.                       1286900500053 
                     1.326               4.                       1286900500054 
                     1.411               4.                       1286900500055 
HISTORY    (19860324A) BIB update, data correction.               1286900500056 
           (20091005A) Reaction product added.                    1286900500057 
                       Error format updated.                      1286900500058 
ENDBIB              56          0                                 1286900500059 
COMMON               9          6                                 1286900500060 
ERR-1      ERR-2      ERR-3      ERR-4      ERR-5      ERR-6      1286900500061 
ERR-7      ERR-8      ERR-9                                       1286900500062 
PER-CENT   PER-CENT   PER-CENT   PER-CENT   PER-CENT   PER-CENT   1286900500063 
PER-CENT   PER-CENT   PER-CENT                                    1286900500064 
  2.         3.         3.         3.         3.         3.       1286900500065 
  1.         1.         2.                                        1286900500066 
ENDCOMMON            6          0                                 1286900500067 
DATA                 5        327                                 1286900500068 
E          EN         EN-RSL-HW  DATA       ERR-T                 1286900500069 
MEV        MEV        MEV        MB         MB                    1286900500070 
     0.365  1.4080E+00 3.9000E-02 3.1112E+01 6.5336E+00           1286900500071 
     0.365  1.4590E+00 3.9000E-02 4.2011E+01 6.8898E+00           1286900500072 
     0.365  1.5100E+00 3.8500E-02 3.7910E+01 8.6055E+00           1286900500073 
     0.365  1.5130E+00 3.6000E-02 3.9451E+01 6.5883E+00           1286900500074 
     0.365  1.5610E+00 3.8500E-02 4.1294E+01 5.2443E+00           1286900500075 
     0.365  1.6100E+00 3.8000E-02 3.8203E+01 5.3102E+00           1286900500076 
     0.365  1.6610E+00 3.8000E-02 4.5840E+01 6.9218E+00           1286900500077 
     0.365  1.7110E+00 3.8500E-02 3.8020E+01 6.1972E+00           1286900500078 
     0.365  1.7120E+00 3.8000E-02 5.0399E+01 7.8623E+00           1286900500079 
     0.365  1.7580E+00 3.7500E-02 4.1649E+01 7.0386E+00           1286900500080 
     0.365  1.9120E+00 3.7000E-02 4.3511E+01 6.5267E+00           1286900500081 
     0.365  1.9140E+00 3.5000E-02 5.3258E+01 1.1823E+01           1286900500082 
     0.365  1.9630E+00 3.7000E-02 4.4009E+01 7.4376E+00           1286900500083 
     0.365  2.0150E+00 3.7000E-02 3.6385E+01 6.1491E+00           1286900500084 
     0.365  2.0650E+00 3.6500E-02 3.8021E+01 6.1594E+00           1286900500085 
     0.365  2.1130E+00 3.7500E-02 5.0850E+01 5.7460E+00           1286900500086 
     0.365  2.1610E+00 3.7500E-02 3.9502E+01 8.4140E+00           1286900500087 
     0.365  2.1610E+00 3.7500E-02 4.6680E+01 6.9553E+00           1286900500088 
     0.365  2.2140E+00 3.7500E-02 4.8251E+01 7.5271E+00           1286900500089 
     0.365  2.2140E+00 3.7500E-02 4.1906E+01 6.4954E+00           1286900500090 
     0.450  1.4590E+00 3.9000E-02 5.7465E+00 1.3389E+00           1286900500091 
     0.450  1.5100E+00 3.8500E-02 1.4304E+01 2.8037E+00           1286900500092 
     0.450  1.5130E+00 3.6000E-02 1.4179E+01 2.6514E+00           1286900500093 
     0.450  1.5610E+00 3.8500E-02 1.3795E+01 2.1657E+00           1286900500094 
     0.450  1.6100E+00 3.8000E-02 1.4884E+01 2.0689E+00           1286900500095 
     0.450  1.6610E+00 3.8000E-02 1.6032E+01 2.1483E+00           1286900500096 
     0.450  1.7110E+00 3.8500E-02 2.0148E+01 2.5588E+00           1286900500097 
     0.450  1.7120E+00 3.8000E-02 1.6101E+01 2.1576E+00           1286900500098 
     0.450  1.7580E+00 3.7500E-02 2.0317E+01 2.7225E+00           1286900500099 
     0.450  1.9120E+00 3.7000E-02 2.2154E+01 2.8800E+00           1286900500100 
     0.450  1.9140E+00 3.5000E-02 2.4767E+01 3.3930E+00           1286900500101 
     0.450  1.9630E+00 3.7000E-02 2.4506E+01 3.3329E+00           1286900500102 
     0.450  2.0150E+00 3.7000E-02 2.6102E+01 3.3410E+00           1286900500103 
     0.450  2.0650E+00 3.6500E-02 2.3875E+01 3.2232E+00           1286900500104 
     0.450  2.1150E+00 3.7500E-02 2.2638E+01 2.4490E+00           1286900500105 
     0.450  2.1610E+00 3.7500E-02 2.3594E+01 2.7133E+00           1286900500106 
     0.450  2.1610E+00 3.7500E-02 2.6528E+01 3.1833E+00           1286900500107 
     0.450  2.2140E+00 3.7500E-02 1.9531E+01 2.8125E+00           1286900500108 
     0.450  2.2140E+00 3.7500E-02 2.4034E+01 3.2206E+00           1286900500109 
     0.585  1.6100E+00 3.8000E-02 8.0859E+00 2.3045E+00           1286900500110 
     0.585  1.6610E+00 3.8000E-02 9.5973E+00 2.9847E+00           1286900500111 
     0.585  1.7110E+00 3.8500E-02 1.1273E+01 2.0743E+00           1286900500112 
     0.585  1.7120E+00 3.8000E-02 1.3966E+01 2.3742E+00           1286900500113 
     0.585  1.7580E+00 3.7500E-02 8.7001E+00 1.6182E+00           1286900500114 
     0.585  1.9120E+00 3.7000E-02 1.2786E+01 2.3398E+00           1286900500115 
     0.585  1.9140E+00 3.5000E-02 1.8389E+01 3.5674E+00           1286900500116 
     0.585  1.9630E+00 3.7000E-02 1.3764E+01 2.2849E+00           1286900500117 
     0.585  2.0150E+00 3.7000E-02 1.2510E+01 2.5770E+00           1286900500118 
     0.585  2.0650E+00 3.6500E-02 2.0826E+01 4.0402E+00           1286900500119 
     0.585  2.1150E+00 3.7500E-02 1.9783E+01 2.2090E+00           1286900500120 
     0.585  2.1610E+00 3.7500E-02 1.9381E+01 3.0621E+00           1286900500121 
     0.585  2.1610E+00 3.7500E-02 1.8091E+01 2.5690E+00           1286900500122 
     0.585  2.2140E+00 3.7500E-02 1.7214E+01 2.9952E+00           1286900500123 
     0.585  2.2140E+00 3.7500E-02 1.9096E+01 2.5779E+00           1286900500124 
     0.609  1.9120E+00 3.7000E-02 9.0992E+00 2.9754E+00           1286900500125 
     0.609  1.9630E+00 3.7000E-02 7.3754E+00 2.8690E+00           1286900500126 
     0.609  2.0650E+00 3.6500E-02 5.6634E+00 2.4239E+00           1286900500127 
     0.609  2.1150E+00 3.7500E-02 1.0383E+01 1.7850E+00           1286900500128 
     0.609  2.1610E+00 3.7500E-02 9.2344E+00 3.2598E+00           1286900500129 
     0.609  2.2140E+00 3.7500E-02 7.2740E+00 3.1642E+00           1286900500130 
     0.609  2.2140E+00 3.7500E-02 9.5024E+00 3.0788E+00           1286900500131 
     0.670  7.2500E-01 4.6000E-02 2.2140E+01 1.9705E+00           1286900500132 
     0.670  7.5990E-01 4.5000E-02 5.1803E+01 4.5069E+00           1286900500133 
     0.670  8.0600E-01 4.4500E-02 6.9781E+01 5.9314E+00           1286900500134 
     0.670  8.0680E-01 4.3500E-02 7.2421E+01 6.3730E+00           1286900500135 
     0.670  8.5610E-01 4.3000E-02 8.2747E+01 7.0335E+00           1286900500136 
     0.670  9.0580E-01 4.2500E-02 8.7362E+01 7.4258E+00           1286900500137 
     0.670  9.0750E-01 4.3000E-02 8.7516E+01 7.4388E+00           1286900500138 
     0.670  9.5580E-01 4.2000E-02 9.3998E+01 8.0839E+00           1286900500139 
     0.670  1.0060E+00 4.1500E-02 9.9644E+01 8.5694E+00           1286900500140 
     0.670  1.0560E+00 4.1500E-02 1.1136E+02 9.5768E+00           1286900500141 
     0.670  1.1070E+00 4.1000E-02 1.1226E+02 9.7670E+00           1286900500142 
     0.670  1.1090E+00 4.1500E-02 1.0672E+02 9.2850E+00           1286900500143 
     0.670  1.1580E+00 4.0500E-02 1.1240E+02 9.7784E+00           1286900500144 
     0.670  1.2070E+00 4.0000E-02 1.2219E+02 1.0753E+01           1286900500145 
     0.670  1.2580E+00 4.0000E-02 1.2682E+02 1.1160E+01           1286900500146 
     0.670  1.3080E+00 3.9500E-02 1.2804E+02 1.1267E+01           1286900500147 
     0.670  1.3090E+00 4.0500E-02 1.2805E+02 1.1396E+01           1286900500148 
     0.670  1.3560E+00 3.9500E-02 1.3485E+02 1.2001E+01           1286900500149 
     0.670  1.4080E+00 3.9000E-02 1.2932E+02 1.1510E+01           1286900500150 
     0.670  1.4590E+00 3.9000E-02 1.2828E+02 1.1417E+01           1286900500151 
     0.670  1.5100E+00 3.8500E-02 1.3568E+02 1.2211E+01           1286900500152 
     0.670  1.5130E+00 3.6000E-02 1.3532E+02 1.2449E+01           1286900500153 
     0.670  1.5610E+00 3.8500E-02 1.3405E+02 1.2064E+01           1286900500154 
     0.670  1.6100E+00 3.8000E-02 1.4082E+02 1.2814E+01           1286900500155 
     0.670  1.6610E+00 3.8000E-02 1.3412E+02 1.2205E+01           1286900500156 
     0.670  1.7110E+00 3.8500E-02 1.3348E+02 1.2414E+01           1286900500157 
     0.670  1.7120E+00 3.8000E-02 1.2883E+02 1.1853E+01           1286900500158 
     0.670  1.7580E+00 3.7500E-02 1.3700E+02 1.2741E+01           1286900500159 
     0.670  1.9120E+00 3.7000E-02 1.3133E+02 1.2870E+01           1286900500160 
     0.670  1.9140E+00 3.5000E-02 1.3286E+02 1.3021E+01           1286900500161 
     0.670  1.9630E+00 3.7000E-02 1.2999E+02 1.3129E+01           1286900500162 
     0.670  2.0150E+00 3.7000E-02 1.2346E+02 1.2717E+01           1286900500163 
     0.670  2.0650E+00 3.6500E-02 1.2626E+02 1.3510E+01           1286900500164 
     0.670  2.1150E+00 3.7500E-02 1.2695E+02 1.1126E+01           1286900500165 
     0.670  2.1610E+00 3.7500E-02 1.2812E+02 1.3965E+01           1286900500166 
     0.670  2.1610E+00 3.7500E-02 1.2711E+02 1.3855E+01           1286900500167 
     0.670  2.2140E+00 3.7500E-02 1.2852E+02 1.4394E+01           1286900500168 
     0.670  2.2140E+00 3.7500E-02 1.2174E+02 1.3635E+01           1286900500169 
     0.742  1.7110E+00 3.8500E-02 5.8138E+00 2.1104E+00           1286900500170 
     0.742  1.9120E+00 3.7000E-02 8.8002E+00 2.3849E+00           1286900500171 
     0.742  1.9630E+00 3.7000E-02 4.3468E+00 1.9908E+00           1286900500172 
     0.742  2.0150E+00 3.7000E-02 5.6809E+00 2.7723E+00           1286900500173 
     0.742  2.0650E+00 3.6500E-02 6.6762E+00 2.6171E+00           1286900500174 
     0.742  2.1150E+00 3.7500E-02 1.0620E+01 1.6440E+00           1286900500175 
     0.742  2.1610E+00 3.7500E-02 6.4071E+00 2.2104E+00           1286900500176 
     0.742  2.2140E+00 3.7500E-02 8.7809E+00 2.7133E+00           1286900500177 
     0.742  2.2140E+00 3.7500E-02 1.0656E+01 2.7599E+00           1286900500178 
     0.771  8.0680E-01 4.3500E-02 9.3491E+00 1.3182E+00           1286900500179 
     0.771  8.5610E-01 4.3000E-02 1.9676E+01 1.8889E+00           1286900500180 
     0.771  9.0580E-01 4.2500E-02 2.5467E+01 2.4194E+00           1286900500181 
     0.771  9.0750E-01 4.3000E-02 2.2861E+01 1.9889E+00           1286900500182 
     0.771  9.5580E-01 4.2000E-02 2.4122E+01 2.2675E+00           1286900500183 
     0.771  1.0060E+00 4.1500E-02 2.7063E+01 2.4898E+00           1286900500184 
     0.771  1.0560E+00 4.1500E-02 3.3378E+01 3.0040E+00           1286900500185 
     0.771  1.1070E+00 4.1000E-02 3.9200E+01 3.5280E+00           1286900500186 
     0.771  1.1090E+00 4.1500E-02 3.8422E+01 3.4196E+00           1286900500187 
     0.771  1.1580E+00 4.0500E-02 4.2596E+01 3.8336E+00           1286900500188 
     0.771  1.2070E+00 4.0000E-02 4.1033E+01 3.7340E+00           1286900500189 
     0.771  1.2580E+00 4.0000E-02 4.6060E+01 4.1454E+00           1286900500190 
     0.771  1.3080E+00 3.9500E-02 4.9412E+01 4.5459E+00           1286900500191 
     0.771  1.3090E+00 4.0500E-02 4.9592E+01 4.5129E+00           1286900500192 
     0.771  1.3560E+00 3.9500E-02 5.2415E+01 4.7698E+00           1286900500193 
     0.771  1.4080E+00 3.9000E-02 5.4698E+01 4.9775E+00           1286900500194 
     0.771  1.4590E+00 3.9000E-02 5.3492E+01 4.9748E+00           1286900500195 
     0.771  1.5100E+00 3.8500E-02 6.1933E+01 6.0075E+00           1286900500196 
     0.771  1.5130E+00 3.6000E-02 5.7938E+01 6.1994E+00           1286900500197 
     0.771  1.5610E+00 3.8500E-02 5.5927E+01 5.4809E+00           1286900500198 
     0.771  1.6100E+00 3.8000E-02 5.8052E+01 5.6310E+00           1286900500199 
     0.771  1.6610E+00 3.8000E-02 6.0129E+01 5.8325E+00           1286900500200 
     0.771  1.7110E+00 3.8500E-02 6.2894E+01 5.7863E+00           1286900500201 
     0.771  1.7120E+00 3.8000E-02 6.2928E+01 6.2299E+00           1286900500202 
     0.771  1.7580E+00 3.7500E-02 6.3041E+01 6.1780E+00           1286900500203 
     0.771  1.9120E+00 3.7000E-02 5.7063E+01 6.0486E+00           1286900500204 
     0.771  1.9140E+00 3.5000E-02 6.3748E+01 6.3748E+00           1286900500205 
     0.771  1.9630E+00 3.7000E-02 5.7580E+01 6.1611E+00           1286900500206 
     0.771  2.0150E+00 3.7000E-02 6.5162E+01 6.9072E+00           1286900500207 
     0.771  2.0650E+00 3.6500E-02 6.3345E+01 7.2213E+00           1286900500208 
     0.771  2.1150E+00 3.7500E-02 6.1641E+01 5.4980E+00           1286900500209 
     0.771  2.1610E+00 3.7500E-02 5.9116E+01 6.4437E+00           1286900500210 
     0.771  2.1610E+00 3.7500E-02 5.5370E+01 5.2048E+00           1286900500211 
     0.771  2.2140E+00 3.7500E-02 6.0283E+01 7.2340E+00           1286900500212 
     0.771  2.2140E+00 3.7500E-02 4.6146E+01 4.9376E+00           1286900500213 
     0.899  1.9120E+00 3.7000E-02 9.1563E+00 2.3074E+00           1286900500214 
     0.899  1.9140E+00 3.5000E-02 1.0256E+01 4.3997E+00           1286900500215 
     0.899  1.9630E+00 3.7000E-02 2.2893E+01 3.4569E+00           1286900500216 
     0.899  2.0150E+00 3.7000E-02 1.8341E+01 2.6044E+00           1286900500217 
     0.899  2.0650E+00 3.6500E-02 2.4967E+01 3.1458E+00           1286900500218 
     0.899  2.1150E+00 3.7500E-02 2.5161E+01 2.6940E+00           1286900500219 
     0.899  2.1610E+00 3.7500E-02 2.7472E+01 3.4615E+00           1286900500220 
     0.899  2.1610E+00 3.7500E-02 2.1705E+01 3.5380E+00           1286900500221 
     0.899  2.2140E+00 3.7500E-02 2.7242E+01 3.3508E+00           1286900500222 
     0.899  2.2140E+00 3.7500E-02 2.4864E+01 3.0334E+00           1286900500223 
     0.962  1.0060E+00 4.1500E-02 5.1942E+01 4.2592E+00           1286900500224 
     0.962  1.0560E+00 4.1500E-02 1.0199E+02 8.1591E+00           1286900500225 
     0.962  1.1070E+00 4.1000E-02 1.1887E+02 9.5099E+00           1286900500226 
     0.962  1.1090E+00 4.1500E-02 1.2266E+02 9.6905E+00           1286900500227 
     0.962  1.1580E+00 4.0500E-02 1.4506E+02 1.1460E+01           1286900500228 
     0.962  1.2070E+00 4.0000E-02 1.5669E+02 1.2378E+01           1286900500229 
     0.962  1.2580E+00 4.0000E-02 1.7622E+02 1.3921E+01           1286900500230 
     0.962  1.3080E+00 3.9500E-02 1.9024E+02 1.5219E+01           1286900500231 
     0.962  1.3090E+00 4.0500E-02 1.8790E+02 1.4844E+01           1286900500232 
     0.962  1.3560E+00 3.9500E-02 2.1662E+02 1.7330E+01           1286900500233 
     0.962  1.4080E+00 3.9000E-02 2.2511E+02 1.8009E+01           1286900500234 
     0.962  1.4590E+00 3.9000E-02 2.4022E+02 1.9458E+01           1286900500235 
     0.962  1.5100E+00 3.8500E-02 2.4719E+02 2.0270E+01           1286900500236 
     0.962  1.5130E+00 3.6000E-02 2.4616E+02 1.9693E+01           1286900500237 
     0.962  1.5610E+00 3.8500E-02 2.5671E+02 2.1307E+01           1286900500238 
     0.962  1.6100E+00 3.8000E-02 2.6548E+02 2.2035E+01           1286900500239 
     0.962  1.6610E+00 3.8000E-02 2.5998E+02 2.1839E+01           1286900500240 
     0.962  1.7110E+00 3.8500E-02 2.5026E+02 1.9771E+01           1286900500241 
     0.962  1.7120E+00 3.8000E-02 2.5088E+02 2.1074E+01           1286900500242 
     0.962  1.7580E+00 3.7500E-02 2.7390E+02 2.3282E+01           1286900500243 
     0.962  1.9120E+00 3.7000E-02 3.0552E+02 2.6580E+01           1286900500244 
     0.962  1.9140E+00 3.5000E-02 3.0369E+02 2.4295E+01           1286900500245 
     0.962  1.9630E+00 3.7000E-02 3.0061E+02 2.6153E+01           1286900500246 
     0.962  2.0150E+00 3.7000E-02 2.9980E+02 2.6380E+01           1286900500247 
     0.962  2.0650E+00 3.6500E-02 3.0851E+02 2.7149E+01           1286900500248 
     0.962  2.1150E+00 3.7500E-02 3.0012E+02 2.3710E+01           1286900500249 
     0.962  2.1610E+00 3.7500E-02 2.8650E+02 2.5785E+01           1286900500250 
     0.962  2.1610E+00 3.7500E-02 2.8751E+02 2.2713E+01           1286900500251 
     0.962  2.2140E+00 3.7500E-02 2.9195E+02 2.6860E+01           1286900500252 
     0.962  2.2140E+00 3.7500E-02 2.9873E+02 2.3899E+01           1286900500253 
     1.049  2.1130E+00 3.7500E-02 6.7510E+00 1.9440E+00           1286900500254 
     1.049  2.1610E+00 3.7500E-02 5.1200E+00 2.8470E+00           1286900500255 
     1.049  2.2140E+00 3.7500E-02 6.5930E+00 2.0440E+00           1286900500256 
     1.116  1.1580E+00 4.0500E-02 2.2090E+01 2.2974E+00           1286900500257 
     1.116  1.2070E+00 4.0000E-02 4.5028E+01 3.9625E+00           1286900500258 
     1.116  1.2580E+00 4.0000E-02 5.1586E+01 4.2816E+00           1286900500259 
     1.116  1.3080E+00 3.9500E-02 5.6936E+01 4.6687E+00           1286900500260 
     1.116  1.3090E+00 4.0500E-02 5.3912E+01 4.5286E+00           1286900500261 
     1.116  1.3560E+00 3.9500E-02 6.3285E+01 5.1894E+00           1286900500262 
     1.116  1.4080E+00 3.9000E-02 7.3174E+01 5.9271E+00           1286900500263 
     1.116  1.4590E+00 3.9000E-02 7.3819E+01 6.0532E+00           1286900500264 
     1.116  1.5100E+00 3.8500E-02 8.1788E+01 6.7884E+00           1286900500265 
     1.116  1.5130E+00 3.6000E-02 8.2385E+01 7.2499E+00           1286900500266 
     1.116  1.5610E+00 3.8500E-02 8.9899E+01 7.4616E+00           1286900500267 
     1.116  1.6100E+00 3.8000E-02 9.0387E+01 7.5021E+00           1286900500268 
     1.116  1.6610E+00 3.8000E-02 1.0037E+02 8.3304E+00           1286900500269 
     1.116  1.7110E+00 3.8500E-02 1.0332E+02 8.5758E+00           1286900500270 
     1.116  1.7120E+00 3.8000E-02 1.0222E+02 8.5861E+00           1286900500271 
     1.116  1.7580E+00 3.7500E-02 1.0889E+02 9.3646E+00           1286900500272 
     1.116  1.9120E+00 3.7000E-02 1.1980E+02 1.0422E+01           1286900500273 
     1.116  1.9140E+00 3.5000E-02 1.1990E+02 1.0432E+01           1286900500274 
     1.116  1.9630E+00 3.7000E-02 1.2570E+02 1.1313E+01           1286900500275 
     1.116  2.0150E+00 3.7000E-02 1.2285E+02 1.1179E+01           1286900500276 
     1.116  2.0650E+00 3.6500E-02 1.2269E+02 1.1165E+01           1286900500277 
     1.116  2.1150E+00 3.7500E-02 1.3257E+02 1.0932E+01           1286900500278 
     1.116  2.1610E+00 3.7500E-02 1.2680E+02 1.1666E+01           1286900500279 
     1.116  2.1610E+00 3.7500E-02 1.2609E+02 1.0465E+01           1286900500280 
     1.116  2.2140E+00 3.7500E-02 1.3338E+02 1.2271E+01           1286900500281 
     1.116  2.2140E+00 3.7500E-02 1.2923E+02 1.0597E+01           1286900500282 
     1.131  2.1610E+00 3.7500E-02 5.5837E+00 2.3731E+00           1286900500283 
     1.131  2.2140E+00 3.7500E-02 1.0717E+01 2.3791E+00           1286900500284 
     1.131  2.2140E+00 3.7500E-02 1.0150E+01 2.2432E+00           1286900500285 
     1.327  1.3560E+00 3.9500E-02 1.5834E+01 2.2325E+00           1286900500286 
     1.327  1.4080E+00 3.9000E-02 5.6513E+01 4.8601E+00           1286900500287 
     1.327  1.4590E+00 3.9000E-02 5.9386E+01 4.9884E+00           1286900500288 
     1.327  1.5100E+00 3.8500E-02 6.4927E+01 5.4538E+00           1286900500289 
     1.327  1.5130E+00 3.6000E-02 7.6733E+01 6.6758E+00           1286900500290 
     1.327  1.5610E+00 3.8500E-02 7.6844E+01 6.3780E+00           1286900500291 
     1.327  1.6100E+00 3.8000E-02 7.7319E+01 6.4174E+00           1286900500292 
     1.327  1.6610E+00 3.8000E-02 8.1180E+01 6.8191E+00           1286900500293 
     1.327  1.7110E+00 3.8500E-02 9.3091E+01 7.8197E+00           1286900500294 
     1.327  1.7120E+00 3.8000E-02 9.4392E+01 7.7402E+00           1286900500295 
     1.327  1.7580E+00 3.7500E-02 9.4765E+01 7.7707E+00           1286900500296 
     1.327  1.9120E+00 3.7000E-02 1.1153E+02 9.4803E+00           1286900500297 
     1.327  1.9140E+00 3.5000E-02 1.0898E+02 9.3727E+00           1286900500298 
     1.327  1.9630E+00 3.7000E-02 1.1140E+02 9.5806E+00           1286900500299 
     1.327  2.0150E+00 3.7000E-02 1.0886E+02 9.3619E+00           1286900500300 
     1.327  2.0650E+00 3.6500E-02 1.2055E+02 1.0367E+01           1286900500301 
     1.327  2.1150E+00 3.7500E-02 1.2655E+02 1.0130E+01           1286900500302 
     1.327  2.1610E+00 3.7500E-02 1.1858E+02 1.0316E+01           1286900500303 
     1.327  2.1610E+00 3.7500E-02 1.1787E+02 9.7830E+00           1286900500304 
     1.327  2.2140E+00 3.7500E-02 1.2285E+02 1.0811E+01           1286900500305 
     1.327  2.2140E+00 3.7500E-02 1.1536E+02 9.6906E+00           1286900500306 
     1.412  1.4590E+00 3.9000E-02 1.6890E+01 1.6890E+00           1286900500307 
     1.412  1.5100E+00 3.8500E-02 4.3938E+01 3.6468E+00           1286900500308 
     1.412  1.5130E+00 3.6000E-02 4.4078E+01 4.2756E+00           1286900500309 
     1.412  1.5610E+00 3.8500E-02 4.5259E+01 3.7565E+00           1286900500310 
     1.412  1.6100E+00 3.8000E-02 5.3287E+01 4.3696E+00           1286900500311 
     1.412  1.6610E+00 3.8000E-02 5.7741E+01 4.6770E+00           1286900500312 
     1.412  1.7110E+00 3.8500E-02 5.6590E+01 4.6969E+00           1286900500313 
     1.412  1.7120E+00 3.8000E-02 6.4305E+01 5.1444E+00           1286900500314 
     1.412  1.7580E+00 3.7500E-02 6.6278E+01 5.3023E+00           1286900500315 
     1.412  1.9120E+00 3.7000E-02 8.5053E+01 7.0594E+00           1286900500316 
     1.412  1.9140E+00 3.5000E-02 7.4881E+01 6.3649E+00           1286900500317 
     1.412  1.9630E+00 3.7000E-02 8.2015E+01 6.9713E+00           1286900500318 
     1.412  2.0150E+00 3.7000E-02 8.3850E+01 7.0434E+00           1286900500319 
     1.412  2.0650E+00 3.6500E-02 8.5476E+01 7.2655E+00           1286900500320 
     1.412  2.1150E+00 3.7500E-02 8.9885E+01 6.8800E+00           1286900500321 
     1.412  2.1610E+00 3.7500E-02 8.9522E+01 7.4303E+00           1286900500322 
     1.412  2.1610E+00 3.7500E-02 9.0020E+01 7.3816E+00           1286900500323 
     1.412  2.2140E+00 3.7500E-02 9.1664E+01 7.7915E+00           1286900500324 
     1.412  2.2140E+00 3.7500E-02 8.3133E+01 6.8169E+00           1286900500325 
     1.482  1.5130E+00 3.6000E-02 9.6981E+00 2.3857E+00           1286900500326 
     1.482  1.5610E+00 3.8500E-02 1.6631E+01 2.0955E+00           1286900500327 
     1.482  1.6100E+00 3.8000E-02 1.8926E+01 1.8926E+00           1286900500328 
     1.482  1.6610E+00 3.8000E-02 2.5918E+01 2.3844E+00           1286900500329 
     1.482  1.7110E+00 3.8500E-02 3.3648E+01 3.3312E+00           1286900500330 
     1.482  1.7120E+00 3.8000E-02 2.8377E+01 2.5256E+00           1286900500331 
     1.482  1.7580E+00 3.7500E-02 3.1835E+01 2.8333E+00           1286900500332 
     1.482  1.9120E+00 3.7000E-02 3.9164E+01 3.7989E+00           1286900500333 
     1.482  1.9140E+00 3.5000E-02 4.4839E+01 4.2149E+00           1286900500334 
     1.482  1.9630E+00 3.7000E-02 4.5061E+01 3.9654E+00           1286900500335 
     1.482  2.0150E+00 3.7000E-02 4.4820E+01 4.1235E+00           1286900500336 
     1.482  2.0650E+00 3.6500E-02 4.4548E+01 3.9203E+00           1286900500337 
     1.482  2.1150E+00 3.7500E-02 5.0068E+01 3.8630E+00           1286900500338 
     1.482  2.1610E+00 3.7500E-02 4.9147E+01 4.1283E+00           1286900500339 
     1.482  2.1610E+00 3.7500E-02 5.0050E+01 4.4545E+00           1286900500340 
     1.482  2.2140E+00 3.7500E-02 4.6014E+01 4.0493E+00           1286900500341 
     1.482  2.2140E+00 3.7500E-02 4.9394E+01 4.3467E+00           1286900500342 
     1.547  1.6100E+00 3.8000E-02 1.3921E+01 2.6868E+00           1286900500343 
     1.547  1.6610E+00 3.8000E-02 2.9415E+01 2.5885E+00           1286900500344 
     1.547  1.7110E+00 3.8500E-02 4.5893E+01 3.9009E+00           1286900500345 
     1.547  1.7130E+00 3.8000E-02 4.3763E+01 3.8511E+00           1286900500346 
     1.547  1.7580E+00 3.7500E-02 4.5363E+01 3.8558E+00           1286900500347 
     1.547  1.9120E+00 3.7000E-02 5.3022E+01 4.6659E+00           1286900500348 
     1.547  1.9140E+00 3.5000E-02 4.5635E+01 4.6548E+00           1286900500349 
     1.547  1.9630E+00 3.7000E-02 5.3802E+01 4.9498E+00           1286900500350 
     1.547  2.0150E+00 3.7000E-02 5.7401E+01 4.8217E+00           1286900500351 
     1.547  2.0650E+00 3.6500E-02 6.2917E+01 5.2221E+00           1286900500352 
     1.547  2.1150E+00 3.7500E-02 6.2173E+01 4.7970E+00           1286900500353 
     1.547  2.1610E+00 3.7500E-02 6.3035E+01 5.1058E+00           1286900500354 
     1.547  2.1610E+00 3.7500E-02 6.9340E+01 5.7552E+00           1286900500355 
     1.547  2.2140E+00 3.7500E-02 7.2740E+01 5.9647E+00           1286900500356 
     1.547  2.2140E+00 3.7500E-02 6.9887E+01 5.8705E+00           1286900500357 
     1.623  1.6610E+00 3.8000E-02 2.6724E+00 8.2844E-01           1286900500358 
     1.623  1.7110E+00 3.8500E-02 1.0383E+01 1.5574E+00           1286900500359 
     1.623  1.7120E+00 3.8000E-02 1.0495E+01 1.4273E+00           1286900500360 
     1.623  1.7580E+00 3.7500E-02 1.2817E+01 1.6919E+00           1286900500361 
     1.623  1.9120E+00 3.7000E-02 1.4704E+01 1.8528E+00           1286900500362 
     1.623  1.9140E+00 3.5000E-02 2.4185E+01 3.2650E+00           1286900500363 
     1.623  1.9630E+00 3.7000E-02 1.8604E+01 2.1395E+00           1286900500364 
     1.623  2.0150E+00 3.7000E-02 2.5969E+01 2.6229E+00           1286900500365 
     1.623  2.0650E+00 3.6500E-02 2.3580E+01 2.5466E+00           1286900500366 
     1.623  2.1150E+00 3.7500E-02 2.8267E+01 2.3530E+00           1286900500367 
     1.623  2.1610E+00 3.7500E-02 2.6853E+01 2.6047E+00           1286900500368 
     1.623  2.1610E+00 3.7500E-02 2.5259E+01 2.9047E+00           1286900500369 
     1.623  2.2140E+00 3.7500E-02 2.4631E+01 2.6602E+00           1286900500370 
     1.623  2.2140E+00 3.7500E-02 2.6665E+01 2.7732E+00           1286900500371 
     1.725  1.9120E+00 3.7000E-02 1.2266E+01 2.4654E+00           1286900500372 
     1.725  1.9140E+00 3.5000E-02 9.3341E+00 2.0722E+00           1286900500373 
     1.725  1.9630E+00 3.7000E-02 1.6797E+01 2.6036E+00           1286900500374 
     1.725  2.0150E+00 3.7000E-02 1.8453E+01 2.3620E+00           1286900500375 
     1.725  2.0650E+00 3.6500E-02 1.9194E+01 2.3993E+00           1286900500376 
     1.725  2.1150E+00 3.7500E-02 2.1950E+01 2.0740E+00           1286900500377 
     1.725  2.1610E+00 3.7500E-02 2.2660E+01 2.4019E+00           1286900500378 
     1.725  2.1610E+00 3.7500E-02 2.6233E+01 2.7020E+00           1286900500379 
     1.725  2.2140E+00 3.7500E-02 1.9126E+01 2.2760E+00           1286900500380 
     1.725  2.2140E+00 3.7500E-02 2.0422E+01 2.8386E+00           1286900500381 
     1.861  1.9120E+00 3.7000E-02 8.0216E+00 1.6605E+00           1286900500382 
     1.861  1.9140E+00 3.5000E-02 1.0552E+01 2.4374E+00           1286900500383 
     1.861  1.9630E+00 3.7000E-02 1.7502E+01 2.3977E+00           1286900500384 
     1.861  2.0150E+00 3.7000E-02 1.9147E+01 2.5083E+00           1286900500385 
     1.861  2.0650E+00 3.6500E-02 2.3478E+01 2.4886E+00           1286900500386 
     1.861  2.1150E+00 3.7500E-02 2.4321E+01 2.1520E+00           1286900500387 
     1.861  2.1610E+00 3.7500E-02 2.9035E+01 2.9035E+00           1286900500388 
     1.861  2.1610E+00 3.7500E-02 2.6589E+01 2.8184E+00           1286900500389 
     1.861  2.2140E+00 3.7500E-02 2.8821E+01 2.8533E+00           1286900500390 
     1.861  2.2140E+00 3.7500E-02 2.8993E+01 3.0443E+00           1286900500391 
     2.011  2.1130E+00 3.7500E-02 6.0410E+00 1.5730E+00           1286900500392 
     2.011  2.1610E+00 3.7500E-02 1.1949E+01 2.7961E+00           1286900500393 
     2.011  2.1610E+00 3.7500E-02 1.2233E+01 2.7158E+00           1286900500394 
     2.011  2.2140E+00 3.7500E-02 1.2316E+01 2.7464E+00           1286900500395 
     2.011  2.2140E+00 3.7500E-02 1.4279E+01 2.2703E+00           1286900500396 
     2.082  2.1610E+00 3.7500E-02 5.2629E+00 1.0999E+00           1286900500397 
ENDDATA            329          0                                 1286900500398 
ENDSUBENT          397          0                                 1286900599999 
SUBENT        12869006   20091212                             13571286900600001 
BIB                  7          8                                 1286900600002 
REACTION   (29-CU-0(N,INL)29-CU-0,PAR,DA,G,REL)                   1286900600003 
SAMPLE     Metallic copper cylinder.                              1286900600004 
DETECTOR   (GELI)                                                 1286900600005 
CORRECTION Data were corrected for multiple-scattering.           1286900600006 
ANALYSIS   Data are fully corrected but unnormalized.             1286900600007 
ERR-ANALYS (ERR-S) Statistical uncertainty.                       1286900600008 
HISTORY    (19860324A) BIB update.                                1286900600009 
           (20091005A) Reaction product added.                    1286900600010 
ENDBIB               8          0                                 1286900600011 
NOCOMMON             0          0                                 1286900600012 
DATA                 5        715                                 1286900600013 
E          EN         ANG        DATA       ERR-S                 1286900600014 
MEV        MEV        ADEG       ARB-UNITS  ARB-UNITS             1286900600015 
     0.450      1.713     39.28   0.4967     0.07058              1286900600016 
     0.450      1.713     49.03   0.4299     0.06827              1286900600017 
     0.450      1.713     58.84   0.4573     0.05986              1286900600018 
     0.450      1.713     68.72   0.5055     0.05677              1286900600019 
     0.450      1.713     78.65   0.4639     0.05901              1286900600020 
     0.450      1.713     88.63   0.4532     0.06422              1286900600021 
     0.450      1.713     98.65   0.4554     0.05005              1286900600022 
     0.450      1.713    108.70   0.5951     0.0613               1286900600023 
     0.450      1.713    118.80   0.4909     0.05577              1286900600024 
     0.450      1.713    128.90   0.5308     0.05286              1286900600025 
     0.450      1.713    133.90   0.582      0.06926              1286900600026 
     0.450      1.913     39.29   0.6333     0.07574              1286900600027 
     0.450      1.913     49.03   0.5906     0.06892              1286900600028 
     0.450      1.913     58.84   0.658      0.1209               1286900600029 
     0.450      1.913     68.72   0.7105     0.1129               1286900600030 
     0.450      1.913     78.65   0.5420     0.1027               1286900600031 
     0.450      1.913     88.63   0.6203     0.09919              1286900600032 
     0.450      1.913     98.65   0.5872     0.06647              1286900600033 
     0.450      1.913    108.70   0.6634     0.07961              1286900600034 
     0.450      1.913    118.80   0.7336     0.08803              1286900600035 
     0.450      1.913    128.90   0.8207     0.09948              1286900600036 
     0.450      1.913    133.90   0.8571     0.1029               1286900600037 
     0.450      2.117     39.28   0.4546     0.08696              1286900600038 
     0.450      2.117     49.03   0.5752     0.06488              1286900600039 
     0.450      2.117     58.84   0.6659     0.07232              1286900600040 
     0.450      2.117     68.72   0.6044     0.05905              1286900600041 
     0.450      2.117     78.65   0.5189     0.06606              1286900600042 
     0.450      2.117     88.63   0.4956     0.06473              1286900600043 
     0.450      2.117     98.65   0.5527     0.06931              1286900600044 
     0.450      2.117    108.70   0.5646     0.06002              1286900600045 
     0.450      2.117    118.80   0.6052     0.0544               1286900600046 
     0.450      2.117    128.90   0.5599     0.06433              1286900600047 
     0.450      2.117    133.90   0.6813     0.05486              1286900600048 
     0.450      2.217     39.26   0.2107     0.02674              1286900600049 
     0.450      2.217     48.98   0.3273     0.03839              1286900600050 
     0.450      2.217     58.79   0.2563     0.02945              1286900600051 
     0.450      2.217     68.65   0.3293     0.0298               1286900600052 
     0.450      2.217     78.58   0.2615     0.03705              1286900600053 
     0.450      2.217     88.55   0.2742     0.02062              1286900600054 
     0.450      2.217     98.58   0.2418     0.02464              1286900600055 
     0.450      2.217    108.60   0.2755     0.02553              1286900600056 
     0.450      2.217    118.70   0.2545     0.02454              1286900600057 
     0.450      2.217    128.80   0.2826     0.02073              1286900600058 
     0.450      2.217    133.90   0.2762     0.02323              1286900600059 
     0.585      1.914     29.78   0.2693     0.05978              1286900600060 
     0.585      1.914     39.47   0.2855     0.06024              1286900600061 
     0.585      1.914     49.24   0.3842     0.07415              1286900600062 
     0.585      1.914     59.07   0.3752     0.08892              1286900600063 
     0.585      1.914     68.95   0.3103     0.07137              1286900600064 
     0.585      1.914     78.87   0.6156     0.1071               1286900600065 
     0.585      1.914     88.83   0.4385     0.09384              1286900600066 
     0.585      1.914     98.83   0.3767     0.0825               1286900600067 
     0.585      1.914    108.90   0.2207     0.06621              1286900600068 
     0.585      1.914    118.90   0.4794     0.09588              1286900600069 
     0.585      1.914    129.00   0.5786     0.1157               1286900600070 
     0.585      1.914    134.00   0.3733     0.07466              1286900600071 
     0.585      2.117     29.78   0.3694     0.07573              1286900600072 
     0.585      2.117     39.47   0.4005     0.06728              1286900600073 
     0.585      2.117     49.24   0.4444     0.06043              1286900600074 
     0.585      2.117     59.07   0.2693     0.07406              1286900600075 
     0.585      2.117     68.94   0.2671     0.05663              1286900600076 
     0.585      2.117     78.87   0.4307     0.05642              1286900600077 
     0.585      2.117     88.83   0.2492     0.07725              1286900600078 
     0.585      2.117     98.83   0.3550     0.06781              1286900600079 
     0.585      2.117    108.90   0.4329     0.05498              1286900600080 
     0.585      2.117    118.90   0.3402     0.05579              1286900600081 
     0.585      2.117    129.00   0.4939     0.08446              1286900600082 
     0.585      2.117    134.00   0.4114     0.04690              1286900600083 
     0.585      2.217     29.79   0.1975     0.03279              1286900600084 
     0.585      2.217     39.45   0.2114     0.02854              1286900600085 
     0.585      2.217     49.21   0.196      0.02842              1286900600086 
     0.585      2.217     59.02   0.1997     0.02876              1286900600087 
     0.585      2.217     68.89   0.2008     0.03313              1286900600088 
     0.585      2.217     78.80   0.206      0.02987              1286900600089 
     0.585      2.217     88.76   0.2836     0.02751              1286900600090 
     0.585      2.217     98.76   0.1915     0.027                1286900600091 
     0.585      2.217    108.00   0.2342     0.02319              1286900600092 
     0.585      2.217    118.90   0.1985     0.02541              1286900600093 
     0.585      2.217    128.90   0.2147     0.02598              1286900600094 
     0.585      2.217    134.00   0.2092     0.03033              1286900600095 
     0.670      1.107     29.84   0.3267     0.00838              1286900600096 
     0.670      1.107     39.54   0.3271     0.008184             1286900600097 
     0.670      1.107     49.32   0.3299     0.008831             1286900600098 
     0.670      1.107     59.16   0.3416     0.00867              1286900600099 
     0.670      1.107     69.03   0.3468     0.008791             1286900600100 
     0.670      1.107     78.96   0.3393     0.008666             1286900600101 
     0.670      1.107     88.91   0.3391     0.008155             1286900600102 
     0.670      1.107     98.91   0.3551     0.008174             1286900600103 
     0.670      1.107    108.90   0.3484     0.007926             1286900600104 
     0.670      1.107    119.00   0.3456     0.008536             1286900600105 
     0.670      1.107    129.00   0.3418     0.008477             1286900600106 
     0.670      1.107    134.10   0.3597     0.008234             1286900600107 
     0.670      1.309     29.83   0.3402     0.007597             1286900600108 
     0.670      1.309     39.54   0.3725     0.008180             1286900600109 
     0.670      1.309     49.32   0.3541     0.007716             1286900600110 
     0.670      1.309     59.15   0.3438     0.007821             1286900600111 
     0.670      1.309     69.03   0.3683     0.007863             1286900600112 
     0.670      1.309     78.95   0.3639     0.007438             1286900600113 
     0.670      1.309     88.91   0.3715     0.008058             1286900600114 
     0.670      1.309     98.91   0.3722     0.007477             1286900600115 
     0.670      1.309    108.90   0.3813     0.008                1286900600116 
     0.670      1.309    119.00   0.3651     0.008113             1286900600117 
     0.670      1.309    129.00   0.3755     0.007615             1286900600118 
     0.670      1.309    134.10   0.3836     0.007883             1286900600119 
     0.670      1.511     29.83   0.3617     0.008518             1286900600120 
     0.670      1.511     39.53   0.3533     0.007758             1286900600121 
     0.670      1.511     49.31   0.354      0.009147             1286900600122 
     0.670      1.511     59.14   0.3591     0.007753             1286900600123 
     0.670      1.511     69.02   0.3598     0.007919             1286900600124 
     0.670      1.511     78.94   0.361      0.007852             1286900600125 
     0.670      1.511     88.90   0.3698     0.008221             1286900600126 
     0.670      1.511     98.90   0.3906     0.007714             1286900600127 
     0.670      1.511    108.90   0.3806     0.007601             1286900600128 
     0.670      1.511    119.00   0.3897     0.008051             1286900600129 
     0.670      1.511    129.00   0.38       0.00817              1286900600130 
     0.670      1.511    134.00   0.3838     0.008482             1286900600131 
     0.670      1.713     29.82   0.3498     0.008717             1286900600132 
     0.670      1.713     39.52   0.3613     0.01003              1286900600133 
     0.670      1.713     49.30   0.3387     0.009677             1286900600134 
     0.670      1.713     59.13   0.3397     0.008785             1286900600135 
     0.670      1.713     69.01   0.3377     0.008733             1286900600136 
     0.670      1.713     78.93   0.3716     0.009041             1286900600137 
     0.670      1.713     88.90   0.3592     0.008438             1286900600138 
     0.670      1.713     98.90   0.3458     0.009036             1286900600139 
     0.670      1.713    108.90   0.3360     0.008948             1286900600140 
     0.670      1.713    119.00   0.3630     0.008505             1286900600141 
     0.670      1.713    129.00   0.3430     0.008242             1286900600142 
     0.670      1.713    134.10   0.3686     0.008515             1286900600143 
     0.670      1.913     29.82   0.3372     0.008497             1286900600144 
     0.670      1.913     39.52   0.3388     0.01002              1286900600145 
     0.670      1.913     49.30   0.3111     0.009261             1286900600146 
     0.670      1.913     59.13   0.3293     0.01005              1286900600147 
     0.670      1.913     69.01   0.3562     0.01066              1286900600148 
     0.670      1.913     78.93   0.3376     0.009939             1286900600149 
     0.670      1.913     88.90   0.3271     0.009594             1286900600150 
     0.670      1.913     98.89   0.3288     0.009098             1286900600151 
     0.670      1.913    108.90   0.3498     0.01049              1286900600152 
     0.670      1.913    119.00   0.3642     0.01093              1286900600153 
     0.670      1.913    129.00   0.3566     0.01070              1286900600154 
     0.670      1.913    134.10   0.3539     0.01062              1286900600155 
     0.670      2.117     29.82   0.3070     0.009560             1286900600156 
     0.670      2.117     39.52   0.2983     0.008621             1286900600157 
     0.670      2.117     49.30   0.3076     0.009130             1286900600158 
     0.670      2.117     59.13   0.3042     0.008612             1286900600159 
     0.670      2.117     69.01   0.2983     0.008770             1286900600160 
     0.670      2.117     78.93   0.2993     0.008255             1286900600161 
     0.670      2.117     88.89   0.3117     0.009962             1286900600162 
     0.670      2.117     98.89   0.3071     0.008448             1286900600163 
     0.670      2.117    108.90   0.3301     0.008635             1286900600164 
     0.670      2.117    119.00   0.3037     0.008558             1286900600165 
     0.670      2.117    129.00   0.3208     0.008517             1286900600166 
     0.670      2.117    134.10   0.3074     0.008094             1286900600167 
     0.670      2.217     29.83   0.1497     0.005001             1286900600168 
     0.670      2.217     39.50   0.1419     0.003977             1286900600169 
     0.670      2.217     49.26   0.1443     0.004049             1286900600170 
     0.670      2.217     59.08   0.1434     0.004279             1286900600171 
     0.670      2.217     68.95   0.1474     0.004224             1286900600172 
     0.670      2.217     78.87   0.1505     0.004650             1286900600173 
     0.670      2.217     88.63   0.1515     0.003978             1286900600174 
     0.670      2.217     98.83   0.1376     0.004833             1286900600175 
     0.670      2.217    108.90   0.1552     0.003996             1286900600176 
     0.670      2.217    118.90   0.1511     0.003794             1286900600177 
     0.670      2.217    129.00   0.1504     0.004289             1286900600178 
     0.670      2.217    134.00   0.1563     0.003973             1286900600179 
     0.771      1.107     29.87   0.1154     0.006544             1286900600180 
     0.771      1.107     39.59   0.1192     0.005570             1286900600181 
     0.771      1.107     49.38   0.1151     0.005335             1286900600182 
     0.771      1.107     59.21   0.1233     0.006309             1286900600183 
     0.771      1.107     69.10   0.1274     0.006142             1286900600184 
     0.771      1.107     79.02   0.1153     0.005435             1286900600185 
     0.771      1.107     88.98   0.1236     0.005578             1286900600186 
     0.771      1.107     98.97   0.1177     0.005324             1286900600187 
     0.771      1.107    109.00   0.1291     0.005888             1286900600188 
     0.771      1.107    119.00   0.1189     0.005189             1286900600189 
     0.771      1.107    129.10   0.1292     0.005727             1286900600190 
     0.771      1.107    134.10   0.1264     0.006793             1286900600191 
     0.771      1.309     29.87   0.1392     0.005781             1286900600192 
     0.771      1.309     39.58   0.1430     0.006803             1286900600193 
     0.771      1.309     49.37   0.1446     0.006670             1286900600194 
     0.771      1.309     59.21   0.1426     0.006182             1286900600195 
     0.771      1.309     69.09   0.1550     0.006437             1286900600196 
     0.771      1.309     79.01   0.1544     0.006525             1286900600197 
     0.771      1.309     88.97   0.1433     0.005706             1286900600198 
     0.771      1.309     98.97   0.1482     0.006792             1286900600199 
     0.771      1.309    109.00   0.1525     0.005804             1286900600200 
     0.771      1.309    119.00   0.1509     0.005831             1286900600201 
     0.771      1.309    129.10   0.1526     0.005626             1286900600202 
     0.771      1.309    134.10   0.1512     0.005685             1286900600203 
     0.771      1.511     29.86   0.1432     0.006198             1286900600204 
     0.771      1.511     39.57   0.1605     0.007483             1286900600205 
     0.771      1.511     49.36   0.1465     0.007529             1286900600206 
     0.771      1.511     59.20   0.1438     0.007629             1286900600207 
     0.771      1.511     69.08   0.1432     0.007431             1286900600208 
     0.771      1.511     79.01   0.1628     0.007023             1286900600209 
     0.771      1.511     88.97   0.1572     0.006918             1286900600210 
     0.771      1.511     98.96   0.1628     0.006383             1286900600211 
     0.771      1.511    109.00   0.1449     0.007106             1286900600212 
     0.771      1.511    119.00   0.1695     0.006156             1286900600213 
     0.771      1.511    129.10   0.1504     0.006318             1286900600214 
     0.771      1.511    134.10   0.1536     0.005837             1286900600215 
     0.771      1.713     29.86   0.1477     0.007587             1286900600216 
     0.771      1.713     39.57   0.1424     0.006757             1286900600217 
     0.771      1.713     49.35   0.1471     0.006016             1286900600218 
     0.771      1.713     59.19   0.1552     0.007383             1286900600219 
     0.771      1.713     69.07   0.1569     0.007566             1286900600220 
     0.771      1.713     79.00   0.1556     0.008043             1286900600221 
     0.771      1.713     88.96   0.1509     0.007101             1286900600222 
     0.771      1.713     98.96   0.1525     0.006989             1286900600223 
     0.771      1.713    109.00   0.1595     0.006881             1286900600224 
     0.771      1.713    119.00   0.1631     0.006695             1286900600225 
     0.771      1.713    129.00   0.1616     0.007068             1286900600226 
     0.771      1.713    134.10   0.1709     0.006238             1286900600227 
     0.771      1.913     29.85   0.1477     0.008339             1286900600228 
     0.771      1.913     39.57   0.1567     0.009239             1286900600229 
     0.771      1.913     49.35   0.1539     0.009302             1286900600230 
     0.771      1.913     59.19   0.1375     0.008434             1286900600231 
     0.771      1.913     69.07   0.1478     0.008871             1286900600232 
     0.771      1.913     79.00   0.1391     0.008375             1286900600233 
     0.771      1.913     88.96   0.1615     0.008144             1286900600234 
     0.771      1.913     98.96   0.1433     0.007826             1286900600235 
     0.771      1.913    109.00   0.1464     0.008784             1286900600236 
     0.771      1.913    119.00   0.1590     0.00954              1286900600237 
     0.771      1.913    129.10   0.1742     0.01045              1286900600238 
     0.771      1.913    134.10   0.1562     0.01                 1286900600239 
     0.771      2.117     29.85   0.1224     0.006831             1286900600240 
     0.771      2.117     39.56   0.1427     0.007462             1286900600241 
     0.771      2.117     49.35   0.1388     0.008465             1286900600242 
     0.771      2.117     59.19   0.1369     0.007876             1286900600243 
     0.771      2.117     69.07   0.1568     0.008044             1286900600244 
     0.771      2.117     79.00   0.1251     0.007014             1286900600245 
     0.771      2.117     88.96   0.1236     0.007855             1286900600246 
     0.771      2.117     98.96   0.1388     0.006814             1286900600247 
     0.771      2.117    109.00   0.1365     0.007049             1286900600248 
     0.771      2.117    119.00   0.1414     0.007501             1286900600249 
     0.771      2.117    129.10   0.1308     0.007827             1286900600250 
     0.771      2.117    134.10   0.1516     0.008264             1286900600251 
     0.771      2.217     29.86   0.4610     0.03826              1286900600252 
     0.771      2.217     39.55   0.6117     0.04990              1286900600253 
     0.771      2.217     49.32   0.5948     0.04192              1286900600254 
     0.771      2.217     59.15   0.5458     0.045                1286900600255 
     0.771      2.217     69.02   0.6398     0.04150              1286900600256 
     0.771      2.217     78.94   0.5967     0.04779              1286900600257 
     0.771      2.217     88.90   0.6481     0.03922              1286900600258 
     0.771      2.217     98.89   0.6138     0.03632              1286900600259 
     0.771      2.217    108.90   0.6301     0.03841              1286900600260 
     0.771      2.217    119.00   0.5726     0.03836              1286900600261 
     0.771      2.217    129.00   0.6340     0.03577              1286900600262 
     0.771      2.217    134.10   0.6689     0.03665              1286900600263 
     0.899      2.118     29.89   0.4812     0.06496              1286900600264 
     0.899      2.118     39.61   0.6250     0.07688              1286900600265 
     0.899      2.118     49.41   0.5086     0.07883              1286900600266 
     0.899      2.118     59.25   0.5726     0.06986              1286900600267 
     0.899      2.118     69.14   0.4858     0.06315              1286900600268 
     0.899      2.118     79.07   0.5535     0.07694              1286900600269 
     0.899      2.118     89.03   0.7078     0.07432              1286900600270 
     0.899      2.118     99.02   0.5499     0.06269              1286900600271 
     0.899      2.118    109.00   0.4561     0.06568              1286900600272 
     0.899      2.118    119.00   0.6373     0.08540              1286900600273 
     0.899      2.118    129.10   0.6709     0.09393              1286900600274 
     0.899      2.118    134.20   0.6416     0.08277              1286900600275 
     0.899      2.218     29.90   0.2191     0.03615              1286900600276 
     0.899      2.218     39.60   0.2907     0.03198              1286900600277 
     0.899      2.218     49.38   0.2822     0.03189              1286900600278 
     0.899      2.218     59.21   0.3419     0.03590              1286900600279 
     0.899      2.218     69.09   0.2787     0.03623              1286900600280 
     0.899      2.218     79.01   0.3373     0.03913              1286900600281 
     0.899      2.218     88.97   0.2980     0.03606              1286900600282 
     0.899      2.218     98.97   0.3165     0.03956              1286900600283 
     0.899      2.218    109.00   0.2844     0.03100              1286900600284 
     0.899      2.218    119.00   0.3255     0.02897              1286900600285 
     0.899      2.218    129.10   0.2034     0.03112              1286900600286 
     0.899      2.218    134.10   0.2896     0.03388              1286900600287 
     0.962      1.107     29.85   0.2903     0.008317             1286900600288 
     0.962      1.107     39.56   0.3158     0.007980             1286900600289 
     0.962      1.107     49.35   0.3426     0.009637             1286900600290 
     0.962      1.107     59.20   0.3634     0.01022              1286900600291 
     0.962      1.107     69.09   0.3721     0.01011              1286900600292 
     0.962      1.107     79.03   0.3909     0.009702             1286900600293 
     0.962      1.107     89.00   0.3801     0.01005              1286900600294 
     0.962      1.107     99.01   0.3761     0.009527             1286900600295 
     0.962      1.107    109.00   0.3715     0.008637             1286900600296 
     0.962      1.107    119.10   0.3623     0.009036             1286900600297 
     0.962      1.107    129.10   0.34       0.008507             1286900600298 
     0.962      1.107    134.20   0.3249     0.00859              1286900600299 
     0.962      1.309     29.85   0.4484     0.008591             1286900600300 
     0.962      1.309     39.56   0.4676     0.009408             1286900600301 
     0.962      1.309     49.35   0.5341     0.009133             1286900600302 
     0.962      1.309     59.20   0.5419     0.01011              1286900600303 
     0.962      1.309     69.09   0.5660     0.009611             1286900600304 
     0.962      1.309     79.03   0.5895     0.01022              1286900600305 
     0.962      1.309     89.00   0.6199     0.009683             1286900600306 
     0.962      1.309     99.01   0.6135     0.01013              1286900600307 
     0.962      1.309    109.00   0.5709     0.009426             1286900600308 
     0.962      1.309    119.10   0.5582     0.009255             1286900600309 
     0.962      1.309    129.10   0.5079     0.009340             1286900600310 
     0.962      1.309    134.20   0.5014     0.008579             1286900600311 
     0.962      1.511     29.85   0.5506     0.01041              1286900600312 
     0.962      1.511     39.57   0.6019     0.01044              1286900600313 
     0.962      1.511     49.36   0.6233     0.01095              1286900600314 
     0.962      1.511     59.20   0.6599     0.01114              1286900600315 
     0.962      1.511     69.10   0.707      0.01095              1286900600316 
     0.962      1.511     79.03   0.7419     0.01148              1286900600317 
     0.962      1.511     89.00   0.7317     0.01171              1286900600318 
     0.962      1.511     99.01   0.7337     0.01099              1286900600319 
     0.962      1.511    109.00   0.7281     0.01099              1286900600320 
     0.962      1.511    119.10   0.6864     0.01143              1286900600321 
     0.962      1.511    129.10   0.6301     0.01067              1286900600322 
     0.962      1.511    134.20   0.6268     0.01026              1286900600323 
     0.962      1.713     29.86   0.5511     0.01082              1286900600324 
     0.962      1.713     39.57   0.5689     0.01234              1286900600325 
     0.962      1.713     49.36   0.6520     0.01187              1286900600326 
     0.962      1.713     59.20   0.6711     0.01190              1286900600327 
     0.962      1.713     69.10   0.7124     0.01225              1286900600328 
     0.962      1.713     79.03   0.7362     0.01133              1286900600329 
     0.962      1.713     89.01   0.7672     0.01157              1286900600330 
     0.962      1.713     99.01   0.7291     0.01169              1286900600331 
     0.962      1.713    109.00   0.7143     0.01124              1286900600332 
     0.962      1.713    119.10   0.6817     0.0105               1286900600333 
     0.962      1.713    129.10   0.6459     0.01028              1286900600334 
     0.962      1.713    134.20   0.6238     0.01134              1286900600335 
     0.962      1.913     29.86   0.6321     0.01171              1286900600336 
     0.962      1.913     39.57   0.6453     0.01112              1286900600337 
     0.962      1.913     49.36   0.6985     0.01375              1286900600338 
     0.962      1.913     59.20   0.7642     0.01387              1286900600339 
     0.962      1.913     69.10   0.8007     0.01432              1286900600340 
     0.962      1.913     79.03   0.7779     0.01508              1286900600341 
     0.962      1.913     89.01   0.7927     0.01463              1286900600342 
     0.962      1.913     99.01   0.8051     0.01384              1286900600343 
     0.962      1.913    109.00   0.7642     0.01528              1286900600344 
     0.962      1.913    119.10   0.7562     0.01512              1286900600345 
     0.962      1.913    129.10   0.6948     0.0139               1286900600346 
     0.962      1.913    134.20   0.675      0.0135               1286900600347 
     0.962      2.117     29.86   0.5816     0.01165              1286900600348 
     0.962      2.117     39.57   0.6346     0.01265              1286900600349 
     0.962      2.117     49.36   0.6871     0.01157              1286900600350 
     0.962      2.117     59.20   0.7384     0.0127               1286900600351 
     0.962      2.117     69.10   0.7514     0.01386              1286900600352 
     0.962      2.117     79.03   0.7555     0.01225              1286900600353 
     0.962      2.117     89.01   0.8034     0.013                1286900600354 
     0.962      2.117     99.01   0.7714     0.01245              1286900600355 
     0.962      2.117    109.00   0.7591     0.01256              1286900600356 
     0.962      2.117    119.10   0.7283     0.01162              1286900600357 
     0.962      2.117    129.10   0.6745     0.01157              1286900600358 
     0.962      2.117    134.20   0.6560     0.01096              1286900600359 
     0.962      2.217     29.87   0.2789     0.005405             1286900600360 
     0.962      2.217     39.56   0.3057     0.005983             1286900600361 
     0.962      2.217     49.33   0.3249     0.005699             1286900600362 
     0.962      2.217     59.17   0.3519     0.00588              1286900600363 
     0.962      2.217     69.05   0.3745     0.006127             1286900600364 
     0.962      2.217     78.98   0.3820     0.006288             1286900600365 
     0.962      2.217     88.95   0.3835     0.006512             1286900600366 
     0.962      2.217     98.95   0.3883     0.006182             1286900600367 
     0.962      2.217    109.00   0.3647     0.005784             1286900600368 
     0.962      2.217    119.00   0.3508     0.00563              1286900600369 
     0.962      2.217    129.10   0.3268     0.005454             1286900600370 
     0.962      2.217    134.10   0.3263     0.005182             1286900600371 
     1.116      1.309     29.89   0.1327     0.005873             1286900600372 
     1.116      1.309     39.61   0.1336     0.006091             1286900600373 
     1.116      1.309     49.41   0.1574     0.006567             1286900600374 
     1.116      1.309     59.26   0.1712     0.006144             1286900600375 
     1.116      1.309     69.15   0.1860     0.006387             1286900600376 
     1.116      1.309     79.09   0.1683     0.007015             1286900600377 
     1.116      1.309     89.06   0.1962     0.005939             1286900600378 
     1.116      1.309     99.06   0.1762     0.006629             1286900600379 
     1.116      1.309    109.10   0.1807     0.006259             1286900600380 
     1.116      1.309    119.10   0.1781     0.005637             1286900600381 
     1.116      1.309    129.20   0.1704     0.006409             1286900600382 
     1.116      1.511     29.89   0.1988     0.007366             1286900600383 
     1.116      1.511     39.61   0.2139     0.007091             1286900600384 
     1.116      1.511     49.41   0.2266     0.008232             1286900600385 
     1.116      1.511     59.26   0.2270     0.006844             1286900600386 
     1.116      1.511     69.16   0.2584     0.007863             1286900600387 
     1.116      1.511     79.09   0.2728     0.007578             1286900600388 
     1.116      1.511     89.06   0.2470     0.006842             1286900600389 
     1.116      1.511     99.07   0.2503     0.007522             1286900600390 
     1.116      1.511    109.10   0.2423     0.008105             1286900600391 
     1.116      1.511    119.10   0.2283     0.008102             1286900600392 
     1.116      1.511    129.20   0.2295     0.007876             1286900600393 
     1.116      1.511    134.20   0.2063     0.007072             1286900600394 
     1.116      1.713     29.89   0.2296     0.008702             1286900600395 
     1.116      1.713     39.61   0.2422     0.01013              1286900600396 
     1.116      1.713     49.41   0.2705     0.01152              1286900600397 
     1.116      1.713     59.26   0.2622     0.008938             1286900600398 
     1.116      1.713     69.16   0.2833     0.009284             1286900600399 
     1.116      1.713     79.09   0.3132     0.009819             1286900600400 
     1.116      1.713     89.07   0.2928     0.008963             1286900600401 
     1.116      1.713     99.07   0.2932     0.01015              1286900600402 
     1.116      1.713    109.10   0.2979     0.008761             1286900600403 
     1.116      1.713    119.10   0.2912     0.008570             1286900600404 
     1.116      1.713    129.20   0.2470     0.008783             1286900600405 
     1.116      1.713    134.20   0.2728     0.0112               1286900600406 
     1.116      1.913     29.89   0.2625     0.009820             1286900600407 
     1.116      1.913     39.61   0.2810     0.01001              1286900600408 
     1.116      1.913     49.41   0.2759     0.01009              1286900600409 
     1.116      1.913     59.26   0.3241     0.01293              1286900600410 
     1.116      1.913     69.16   0.3136     0.01116              1286900600411 
     1.116      1.913     79.09   0.3298     0.01198              1286900600412 
     1.116      1.913     89.07   0.3539     0.01042              1286900600413 
     1.116      1.913     99.07   0.3424     0.01052              1286900600414 
     1.116      1.913    109.10   0.3304     0.01322              1286900600415 
     1.116      1.913    119.10   0.3236     0.01294              1286900600416 
     1.116      1.913    129.10   0.3023     0.01209              1286900600417 
     1.116      1.913    134.20   0.2888     0.01                 1286900600418 
     1.116      2.117     29.89   0.2612     0.009492             1286900600419 
     1.116      2.117     39.61   0.2745     0.009319             1286900600420 
     1.116      2.117     49.41   0.3170     0.01023              1286900600421 
     1.116      2.117     59.26   0.3023     0.01053              1286900600422 
     1.116      2.117     69.16   0.3019     0.009619             1286900600423 
     1.116      2.117     79.09   0.3245     0.009284             1286900600424 
     1.116      2.117     89.07   0.3486     0.01053              1286900600425 
     1.116      2.117     99.07   0.3337     0.009233             1286900600426 
     1.116      2.117    109.10   0.3218     0.009030             1286900600427 
     1.116      2.117    119.10   0.3083     0.009850             1286900600428 
     1.116      2.117    129.20   0.3034     0.009657             1286900600429 
     1.116      2.117    134.20   0.2813     0.009685             1286900600430 
     1.116      2.217     29.91   0.1286     0.004720             1286900600431 
     1.116      2.217     39.61   0.1338     0.004819             1286900600432 
     1.116      2.217     49.39   0.1436     0.004486             1286900600433 
     1.116      2.217     59.23   0.1512     0.005098             1286900600434 
     1.116      2.217     69.12   0.1473     0.004680             1286900600435 
     1.116      2.217     79.05   0.1695     0.004487             1286900600436 
     1.116      2.217     89.02   0.1623     0.004460             1286900600437 
     1.116      2.217     99.01   0.1625     0.004480             1286900600438 
     1.116      2.217    109.00   0.1550     0.004625             1286900600439 
     1.116      2.217    119.10   0.1546     0.004675             1286900600440 
     1.116      2.217    129.10   0.1491     0.004327             1286900600441 
     1.116      2.217    134.20   0.1339     0.004617             1286900600442 
     1.327      1.511     29.93   0.1991     0.008480             1286900600443 
     1.327      1.511     39.66   0.2017     0.007463             1286900600444 
     1.327      1.511     49.47   0.1806     0.008308             1286900600445 
     1.327      1.511     59.32   0.1707     0.006606             1286900600446 
     1.327      1.511     69.22   0.1651     0.008483             1286900600447 
     1.327      1.511     79.16   0.1554     0.006434             1286900600448 
     1.327      1.511     89.13   0.1562     0.006629             1286900600449 
     1.327      1.511     99.13   0.1605     0.006956             1286900600450 
     1.327      1.511    109.20   0.1734     0.007026             1286900600451 
     1.327      1.511    119.20   0.1780     0.006997             1286900600452 
     1.327      1.511    129.20   0.1843     0.006753             1286900600453 
     1.327      1.511    134.30   0.1867     0.007434             1286900600454 
     1.327      1.713     29.93   0.2688     0.01054              1286900600455 
     1.327      1.713     39.66   0.2716     0.009291             1286900600456 
     1.327      1.713     49.47   0.2339     0.009761             1286900600457 
     1.327      1.713     59.33   0.2294     0.009103             1286900600458 
     1.327      1.713     69.23   0.2286     0.008108             1286900600459 
     1.327      1.713     79.16   0.1994     0.008141             1286900600460 
     1.327      1.713     89.13   0.2133     0.006843             1286900600461 
     1.327      1.713     99.13   0.2145     0.007278             1286900600462 
     1.327      1.713    109.20   0.2117     0.007998             1286900600463 
     1.327      1.713    119.20   0.2333     0.007480             1286900600464 
     1.327      1.713    129.20   0.2431     0.008783             1286900600465 
     1.327      1.713    134.30   0.2562     0.007988             1286900600466 
     1.327      1.913     29.93   0.3230     0.01001              1286900600467 
     1.327      1.913     39.66   0.3241     0.009720             1286900600468 
     1.327      1.913     49.47   0.2801     0.01069              1286900600469 
     1.327      1.913     59.33   0.2685     0.01011              1286900600470 
     1.327      1.913     69.23   0.2405     0.01088              1286900600471 
     1.327      1.913     79.16   0.2373     0.0085               1286900600472 
     1.327      1.913     89.13   0.2584     0.01108              1286900600473 
     1.327      1.913     99.13   0.2439     0.009576             1286900600474 
     1.327      1.913    109.20   0.2527     0.01264              1286900600475 
     1.327      1.913    119.20   0.2752     0.01376              1286900600476 
     1.327      1.913    129.20   0.2702     0.01351              1286900600477 
     1.327      1.913    134.30   0.2980     0.0149               1286900600478 
     1.327      2.117     29.93   0.3158     0.009096             1286900600479 
     1.327      2.117     39.66   0.3094     0.009536             1286900600480 
     1.327      2.117     49.47   0.3150     0.01043              1286900600481 
     1.327      2.117     59.33   0.2784     0.009624             1286900600482 
     1.327      2.117     69.23   0.2731     0.009487             1286900600483 
     1.327      2.117     79.16   0.2596     0.008084             1286900600484 
     1.327      2.117     89.13   0.2476     0.007787             1286900600485 
     1.327      2.117     99.13   0.2583     0.008552             1286900600486 
     1.327      2.117    109.20   0.2633     0.008247             1286900600487 
     1.327      2.117    119.20   0.2560     0.008586             1286900600488 
     1.327      2.117    129.20   0.2881     0.008620             1286900600489 
     1.327      2.117    134.30   0.2843     0.008395             1286900600490 
     1.327      2.217     29.95   0.1469     0.005327             1286900600491 
     1.327      2.217     39.66   0.1505     0.004333             1286900600492 
     1.327      2.217     49.45   0.1457     0.004480             1286900600493 
     1.327      2.217     59.30   0.1355     0.004556             1286900600494 
     1.327      2.217     69.19   0.1303     0.004627             1286900600495 
     1.327      2.217     79.12   0.1286     0.005063             1286900600496 
     1.327      2.217     89.09   0.1175     0.004446             1286900600497 
     1.327      2.217     99.08   0.1187     0.004090             1286900600498 
     1.327      2.217    109.10   0.1223     0.004513             1286900600499 
     1.327      2.217    119.10   0.1259     0.004215             1286900600500 
     1.327      2.217    129.20   0.1359     0.004481             1286900600501 
     1.327      2.217    134.20   0.1456     0.004633             1286900600502 
     1.412      1.511     29.95   0.1150     0.008540             1286900600503 
     1.412      1.511     39.68   0.09762    0.006473             1286900600504 
     1.412      1.511     49.49   0.09210    0.006355             1286900600505 
     1.412      1.511     59.35   0.1081     0.007699             1286900600506 
     1.412      1.511     69.25   0.09459    0.006366             1286900600507 
     1.412      1.511     79.19   0.09499    0.007152             1286900600508 
     1.412      1.511     89.16   0.09652    0.005039             1286900600509 
     1.412      1.511     99.15   0.09249    0.005527             1286900600510 
     1.412      1.511    109.20   0.09027    0.005363             1286900600511 
     1.412      1.511    119.20   0.09913    0.006772             1286900600512 
     1.412      1.511    129.30   0.1104     0.005888             1286900600513 
     1.412      1.511    134.30   0.1160     0.006                1286900600514 
     1.412      1.713     29.95   0.1797     0.008115             1286900600515 
     1.412      1.713     39.68   0.1763     0.008776             1286900600516 
     1.412      1.713     49.49   0.1604     0.0076               1286900600517 
     1.412      1.713     59.35   0.1581     0.007032             1286900600518 
     1.412      1.713     69.25   0.1369     0.007243             1286900600519 
     1.412      1.713     79.19   0.1445     0.00653              1286900600520 
     1.412      1.713     89.16   0.1496     0.0077               1286900600521 
     1.412      1.713     99.15   0.1475     0.006691             1286900600522 
     1.412      1.713    109.20   0.1536     0.006545             1286900600523 
     1.412      1.713    119.20   0.1589     0.006572             1286900600524 
     1.412      1.713    129.30   0.1626     0.006283             1286900600525 
     1.412      1.713    134.30   0.1652     0.007133             1286900600526 
     1.412      1.913     29.95   0.2179     0.007668             1286900600527 
     1.412      1.913     39.68   0.2417     0.008701             1286900600528 
     1.412      1.913     49.49   0.2070     0.009106             1286900600529 
     1.412      1.913     59.35   0.2201     0.008384             1286900600530 
     1.412      1.913     69.25   0.1970     0.008676             1286900600531 
     1.412      1.913     79.19   0.1726     0.008663             1286900600532 
     1.412      1.913     89.16   0.1872     0.009306             1286900600533 
     1.412      1.913     99.15   0.1906     0.009358             1286900600534 
     1.412      1.913    109.20   0.2146     0.01073              1286900600535 
     1.412      1.913    119.20   0.1932     0.00966              1286900600536 
     1.412      1.913    129.30   0.2181     0.01091              1286900600537 
     1.412      1.913    134.30   0.2218     0.01109              1286900600538 
     1.412      2.117     29.95   0.2117     0.007306             1286900600539 
     1.412      2.117     39.68   0.2159     0.007518             1286900600540 
     1.412      2.117     49.49   0.2068     0.008342             1286900600541 
     1.412      2.117     59.35   0.1832     0.007907             1286900600542 
     1.412      2.117     69.25   0.1814     0.007227             1286900600543 
     1.412      2.117     79.19   0.1732     0.006911             1286900600544 
     1.412      2.117     89.16   0.1952     0.007824             1286900600545 
     1.412      2.117     99.15   0.1763     0.007070             1286900600546 
     1.412      2.117    109.20   0.1880     0.007197             1286900600547 
     1.412      2.117    119.20   0.2157     0.008313             1286900600548 
     1.412      2.117    129.30   0.1846     0.006982             1286900600549 
     1.412      2.117    134.30   0.2182     0.007842             1286900600550 
     1.412      2.217     29.97   0.09298    0.003608             1286900600551 
     1.412      2.217     39.68   0.1034     0.003826             1286900600552 
     1.412      2.217     49.47   0.09291    0.004311             1286900600553 
     1.412      2.217     59.32   0.09714    0.003657             1286900600554 
     1.412      2.217     69.21   0.09208    0.003894             1286900600555 
     1.412      2.217     79.15   0.09427    0.003799             1286900600556 
     1.412      2.217     89.11   0.09012    0.003453             1286900600557 
     1.412      2.217     99.11   0.08694    0.003796             1286900600558 
     1.412      2.217    109.10   0.08275    0.003907             1286900600559 
     1.412      2.217    119.20   0.09312    0.003554             1286900600560 
     1.412      2.217    129.20   0.09522    0.003556             1286900600561 
     1.412      2.217    134.20   0.09907    0.003539             1286900600562 
     1.482      1.714     30.00   0.09164    0.007148             1286900600563 
     1.482      1.714     39.75   0.08988    0.006292             1286900600564 
     1.482      1.714     49.57   0.1028     0.007196             1286900600565 
     1.482      1.714     59.43   0.06605    0.005945             1286900600566 
     1.482      1.714     69.33   0.07577    0.006289             1286900600567 
     1.482      1.714     79.26   0.07299    0.005328             1286900600568 
     1.482      1.714     89.23   0.06988    0.004961             1286900600569 
     1.482      1.714     99.21   0.07708    0.005472             1286900600570 
     1.482      1.714    109.20   0.08272    0.005956             1286900600571 
     1.482      1.714    119.20   0.07989    0.005033             1286900600572 
     1.482      1.714    129.30   0.07914    0.005144             1286900600573 
     1.482      1.714    134.30   0.09727    0.005544             1286900600574 
     1.482      1.914     30.00   0.1227     0.006135             1286900600575 
     1.482      1.914     39.75   0.1229     0.007128             1286900600576 
     1.482      1.914     49.57   0.1130     0.007232             1286900600577 
     1.482      1.914     59.43   0.09280    0.006310             1286900600578 
     1.482      1.914     69.33   0.08912    0.007219             1286900600579 
     1.482      1.914     79.26   0.09268    0.006853             1286900600580 
     1.482      1.914     89.22   0.1001     0.01021              1286900600581 
     1.482      1.914     99.21   0.089      0.006586             1286900600582 
     1.482      1.914    109.20   0.1014     0.008112             1286900600583 
     1.482      1.914    119.20   0.1132     0.009056             1286900600584 
     1.482      1.914    129.30   0.1193     0.009544             1286900600585 
     1.482      1.914    134.30   0.1316     0.01053              1286900600586 
     1.482      2.117     30.00   0.1223     0.007460             1286900600587 
     1.482      2.117     39.75   0.1187     0.006529             1286900600588 
     1.482      2.117     49.56   0.1116     0.006138             1286900600589 
     1.482      2.117     59.43   0.1009     0.006357             1286900600590 
     1.482      2.117     69.33   0.1113     0.006344             1286900600591 
     1.482      2.117     79.26   0.09959    0.005876             1286900600592 
     1.482      2.117     89.22   0.1083     0.006823             1286900600593 
     1.482      2.117     99.21   0.09090    0.005363             1286900600594 
     1.482      2.117    109.20   0.1116     0.005915             1286900600595 
     1.482      2.117    119.20   0.1003     0.005416             1286900600596 
     1.482      2.117    129.30   0.1240     0.006572             1286900600597 
     1.482      2.117    134.30   0.1228     0.007                1286900600598 
     1.482      2.217     30.02   0.6801     0.03401              1286900600599 
     1.482      2.217     39.75   0.5860     0.03106              1286900600600 
     1.482      2.217     49.55   0.5268     0.03213              1286900600601 
     1.482      2.217     59.40   0.4902     0.03186              1286900600602 
     1.482      2.217     69.29   0.5037     0.03123              1286900600603 
     1.482      2.217     79.22   0.5339     0.03043              1286900600604 
     1.482      2.217     89.18   0.5366     0.03166              1286900600605 
     1.482      2.217     99.16   0.4904     0.02648              1286900600606 
     1.482      2.217    109.20   0.5659     0.03226              1286900600607 
     1.482      2.217    119.20   0.4983     0.02890              1286900600608 
     1.482      2.217    129.20   0.5343     0.03046              1286900600609 
     1.482      2.217    134.20   0.6025     0.03133              1286900600610 
     1.547      1.714     30.01   0.1019     0.006318             1286900600611 
     1.547      1.714     39.76   0.08944    0.006261             1286900600612 
     1.547      1.714     49.58   0.1056     0.006864             1286900600613 
     1.547      1.714     59.45   0.1028     0.006065             1286900600614 
     1.547      1.714     69.35   0.08391    0.005706             1286900600615 
     1.547      1.714     79.28   0.1012     0.006376             1286900600616 
     1.547      1.714     89.24   0.1071     0.006426             1286900600617 
     1.547      1.714     99.23   0.1045     0.007629             1286900600618 
     1.547      1.714    109.20   0.1095     0.005585             1286900600619 
     1.547      1.714    119.30   0.09978    0.006186             1286900600620 
     1.547      1.714    129.30   0.1046     0.006381             1286900600621 
     1.547      1.714    134.30   0.1088     0.005549             1286900600622 
     1.547      1.914     30.01   0.1568     0.007213             1286900600623 
     1.547      1.914     39.76   0.1443     0.008081             1286900600624 
     1.547      1.914     49.58   0.1347     0.007139             1286900600625 
     1.547      1.914     59.44   0.1268     0.007862             1286900600626 
     1.547      1.914     69.34   0.1604     0.008180             1286900600627 
     1.547      1.914     79.28   0.1226     0.007233             1286900600628 
     1.547      1.914     89.24   0.1384     0.007474             1286900600629 
     1.547      1.914     99.23   0.1470     0.008085             1286900600630 
     1.547      1.914    109.20   0.1333     0.009331             1286900600631 
     1.547      1.914    119.30   0.1332     0.009324             1286900600632 
     1.547      1.914    129.30   0.1329     0.009303             1286900600633 
     1.547      1.914    134.30   0.1518     0.01063              1286900600634 
     1.547      2.117     30.01   0.1600     0.00784              1286900600635 
     1.547      2.117     39.76   0.1491     0.00716              1286900600636 
     1.547      2.117     49.58   0.1474     0.006486             1286900600637 
     1.547      2.117     59.44   0.1446     0.006796             1286900600638 
     1.547      2.117     69.34   0.1356     0.005966             1286900600639 
     1.547      2.117     79.27   0.1384     0.006643             1286900600640 
     1.547      2.117     89.24   0.1574     0.007240             1286900600641 
     1.547      2.117     99.22   0.1461     0.006721             1286900600642 
     1.547      2.117    109.20   0.1572     0.006288             1286900600643 
     1.547      2.117    119.30   0.1461     0.00599              1286900600644 
     1.547      2.117    129.30   0.1554     0.006838             1286900600645 
     1.547      2.117    134.30   0.1377     0.006885             1286900600646 
     1.547      2.217     30.03   0.8118     0.03815              1286900600647 
     1.547      2.217     39.76   0.7081     0.03328              1286900600648 
     1.547      2.217     49.56   0.7974     0.04705              1286900600649 
     1.547      2.217     59.41   0.7854     0.03691              1286900600650 
     1.547      2.217     69.31   0.7787     0.03504              1286900600651 
     1.547      2.217     79.24   0.7317     0.03512              1286900600652 
     1.547      2.217     89.19   0.7894     0.03315              1286900600653 
     1.547      2.217     99.18   0.7241     0.03331              1286900600654 
     1.547      2.217    109.20   0.7085     0.03259              1286900600655 
     1.547      2.217    119.20   0.7378     0.03246              1286900600656 
     1.547      2.217    129.20   0.8193     0.03441              1286900600657 
     1.547      2.217    134.30   0.6831     0.03006              1286900600658 
     1.623      1.914     30.02   0.4026     0.04549              1286900600659 
     1.623      1.914     39.77   0.5992     0.06052              1286900600660 
     1.623      1.914     49.59   0.4920     0.07085              1286900600661 
     1.623      1.914     59.46   0.4539     0.06763              1286900600662 
     1.623      1.914     69.36   0.4947     0.04551              1286900600663 
     1.623      1.914     79.29   0.5116     0.08288              1286900600664 
     1.623      1.914     89.25   0.4876     0.05656              1286900600665 
     1.623      1.914     99.24   0.5013     0.06517              1286900600666 
     1.623      1.914    109.30   0.5503     0.07154              1286900600667 
     1.623      1.914    119.30   0.5069     0.06590              1286900600668 
     1.623      1.914    129.30   0.5317     0.06912              1286900600669 
     1.623      1.914    134.30   0.5779     0.07513              1286900600670 
     1.623      2.117     30.02   0.7516     0.07817              1286900600671 
     1.623      2.117     39.77   0.6468     0.07438              1286900600672 
     1.623      2.117     49.59   0.6823     0.05322              1286900600673 
     1.623      2.117     59.46   0.5756     0.06792              1286900600674 
     1.623      2.117     69.36   0.6975     0.06278              1286900600675 
     1.623      2.117     79.29   0.5027     0.05831              1286900600676 
     1.623      2.117     89.25   0.5091     0.04989              1286900600677 
     1.623      2.117     99.24   0.5895     0.056                1286900600678 
     1.623      2.117    109.20   0.5725     0.05267              1286900600679 
     1.623      2.117    119.30   0.5952     0.05                 1286900600680 
     1.623      2.117    129.30   0.68       0.05916              1286900600681 
     1.623      2.117    134.30   0.7916     0.05225              1286900600682 
     1.623      2.217     30.04   0.3170     0.02758              1286900600683 
     1.623      2.217     39.77   0.3195     0.02844              1286900600684 
     1.623      2.217     49.58   0.2863     0.0272               1286900600685 
     1.623      2.217     59.43   0.2980     0.0298               1286900600686 
     1.623      2.217     69.32   0.3052     0.02594              1286900600687 
     1.623      2.217     79.25   0.2312     0.02127              1286900600688 
     1.623      2.217     89.21   0.2786     0.02424              1286900600689 
     1.623      2.217     99.20   0.2956     0.02069              1286900600690 
     1.623      2.217    109.20   0.2979     0.02294              1286900600691 
     1.623      2.217    119.20   0.2583     0.02041              1286900600692 
     1.623      2.217    129.30   0.2841     0.02528              1286900600693 
     1.623      2.217    134.30   0.3094     0.02785              1286900600694 
     1.725      2.118     30.03   0.5768     0.04499              1286900600695 
     1.725      2.118     39.78   0.4988     0.06085              1286900600696 
     1.725      2.118     49.61   0.4263     0.05073              1286900600697 
     1.725      2.118     59.47   0.5083     0.05642              1286900600698 
     1.725      2.118     69.38   0.4176     0.04552              1286900600699 
     1.725      2.118     79.31   0.4161     0.05243              1286900600700 
     1.725      2.118     89.27   0.5312     0.04356              1286900600701 
     1.725      2.118     99.26   0.5205     0.05309              1286900600702 
     1.725      2.118    109.30   0.5027     0.04273              1286900600703 
     1.725      2.118    119.30   0.3862     0.04905              1286900600704 
     1.725      2.118    129.30   0.5620     0.04608              1286900600705 
     1.725      2.118    134.30   0.4571     0.04754              1286900600706 
     1.725      2.217     30.05   0.2651     0.02571              1286900600707 
     1.725      2.217     39.79   0.25       0.02625              1286900600708 
     1.725      2.217     49.59   0.2906     0.02615              1286900600709 
     1.725      2.217     59.45   0.316      0.03128              1286900600710 
     1.725      2.217     69.35   0.2534     0.02255              1286900600711 
     1.725      2.217     79.27   0.2434     0.02799              1286900600712 
     1.725      2.217     89.23   0.2517     0.02064              1286900600713 
     1.725      2.217     99.22   0.2706     0.02517              1286900600714 
     1.725      2.217    109.20   0.2828     0.02573              1286900600715 
     1.725      2.217    119.20   0.227      0.02225              1286900600716 
     1.725      2.217    129.30   0.2206     0.02162              1286900600717 
     1.725      2.217    134.30   0.2875     0.02588              1286900600718 
     1.861      2.218     30.06   0.3997     0.03278              1286900600719 
     1.861      2.218     39.81   0.3664     0.02601              1286900600720 
     1.861      2.218     49.62   0.3484     0.02718              1286900600721 
     1.861      2.218     59.48   0.2614     0.02562              1286900600722 
     1.861      2.218     69.37   0.2612     0.02743              1286900600723 
     1.861      2.218     79.30   0.2835     0.02665              1286900600724 
     1.861      2.218     89.26   0.2376     0.02614              1286900600725 
     1.861      2.218     99.24   0.2812     0.02784              1286900600726 
     1.861      2.218    109.20   0.2543     0.02543              1286900600727 
     1.861      2.218    119.30   0.3185     0.02612              1286900600728 
     1.861      2.218    129.30   0.3086     0.02222              1286900600729 
     1.861      2.218    134.30   0.3494     0.029                1286900600730 
ENDDATA            717          0                                 1286900600731 
ENDSUBENT          730          0                                 1286900699999 
SUBENT        12869007   20091212                             13571286900700001 
BIB                  5          9                                 1286900700002 
REACTION   (29-CU-0(N,INL)29-CU-0,,SIG)                           1286900700003 
ANALYSIS   Calculated by adding gamma production cross            1286900700004 
            sections for the 0.670, 0.771, 0.962, 1.116,          1286900700005 
            1.327, 1.412, 1.482, 1.547, 1.623, 1.725, 1.861,      1286900700006 
            2.011, And 2.082 MeV gammas                           1286900700007 
ERR-ANALYS No errors quoted.  Errors should Be derived from the   1286900700008 
            individual components                                 1286900700009 
STATUS     (DEP,12869005)                                         1286900700010 
HISTORY    (20091005A) Reaction product added.                    1286900700011 
ENDBIB               9          0                                 1286900700012 
NOCOMMON             0          0                                 1286900700013 
DATA                 2         38                                 1286900700014 
EN         DATA                                                   1286900700015 
MEV        MB                                                     1286900700016 
 0.7250       22.14                                               1286900700017 
 0.7599       51.57                                               1286900700018 
 0.8060       69.10                                               1286900700019 
 0.8068       80.99                                               1286900700020 
 0.8561      102.4                                                1286900700021 
 0.9058      112.6                                                1286900700022 
 0.9075      110.1                                                1286900700023 
 0.9558      116.7                                                1286900700024 
 1.006       177.4                                                1286900700025 
 1.056       250.1                                                1286900700026 
 1.107       278.1                                                1286900700027 
 1.109       275.5                                                1286900700028 
 1.158       331.3                                                1286900700029 
 1.207       374.5                                                1286900700030 
 1.258       410.4                                                1286900700031 
 1.308       433.5                                                1286900700032 
 1.309       428.2                                                1286900700033 
 1.356       491.4                                                1286900700034 
 1.408       546.2                                                1286900700035 
 1.459       577.5                                                1286900700036 
 1.510       638.8                                                1286900700037 
 1.513       655.6                                                1286900700038 
 1.561       676.1                                                1286900700039 
 1.610       716.1                                                1286900700040 
 1.661       745.8                                                1286900700041 
 1.711       780.2                                                1286900700042 
 1.712       776.8                                                1286900700043 
 1.758       821.7                                                1286900700044 
 1.912       918.7                                                1286900700045 
 1.914       919.8                                                1286900700046 
 1.963       939.2                                                1286900700047 
 2.015       950.0                                                1286900700048 
 2.065       981.1                                                1286900700049 
 2.115      1009.3                                                1286900700050 
 2.161       998.5                                                1286900700051 
 2.161      1001.0                                                1286900700052 
 2.214       992.1                                                1286900700053 
 2.214      1020.0                                                1286900700054 
ENDDATA             40          0                                 1286900700055 
ENDSUBENT           54          0                                 1286900799999 
SUBENT        12869008   20091212                             13571286900800001 
BIB                  6         10                                 1286900800002 
REACTION   (29-CU-63(N,INL)29-CU-63,PAR,SIG,,,DERIV)              1286900800003 
SAMPLE     (29-CU-63,NAT=0.692)                                   1286900800004 
ANALYSIS   Calculated by drawing smooth curves through the        1286900800005 
             gamma production cross sections, identifying         1286900800006 
             gamma rays which feed or de-excite levels in 63Cu,   1286900800007 
             and assuming an isotopic abundance of 69.2%.         1286900800008 
ERR-ANALYS No errors quoted.  Errors should Be derived from the   1286900800009 
            individual components                                 1286900800010 
STATUS     (DEP,12869005)                                         1286900800011 
HISTORY    (20091212A) Coded information on sample added.         1286900800012 
ENDBIB              10          0                                 1286900800013 
NOCOMMON             0          0                                 1286900800014 
DATA                 3         86                                 1286900800015 
E-LVL      EN         DATA                                        1286900800016 
MEV        MEV        MB                                          1286900800017 
     0.670  0.70        16.6                                      1286900800018 
     0.670  0.75        59.2                                      1286900800019 
     0.670  0.80       101.2                                      1286900800020 
     0.670  0.85       116.6                                      1286900800021 
     0.670  0.90       125.7                                      1286900800022 
     0.670  0.95       134.4                                      1286900800023 
     0.670  1.00       142.3                                      1286900800024 
     0.670  1.05       150.3                                      1286900800025 
     0.670  1.10       158.2                                      1286900800026 
     0.670  1.15       165.9                                      1286900800027 
     0.670  1.20       173.0                                      1286900800028 
     0.670  1.25       179.9                                      1286900800029 
     0.670  1.30       185.5                                      1286900800030 
     0.670  1.35       189.3                                      1286900800031 
     0.670  1.40       191.3                                      1286900800032 
     0.670  1.45       192.3                                      1286900800033 
     0.670  1.50       192.9                                      1286900800034 
     0.670  1.55       192.5                                      1286900800035 
     0.670  1.60       191.9                                      1286900800036 
     0.670  1.65       190.0                                      1286900800037 
     0.670  1.70       189.2                                      1286900800038 
     0.670  1.75       187.4                                      1286900800039 
     0.670  1.80       185.4                                      1286900800040 
     0.670  1.85       183.2                                      1286900800041 
     0.670  1.90       181.4                                      1286900800042 
     0.670  1.95       178.6                                      1286900800043 
     0.670  2.00       176.4                                      1286900800044 
     0.962  1.00        49.9                                      1286900800045 
     0.962  1.05       135.8                                      1286900800046 
     0.962  1.10       170.5                                      1286900800047 
     0.962  1.15       200.9                                      1286900800048 
     0.962  1.20       224.0                                      1286900800049 
     0.962  1.25       250.0                                      1286900800050 
     0.962  1.30       274.6                                      1286900800051 
     0.962  1.35       298.0                                      1286900800052 
     0.962  1.40       293.4                                      1286900800053 
     0.962  1.45       297.7                                      1286900800054 
     0.962  1.50       299.0                                      1286900800055 
     0.962  1.55       303.5                                      1286900800056 
     0.962  1.60       301.2                                      1286900800057 
     0.962  1.65       303.2                                      1286900800058 
     0.962  1.70       307.2                                      1286900800059 
     0.962  1.75       314.2                                      1286900800060 
     0.962  1.80       320.8                                      1286900800061 
     0.962  1.85       327.7                                      1286900800062 
     0.962  1.90       328.3                                      1286900800063 
     0.962  1.95       314.9                                      1286900800064 
     0.962  2.00       307.7                                      1286900800065 
     1.327  1.35         8.4                                      1286900800066 
     1.327  1.40        78.8                                      1286900800067 
     1.327  1.45       119.8                                      1286900800068 
     1.327  1.50       136.8                                      1286900800069 
     1.327  1.55       148.7                                      1286900800070 
     1.327  1.60       158.8                                      1286900800071 
     1.327  1.65       167.8                                      1286900800072 
     1.327  1.70       174.9                                      1286900800073 
     1.327  1.75       181.4                                      1286900800074 
     1.327  1.80       187.4                                      1286900800075 
     1.327  1.85       192.3                                      1286900800076 
     1.327  1.90       197.7                                      1286900800077 
     1.327  1.95       202.3                                      1286900800078 
     1.327  2.00       206.8                                      1286900800079 
     1.412  1.45         5.9                                      1286900800080 
     1.412  1.50        68.9                                      1286900800081 
     1.412  1.55        90.0                                      1286900800082 
     1.412  1.60       102.2                                      1286900800083 
     1.412  1.65       113.0                                      1286900800084 
     1.412  1.70       123.1                                      1286900800085 
     1.412  1.75       132.2                                      1286900800086 
     1.412  1.80       140.2                                      1286900800087 
     1.412  1.85       147.1                                      1286900800088 
     1.412  1.90       153.9                                      1286900800089 
     1.412  1.95       159.8                                      1286900800090 
     1.412  2.00       164.2                                      1286900800091 
     1.547  1.60        23.7                                      1286900800092 
     1.547  1.65        49.1                                      1286900800093 
     1.547  1.70        67.1                                      1286900800094 
     1.547  1.75        77.0                                      1286900800095 
     1.547  1.80        83.8                                      1286900800096 
     1.547  1.85        88.4                                      1286900800097 
     1.547  1.90        95.4                                      1286900800098 
     1.547  1.95       101.0                                      1286900800099 
     1.547  2.00       106.8                                      1286900800100 
     1.861  1.90        12.4                                      1286900800101 
     1.861  1.95        44.8                                      1286900800102 
     1.861  2.00        54.8                                      1286900800103 
ENDDATA             88          0                                 1286900800104 
ENDSUBENT          103          0                                 1286900899999 
SUBENT        12869009   20091212                             13571286900900001 
BIB                  6         10                                 1286900900002 
REACTION   (29-CU-65(N,INL)29-CU-65,PAR,SIG,,,DERIV)              1286900900003 
SAMPLE     (29-CU-65,NAT=0.308)                                   1286900900004 
ANALYSIS   Calculated by drawing smooth curves through the        1286900900005 
             gamma production cross sections, identifying         1286900900006 
             gamma rays which feed or de-excite levels in 65Cu,   1286900900007 
             and assuming an isotopic abundance of 30.8%.         1286900900008 
ERR-ANALYS No errors quoted.  Errors should Be derived from the   1286900900009 
            individual components                                 1286900900010 
STATUS     (DEP,12869005)                                         1286900900011 
HISTORY    (20091212A) Coded information on sample added.         1286900900012 
ENDBIB              10          0                                 1286900900013 
NOCOMMON             0          0                                 1286900900014 
DATA                 3         68                                 1286900900015 
E-LVL      EN         DATA                                        1286900900016 
MEV        MEV        MB                                          1286900900017 
     0.771  0.80        20.8                                      1286900900018 
     0.771  0.85        57.1                                      1286900900019 
     0.771  0.90        74.0                                      1286900900020 
     0.771  0.95        86.4                                      1286900900021 
     0.771  1.00        97.4                                      1286900900022 
     0.771  1.05       108.4                                      1286900900023 
     0.771  1.10       119.5                                      1286900900024 
     0.771  1.15       130.5                                      1286900900025 
     0.771  1.20       140.3                                      1286900900026 
     0.771  1.25       148.7                                      1286900900027 
     0.771  1.30       156.5                                      1286900900028 
     0.771  1.35       164.3                                      1286900900029 
     0.771  1.40       171.4                                      1286900900030 
     0.771  1.45       178.6                                      1286900900031 
     0.771  1.50       185.1                                      1286900900032 
     0.771  1.55       191.6                                      1286900900033 
     0.771  1.60       196.8                                      1286900900034 
     0.771  1.65       201.3                                      1286900900035 
     0.771  1.70       203.2                                      1286900900036 
     0.771  1.75       204.5                                      1286900900037 
     0.771  1.80       203.9                                      1286900900038 
     0.771  1.85       203.2                                      1286900900039 
     0.771  1.90       201.3                                      1286900900040 
     0.771  1.95       199.4                                      1286900900041 
     0.771  2.00       197.4                                      1286900900042 
     1.116  1.15        48.7                                      1286900900043 
     1.116  1.20       128.2                                      1286900900044 
     1.116  1.25       159.1                                      1286900900045 
     1.116  1.30       181.8                                      1286900900046 
     1.116  1.35       204.5                                      1286900900047 
     1.116  1.40       224.0                                      1286900900048 
     1.116  1.45       243.5                                      1286900900049 
     1.116  1.50       261.7                                      1286900900050 
     1.116  1.55       256.5                                      1286900900051 
     1.116  1.60       265.3                                      1286900900052 
     1.116  1.65       280.5                                      1286900900053 
     1.116  1.70       294.8                                      1286900900054 
     1.116  1.75       307.1                                      1286900900055 
     1.116  1.80       311.0                                      1286900900056 
     1.116  1.85       315.9                                      1286900900057 
     1.116  1.90       322.7                                      1286900900058 
     1.116  1.95       329.2                                      1286900900059 
     1.116  2.00       333.1                                      1286900900060 
     1.482  1.50         1.3                                      1286900900061 
     1.482  1.55        73.1                                      1286900900062 
     1.482  1.60       100.6                                      1286900900063 
     1.482  1.65       118.8                                      1286900900064 
     1.482  1.70       134.1                                      1286900900065 
     1.482  1.75       145.8                                      1286900900066 
     1.482  1.80       155.5                                      1286900900067 
     1.482  1.85       164.3                                      1286900900068 
     1.482  1.90       172.4                                      1286900900069 
     1.482  1.95       180.2                                      1286900900070 
     1.482  2.00       185.4                                      1286900900071 
     1.623  1.65         0.0                                      1286900900072 
     1.623  1.70        24.7                                      1286900900073 
     1.623  1.75        37.3                                      1286900900074 
     1.623  1.80        44.5                                      1286900900075 
     1.623  1.85        52.9                                      1286900900076 
     1.623  1.90        59.4                                      1286900900077 
     1.623  1.95        65.6                                      1286900900078 
     1.623  2.00        71.8                                      1286900900079 
     1.725  1.75         2.6                                      1286900900080 
     1.725  1.80        24.7                                      1286900900081 
     1.725  1.85        41.9                                      1286900900082 
     1.725  1.90        57.8                                      1286900900083 
     1.725  1.95        72.7                                      1286900900084 
     1.725  2.00        82.5                                      1286900900085 
ENDDATA             70          0                                 1286900900086 
ENDSUBENT           85          0                                 1286900999999 
ENDENTRY             9          0                                 1286999999999 
