ENTRY            12948   19891101                             00001294800000001 
SUBENT        12948001   19891101                             00001294800100001 
BIB                 11         15                                 1294800100002 
INSTITUTE  (1CANTMF)                                              1294800100003 
REFERENCE  (J,PR/C,40,559,8908)                                   1294800100004 
AUTHOR     (M.C.VETTERLI,O.HAEUSSER,R.ABEGG,W.P.ALFORD,A.CELLER,  1294800100005 
           D.FREKERS,R.HELMER,R.HENDERSON,K.H.HICKS,K.P.JACKSON,  1294800100006 
           R.G.JEPPESEN,C.A.MILLER,K.RAYWOOD,S.YEN)               1294800100007 
TITLE      GAMOW-TELLER STRENGTH DEDUCED FROM CHARGE EXCHANGE     1294800100008 
            REACTIONS ON 54FE AT 300 MEV.                         1294800100009 
FACILITY   (MESON) TRIUMF CHARGE-EXCHANGE FACILITY                1294800100010 
INC-SOURCE (P-LI7)                                                1294800100011 
SAMPLE     97.2% ENRICHED 54-FE                                   1294800100012 
MONITOR    (1-H-1(N,EL)1-H-1,,DA)                                 1294800100013 
ERR-ANALYS DATA UNCERTAINTIES GIVEN ARE PRIMARILY STATISTICAL     1294800100014 
STATUS     DATA RECEIVED BY ELECTRONIC MAIL, 89/4/26              1294800100015 
           (APRVD) M.VETTERLI, 89/6/6.                            1294800100016 
HISTORY    (890502C)                                              1294800100017 
ENDBIB              15          0                                 1294800100018 
COMMON               4          3                                 1294800100019 
EN         ANG-NRM    MONIT      MONIT-ERR                        1294800100020 
MEV        ADEG       MB/SR      PER-CENT                         1294800100021 
298.        1.8        50.7       5.0                             1294800100022 
ENDCOMMON            3          0                                 1294800100023 
ENDSUBENT           22          0                                 1294800199999 
SUBENT        12948002   19890607                             00001294800200001 
BIB                  1          1                                 1294800200002 
REACTION   (26-FE-54(N,P)25-MN-54,,DA/DE)                         1294800200003 
ENDBIB               1          0                                 1294800200004 
COMMON               1          3                                 1294800200005 
E-RSL                                                             1294800200006 
MEV                                                               1294800200007 
 0.5                                                              1294800200008 
ENDCOMMON            3          0                                 1294800200009 
DATA                 4        551                                 1294800200010 
ANG        E-EXC      DATA       DATA-ERR                         1294800200011 
ADEG       MEV        MB/SR/MEV  MB/SR/MEV                        1294800200012 
 1.8        -8.750     0.000      0.000                           1294800200013 
 1.8        -8.250     0.003      0.003                           1294800200014 
 1.8        -7.750     0.008      0.007                           1294800200015 
 1.8        -7.250     0.015      0.016                           1294800200016 
 1.8        -6.750     -.002      0.008                           1294800200017 
 1.8        -6.250     0.009      0.012                           1294800200018 
 1.8        -5.750     -.005      0.009                           1294800200019 
 1.8        -5.250     0.009      0.011                           1294800200020 
 1.8        -4.750     0.010      0.011                           1294800200021 
 1.8        -4.250     0.002      0.009                           1294800200022 
 1.8        -3.750     0.021      0.015                           1294800200023 
 1.8        -3.250     0.002      0.015                           1294800200024 
 1.8        -2.750     -.023      0.023                           1294800200025 
 1.8        -2.250     -.025      0.029                           1294800200026 
 1.8        -1.750     0.144      0.052                           1294800200027 
 1.8        -1.250     0.207      0.095                           1294800200028 
 1.8        -0.750     -.116      0.176                           1294800200029 
 1.8        -0.250     0.195      0.214                           1294800200030 
 1.8         0.250     1.244      0.180                           1294800200031 
 1.8         0.750     3.003      0.165                           1294800200032 
 1.8         1.250     3.856      0.176                           1294800200033 
 1.8         1.750     3.149      0.155                           1294800200034 
 1.8         2.250     2.782      0.137                           1294800200035 
 1.8         2.750     2.068      0.118                           1294800200036 
 1.8         3.250     1.524      0.106                           1294800200037 
 1.8         3.750     1.557      0.105                           1294800200038 
 1.8         4.250     1.852      0.110                           1294800200039 
 1.8         4.750     1.946      0.118                           1294800200040 
 1.8         5.250     1.120      0.096                           1294800200041 
 1.8         5.750     1.074      0.090                           1294800200042 
 1.8         6.250     0.858      0.079                           1294800200043 
 1.8         6.750     0.999      0.089                           1294800200044 
 1.8         7.250     0.950      0.092                           1294800200045 
 1.8         7.750     0.926      0.092                           1294800200046 
 1.8         8.250     0.865      0.095                           1294800200047 
 1.8         8.750     0.958      0.101                           1294800200048 
 1.8         9.250     1.040      0.101                           1294800200049 
 1.8         9.750     1.343      0.108                           1294800200050 
 1.8        10.250     1.265      0.103                           1294800200051 
 1.8        10.750     1.296      0.108                           1294800200052 
 1.8        11.250     1.523      0.126                           1294800200053 
 1.8        11.750     1.440      0.138                           1294800200054 
 1.8        12.250     1.501      0.140                           1294800200055 
 1.8        12.750     1.441      0.123                           1294800200056 
 1.8        13.250     1.284      0.117                           1294800200057 
 1.8        13.750     1.412      0.123                           1294800200058 
 1.8        14.250     1.388      0.116                           1294800200059 
 1.8        14.750     1.235      0.106                           1294800200060 
 1.8        15.250     1.550      0.116                           1294800200061 
 1.8        15.750     1.442      0.120                           1294800200062 
 1.8        16.250     1.225      0.119                           1294800200063 
 1.8        16.750     1.338      0.122                           1294800200064 
 1.8        17.250     1.344      0.121                           1294800200065 
 1.8        17.750     1.508      0.122                           1294800200066 
 1.8        18.250     1.348      0.118                           1294800200067 
 1.8        18.750     1.503      0.129                           1294800200068 
 1.8        19.250     1.446      0.131                           1294800200069 
 1.8        19.750     1.618      0.126                           1294800200070 
 1.8        20.250     1.600      0.124                           1294800200071 
 1.8        20.750     1.490      0.121                           1294800200072 
 1.8        21.250     1.501      0.131                           1294800200073 
 1.8        21.750     1.444      0.136                           1294800200074 
 1.8        22.250     1.530      0.131                           1294800200075 
 1.8        22.750     1.217      0.125                           1294800200076 
 1.8        23.250     1.457      0.124                           1294800200077 
 1.8        23.750     1.377      0.121                           1294800200078 
 1.8        24.250     1.293      0.125                           1294800200079 
 1.8        24.750     1.130      0.122                           1294800200080 
 1.8        25.250     1.478      0.133                           1294800200081 
 1.8        25.750     1.267      0.125                           1294800200082 
 1.8        26.250     1.171      0.118                           1294800200083 
 1.8        26.750     1.156      0.115                           1294800200084 
 1.8        27.250     1.291      0.119                           1294800200085 
 1.8        27.750     1.282      0.124                           1294800200086 
 1.8        28.250     1.271      0.130                           1294800200087 
 1.8        28.750     1.171      0.128                           1294800200088 
 1.8        29.250     1.128      0.126                           1294800200089 
 1.8        29.750     1.007      0.118                           1294800200090 
 1.8        30.250     1.143      0.119                           1294800200091 
 1.8        30.750     1.235      0.121                           1294800200092 
 1.8        31.250     1.050      0.119                           1294800200093 
 1.8        31.750     0.999      0.119                           1294800200094 
 1.8        32.250     1.155      0.124                           1294800200095 
 1.8        32.750     1.042      0.123                           1294800200096 
 1.8        33.250     1.089      0.131                           1294800200097 
 1.8        33.750     0.990      0.132                           1294800200098 
 1.8        34.250     1.015      0.133                           1294800200099 
 1.8        34.750     0.833      0.129                           1294800200100 
 1.8        35.250     0.839      0.123                           1294800200101 
 1.8        35.750     1.056      0.123                           1294800200102 
 1.8        36.250     0.975      0.123                           1294800200103 
 1.8        36.750     0.863      0.119                           1294800200104 
 1.8        37.250     0.912      0.119                           1294800200105 
 1.8        37.750     1.087      0.124                           1294800200106 
 1.8        38.250     0.770      0.112                           1294800200107 
 1.8        38.750     0.867      0.115                           1294800200108 
 1.8        39.250     0.875      0.120                           1294800200109 
 1.8        39.750     1.013      0.131                           1294800200110 
 1.8        40.250     0.884      0.125                           1294800200111 
 1.8        40.750     0.718      0.118                           1294800200112 
 1.8        41.250     0.765      0.119                           1294800200113 
 1.8        41.750     1.047      0.126                           1294800200114 
 1.8        42.250     0.821      0.120                           1294800200115 
 1.8        42.750     0.864      0.126                           1294800200116 
 1.8        43.250     0.882      0.128                           1294800200117 
 1.8        43.750     0.893      0.127                           1294800200118 
 1.8        44.250     0.969      0.126                           1294800200119 
 1.8        44.750     0.926      0.129                           1294800200120 
 1.8        45.250     0.716      0.127                           1294800200121 
 1.8        45.750     0.689      0.126                           1294800200122 
 1.8        46.250     0.967      0.133                           1294800200123 
 1.8        46.750     0.831      0.125                           1294800200124 
 1.8        47.250     0.714      0.129                           1294800200125 
 1.8        47.750     0.711      0.131                           1294800200126 
 1.8        48.250     0.672      0.127                           1294800200127 
 1.8        48.750     0.694      0.125                           1294800200128 
 1.8        49.250     0.942      0.135                           1294800200129 
 1.8        49.750     0.627      0.123                           1294800200130 
 2.9        -7.250     0.000      0.000                           1294800200131 
 2.9        -6.750     0.009      0.009                           1294800200132 
 2.9        -6.250     0.017      0.016                           1294800200133 
 2.9        -5.750     0.012      0.009                           1294800200134 
 2.9        -5.250     0.014      0.015                           1294800200135 
 2.9        -4.750     0.000      0.000                           1294800200136 
 2.9        -4.250     0.002      0.004                           1294800200137 
 2.9        -3.750     0.004      0.030                           1294800200138 
 2.9        -3.250     0.067      0.042                           1294800200139 
 2.9        -2.750     0.064      0.035                           1294800200140 
 2.9        -2.250     0.018      0.030                           1294800200141 
 2.9        -1.750     0.067      0.044                           1294800200142 
 2.9        -1.250     0.057      0.065                           1294800200143 
 2.9        -0.750     0.140      0.120                           1294800200144 
 2.9        -0.250     0.514      0.183                           1294800200145 
 2.9         0.250     0.636      0.203                           1294800200146 
 2.9         0.750     1.784      0.240                           1294800200147 
 2.9         1.250     3.013      0.288                           1294800200148 
 2.9         1.750     2.273      0.245                           1294800200149 
 2.9         2.250     1.915      0.208                           1294800200150 
 2.9         2.750     1.621      0.188                           1294800200151 
 2.9         3.250     1.260      0.162                           1294800200152 
 2.9         3.750     1.105      0.150                           1294800200153 
 2.9         4.250     1.474      0.177                           1294800200154 
 2.9         4.750     1.607      0.179                           1294800200155 
 2.9         5.250     1.249      0.164                           1294800200156 
 2.9         5.750     1.451      0.166                           1294800200157 
 2.9         6.250     1.239      0.156                           1294800200158 
 2.9         6.750     1.114      0.159                           1294800200159 
 2.9         7.250     0.862      0.151                           1294800200160 
 2.9         7.750     1.186      0.164                           1294800200161 
 2.9         8.250     1.543      0.174                           1294800200162 
 2.9         8.750     1.608      0.187                           1294800200163 
 2.9         9.250     1.513      0.193                           1294800200164 
 2.9         9.750     1.626      0.187                           1294800200165 
 2.9        10.250     1.452      0.174                           1294800200166 
 2.9        10.750     1.690      0.193                           1294800200167 
 2.9        11.250     1.888      0.211                           1294800200168 
 2.9        11.750     1.851      0.218                           1294800200169 
 2.9        12.250     1.445      0.231                           1294800200170 
 2.9        12.750     1.939      0.234                           1294800200171 
 2.9        13.250     1.867      0.219                           1294800200172 
 2.9        13.750     1.608      0.209                           1294800200173 
 2.9        14.250     1.747      0.208                           1294800200174 
 2.9        14.750     1.491      0.189                           1294800200175 
 2.9        15.250     1.315      0.185                           1294800200176 
 2.9        15.750     1.656      0.207                           1294800200177 
 2.9        16.250     1.599      0.212                           1294800200178 
 2.9        16.750     1.545      0.218                           1294800200179 
 2.9        17.250     1.893      0.216                           1294800200180 
 2.9        17.750     1.616      0.203                           1294800200181 
 2.9        18.250     1.612      0.208                           1294800200182 
 2.9        18.750     1.930      0.246                           1294800200183 
 2.9        19.250     1.721      0.222                           1294800200184 
 2.9        19.750     1.224      0.187                           1294800200185 
 2.9        20.250     1.265      0.188                           1294800200186 
 2.9        20.750     1.541      0.209                           1294800200187 
 2.9        21.250     1.754      0.235                           1294800200188 
 2.9        21.750     0.861      0.211                           1294800200189 
 2.9        22.250     1.383      0.219                           1294800200190 
 2.9        22.750     1.418      0.205                           1294800200191 
 2.9        23.250     0.832      0.171                           1294800200192 
 2.9        23.750     0.992      0.195                           1294800200193 
 2.9        24.250     1.317      0.204                           1294800200194 
 2.9        24.750     1.544      0.230                           1294800200195 
 2.9        25.250     1.382      0.237                           1294800200196 
 2.9        25.750     1.293      0.216                           1294800200197 
 2.9        26.250     1.634      0.220                           1294800200198 
 2.9        26.750     1.496      0.209                           1294800200199 
 2.9        27.250     1.085      0.199                           1294800200200 
 2.9        27.750     1.062      0.205                           1294800200201 
 2.9        28.250     1.163      0.217                           1294800200202 
 2.9        28.750     1.018      0.208                           1294800200203 
 2.9        29.250     1.231      0.232                           1294800200204 
 2.9        29.750     1.085      0.211                           1294800200205 
 2.9        30.250     1.210      0.207                           1294800200206 
 2.9        30.750     0.962      0.191                           1294800200207 
 2.9        31.250     1.718      0.226                           1294800200208 
 2.9        31.750     0.969      0.190                           1294800200209 
 2.9        32.250     0.899      0.182                           1294800200210 
 2.9        32.750     1.271      0.199                           1294800200211 
 2.9        33.250     1.375      0.217                           1294800200212 
 2.9        33.750     0.898      0.207                           1294800200213 
 2.9        34.250     1.153      0.215                           1294800200214 
 2.9        34.750     0.834      0.200                           1294800200215 
 2.9        35.250     0.750      0.191                           1294800200216 
 2.9        35.750     0.606      0.188                           1294800200217 
 2.9        36.250     0.713      0.191                           1294800200218 
 2.9        36.750     1.118      0.209                           1294800200219 
 2.9        37.250     0.758      0.193                           1294800200220 
 2.9        37.750     1.038      0.201                           1294800200221 
 2.9        38.250     0.899      0.192                           1294800200222 
 2.9        38.750     0.584      0.184                           1294800200223 
 2.9        39.250     0.841      0.200                           1294800200224 
 2.9        39.750     0.724      0.201                           1294800200225 
 2.9        40.250     0.427      0.164                           1294800200226 
 2.9        40.750     0.880      0.195                           1294800200227 
 2.9        41.250     1.208      0.217                           1294800200228 
 2.9        41.750     1.126      0.214                           1294800200229 
 2.9        42.250     0.789      0.197                           1294800200230 
 2.9        42.750     0.965      0.210                           1294800200231 
 2.9        43.250     0.586      0.192                           1294800200232 
 2.9        43.750     0.937      0.213                           1294800200233 
 2.9        44.250     0.801      0.197                           1294800200234 
 2.9        44.750     0.716      0.216                           1294800200235 
 2.9        45.250     0.784      0.223                           1294800200236 
 2.9        45.750     0.536      0.201                           1294800200237 
 2.9        46.250     0.975      0.228                           1294800200238 
 2.9        46.750     0.538      0.211                           1294800200239 
 2.9        47.250     0.726      0.207                           1294800200240 
 2.9        47.750     0.419      0.186                           1294800200241 
 2.9        48.250     1.031      0.226                           1294800200242 
 2.9        48.750     0.669      0.210                           1294800200243 
 2.9        49.250     0.760      0.225                           1294800200244 
 2.9        49.750     0.905      0.227                           1294800200245 
 5.4        -3.250     0.000      0.000                           1294800200246 
 5.4        -2.750     0.015      0.013                           1294800200247 
 5.4        -2.250     0.021      0.013                           1294800200248 
 5.4        -1.750     -.004      0.008                           1294800200249 
 5.4        -1.250     -.029      0.022                           1294800200250 
 5.4        -0.750     0.016      0.029                           1294800200251 
 5.4        -0.250     0.116      0.045                           1294800200252 
 5.4         0.250     0.229      0.086                           1294800200253 
 5.4         0.750     0.778      0.138                           1294800200254 
 5.4         1.250     1.279      0.182                           1294800200255 
 5.4         1.750     1.115      0.177                           1294800200256 
 5.4         2.250     1.250      0.159                           1294800200257 
 5.4         2.750     0.821      0.152                           1294800200258 
 5.4         3.250     0.678      0.145                           1294800200259 
 5.4         3.750     0.809      0.133                           1294800200260 
 5.4         4.250     0.882      0.136                           1294800200261 
 5.4         4.750     0.894      0.136                           1294800200262 
 5.4         5.250     0.951      0.126                           1294800200263 
 5.4         5.750     1.269      0.142                           1294800200264 
 5.4         6.250     0.951      0.120                           1294800200265 
 5.4         6.750     0.776      0.115                           1294800200266 
 5.4         7.250     0.815      0.121                           1294800200267 
 5.4         7.750     1.241      0.145                           1294800200268 
 5.4         8.250     1.481      0.150                           1294800200269 
 5.4         8.750     1.641      0.162                           1294800200270 
 5.4         9.250     1.636      0.167                           1294800200271 
 5.4         9.750     1.873      0.173                           1294800200272 
 5.4        10.250     2.140      0.183                           1294800200273 
 5.4        10.750     2.242      0.192                           1294800200274 
 5.4        11.250     2.011      0.191                           1294800200275 
 5.4        11.750     1.930      0.197                           1294800200276 
 5.4        12.250     2.146      0.195                           1294800200277 
 5.4        12.750     2.200      0.186                           1294800200278 
 5.4        13.250     2.208      0.188                           1294800200279 
 5.4        13.750     1.912      0.185                           1294800200280 
 5.4        14.250     1.793      0.180                           1294800200281 
 5.4        14.750     1.445      0.162                           1294800200282 
 5.4        15.250     1.517      0.168                           1294800200283 
 5.4        15.750     1.701      0.175                           1294800200284 
 5.4        16.250     1.381      0.175                           1294800200285 
 5.4        16.750     1.565      0.181                           1294800200286 
 5.4        17.250     1.576      0.181                           1294800200287 
 5.4        17.750     1.588      0.184                           1294800200288 
 5.4        18.250     2.067      0.196                           1294800200289 
 5.4        18.750     1.827      0.193                           1294800200290 
 5.4        19.250     1.594      0.195                           1294800200291 
 5.4        19.750     1.647      0.188                           1294800200292 
 5.4        20.250     1.468      0.182                           1294800200293 
 5.4        20.750     1.539      0.177                           1294800200294 
 5.4        21.250     1.883      0.204                           1294800200295 
 5.4        21.750     1.635      0.198                           1294800200296 
 5.4        22.250     1.762      0.202                           1294800200297 
 5.4        22.750     1.434      0.186                           1294800200298 
 5.4        23.250     1.563      0.180                           1294800200299 
 5.4        23.750     1.524      0.182                           1294800200300 
 5.4        24.250     1.423      0.182                           1294800200301 
 5.4        24.750     1.410      0.193                           1294800200302 
 5.4        25.250     1.152      0.190                           1294800200303 
 5.4        25.750     1.274      0.182                           1294800200304 
 5.4        26.250     1.412      0.179                           1294800200305 
 5.4        26.750     1.290      0.173                           1294800200306 
 5.4        27.250     1.218      0.172                           1294800200307 
 5.4        27.750     1.182      0.183                           1294800200308 
 5.4        28.250     0.973      0.178                           1294800200309 
 5.4        28.750     1.354      0.193                           1294800200310 
 5.4        29.250     1.053      0.185                           1294800200311 
 5.4        29.750     1.276      0.188                           1294800200312 
 5.4        30.250     1.165      0.181                           1294800200313 
 5.4        30.750     1.161      0.176                           1294800200314 
 5.4        31.250     0.971      0.161                           1294800200315 
 5.4        31.750     1.260      0.173                           1294800200316 
 5.4        32.250     1.442      0.183                           1294800200317 
 5.4        32.750     1.405      0.185                           1294800200318 
 5.4        33.250     0.989      0.177                           1294800200319 
 5.4        33.750     0.857      0.184                           1294800200320 
 5.4        34.250     1.154      0.197                           1294800200321 
 5.4        34.750     0.863      0.194                           1294800200322 
 5.4        35.250     0.920      0.178                           1294800200323 
 5.4        35.750     0.853      0.176                           1294800200324 
 5.4        36.250     0.661      0.166                           1294800200325 
 5.4        36.750     0.855      0.170                           1294800200326 
 5.4        37.250     1.040      0.177                           1294800200327 
 5.4        37.750     0.913      0.166                           1294800200328 
 5.4        38.250     1.003      0.174                           1294800200329 
 5.4        38.750     0.981      0.179                           1294800200330 
 5.4        39.250     1.091      0.190                           1294800200331 
 5.4        39.750     0.912      0.178                           1294800200332 
 5.4        40.250     0.901      0.178                           1294800200333 
 5.4        40.750     0.772      0.176                           1294800200334 
 5.4        41.250     1.080      0.181                           1294800200335 
 5.4        41.750     0.807      0.173                           1294800200336 
 5.4        42.250     0.899      0.181                           1294800200337 
 5.4        42.750     0.341      0.166                           1294800200338 
 5.4        43.250     0.549      0.183                           1294800200339 
 5.4        43.750     0.882      0.182                           1294800200340 
 5.4        44.250     1.003      0.191                           1294800200341 
 5.4        44.750     0.808      0.197                           1294800200342 
 5.4        45.250     0.593      0.192                           1294800200343 
 5.4        45.750     0.656      0.201                           1294800200344 
 5.4        46.250     0.752      0.187                           1294800200345 
 5.4        46.750     0.728      0.193                           1294800200346 
 5.4        47.250     0.779      0.205                           1294800200347 
 5.4        47.750     0.680      0.200                           1294800200348 
 5.4        48.250     0.473      0.183                           1294800200349 
 5.4        48.750     0.630      0.197                           1294800200350 
 5.4        49.250     0.340      0.176                           1294800200351 
 5.4        49.750     0.520      0.186                           1294800200352 
 8.3        -3.250     0.000      0.000                           1294800200353 
 8.3        -2.750     0.004      0.004                           1294800200354 
 8.3        -2.250     0.026      0.020                           1294800200355 
 8.3        -1.750     0.023      0.017                           1294800200356 
 8.3        -1.250     0.010      0.008                           1294800200357 
 8.3        -0.750     0.109      0.045                           1294800200358 
 8.3        -0.250     0.093      0.043                           1294800200359 
 8.3         0.250     0.436      0.107                           1294800200360 
 8.3         0.750     0.641      0.131                           1294800200361 
 8.3         1.250     0.544      0.118                           1294800200362 
 8.3         1.750     0.490      0.115                           1294800200363 
 8.3         2.250     0.399      0.105                           1294800200364 
 8.3         2.750     0.327      0.092                           1294800200365 
 8.3         3.250     0.655      0.136                           1294800200366 
 8.3         3.750     0.701      0.144                           1294800200367 
 8.3         4.250     0.593      0.145                           1294800200368 
 8.3         4.750     0.549      0.140                           1294800200369 
 8.3         5.250     0.439      0.140                           1294800200370 
 8.3         5.750     0.686      0.160                           1294800200371 
 8.3         6.250     0.815      0.163                           1294800200372 
 8.3         6.750     0.704      0.153                           1294800200373 
 8.3         7.250     0.752      0.186                           1294800200374 
 8.3         7.750     1.015      0.171                           1294800200375 
 8.3         8.250     0.937      0.176                           1294800200376 
 8.3         8.750     0.780      0.167                           1294800200377 
 8.3         9.250     1.142      0.185                           1294800200378 
 8.3         9.750     1.255      0.192                           1294800200379 
 8.3        10.250     1.450      0.191                           1294800200380 
 8.3        10.750     1.512      0.192                           1294800200381 
 8.3        11.250     1.561      0.210                           1294800200382 
 8.3        11.750     1.563      0.213                           1294800200383 
 8.3        12.250     1.335      0.188                           1294800200384 
 8.3        12.750     1.373      0.219                           1294800200385 
 8.3        13.250     1.435      0.214                           1294800200386 
 8.3        13.750     1.363      0.212                           1294800200387 
 8.3        14.250     1.577      0.216                           1294800200388 
 8.3        14.750     1.668      0.204                           1294800200389 
 8.3        15.250     1.539      0.195                           1294800200390 
 8.3        15.750     1.774      0.222                           1294800200391 
 8.3        16.250     1.565      0.225                           1294800200392 
 8.3        16.750     1.123      0.209                           1294800200393 
 8.3        17.250     1.477      0.229                           1294800200394 
 8.3        17.750     1.134      0.200                           1294800200395 
 8.3        18.250     1.579      0.235                           1294800200396 
 8.3        18.750     1.554      0.243                           1294800200397 
 8.3        19.250     1.692      0.236                           1294800200398 
 8.3        19.750     1.998      0.256                           1294800200399 
 8.3        20.250     1.813      0.226                           1294800200400 
 8.3        20.750     1.609      0.231                           1294800200401 
 8.3        21.250     1.490      0.242                           1294800200402 
 8.3        21.750     2.058      0.270                           1294800200403 
 8.3        22.250     2.013      0.267                           1294800200404 
 8.3        22.750     1.981      0.254                           1294800200405 
 8.3        23.250     1.801      0.241                           1294800200406 
 8.3        23.750     1.526      0.222                           1294800200407 
 8.3        24.250     1.627      0.239                           1294800200408 
 8.3        24.750     1.135      0.240                           1294800200409 
 8.3        25.250     0.771      0.240                           1294800200410 
 8.3        25.750     1.314      0.232                           1294800200411 
 8.3        26.250     1.484      0.220                           1294800200412 
 8.3        26.750     1.437      0.233                           1294800200413 
 8.3        27.250     1.009      0.198                           1294800200414 
 8.3        27.750     1.089      0.208                           1294800200415 
 8.3        28.250     1.561      0.246                           1294800200416 
 8.3        28.750     1.209      0.244                           1294800200417 
 8.3        29.250     1.556      0.249                           1294800200418 
 8.3        29.750     1.360      0.233                           1294800200419 
 8.3        30.250     1.224      0.211                           1294800200420 
 8.3        30.750     1.640      0.243                           1294800200421 
 8.3        31.250     1.333      0.227                           1294800200422 
 8.3        31.750     1.236      0.229                           1294800200423 
 8.3        32.250     1.092      0.221                           1294800200424 
 8.3        32.750     1.345      0.236                           1294800200425 
 8.3        33.250     0.677      0.247                           1294800200426 
 8.3        33.750     1.070      0.254                           1294800200427 
 8.3        34.250     1.025      0.255                           1294800200428 
 8.3        34.750     0.995      0.230                           1294800200429 
 8.3        35.250     1.207      0.237                           1294800200430 
 8.3        35.750     1.288      0.249                           1294800200431 
 8.3        36.250     1.162      0.243                           1294800200432 
 8.3        36.750     0.659      0.208                           1294800200433 
 8.3        37.250     1.024      0.239                           1294800200434 
 8.3        37.750     0.859      0.220                           1294800200435 
 8.3        38.250     0.865      0.220                           1294800200436 
 8.3        38.750     1.133      0.234                           1294800200437 
 8.3        39.250     0.754      0.209                           1294800200438 
 8.3        39.750     0.855      0.241                           1294800200439 
 8.3        40.250     0.907      0.234                           1294800200440 
 8.3        40.750     1.553      0.251                           1294800200441 
 8.3        41.250     1.299      0.243                           1294800200442 
 8.3        41.750     0.949      0.239                           1294800200443 
 8.3        42.250     0.932      0.250                           1294800200444 
 8.3        42.750     0.836      0.253                           1294800200445 
 8.3        43.250     0.928      0.243                           1294800200446 
 8.3        43.750     0.826      0.241                           1294800200447 
 8.3        44.250     0.883      0.250                           1294800200448 
 8.3        44.750     1.197      0.260                           1294800200449 
 8.3        45.250     0.740      0.227                           1294800200450 
 8.3        45.750     0.566      0.255                           1294800200451 
 8.3        46.250     0.766      0.266                           1294800200452 
 8.3        46.750     1.061      0.253                           1294800200453 
 8.3        47.250     0.361      0.231                           1294800200454 
 8.3        47.750     0.944      0.270                           1294800200455 
 8.3        48.250     0.867      0.258                           1294800200456 
 8.3        48.750     0.684      0.251                           1294800200457 
 8.3        49.250     0.730      0.268                           1294800200458 
 8.3        49.750     1.036      0.265                           1294800200459 
12.0        -1.750     0.000      0.000                           1294800200460 
12.0        -1.250     0.006      0.006                           1294800200461 
12.0        -0.750     0.068      0.045                           1294800200462 
12.0        -0.250     0.074      0.041                           1294800200463 
12.0         0.250     0.312      0.091                           1294800200464 
12.0         0.750     0.319      0.095                           1294800200465 
12.0         1.250     0.326      0.102                           1294800200466 
12.0         1.750     0.272      0.088                           1294800200467 
12.0         2.250     0.339      0.096                           1294800200468 
12.0         2.750     0.409      0.105                           1294800200469 
12.0         3.250     0.592      0.132                           1294800200470 
12.0         3.750     0.360      0.102                           1294800200471 
12.0         4.250     0.432      0.123                           1294800200472 
12.0         4.750     0.264      0.101                           1294800200473 
12.0         5.250     0.351      0.095                           1294800200474 
12.0         5.750     0.226      0.076                           1294800200475 
12.0         6.250     0.436      0.123                           1294800200476 
12.0         6.750     0.375      0.119                           1294800200477 
12.0         7.250     0.207      0.081                           1294800200478 
12.0         7.750     0.318      0.100                           1294800200479 
12.0         8.250     0.552      0.140                           1294800200480 
12.0         8.750     0.408      0.119                           1294800200481 
12.0         9.250     0.570      0.152                           1294800200482 
12.0         9.750     0.425      0.155                           1294800200483 
12.0        10.250     0.758      0.180                           1294800200484 
12.0        10.750     0.236      0.132                           1294800200485 
12.0        11.250     0.719      0.171                           1294800200486 
12.0        11.750     0.772      0.158                           1294800200487 
12.0        12.250     0.529      0.153                           1294800200488 
12.0        12.750     0.333      0.159                           1294800200489 
12.0        13.250     0.724      0.187                           1294800200490 
12.0        13.750     0.731      0.174                           1294800200491 
12.0        14.250     0.828      0.170                           1294800200492 
12.0        14.750     0.691      0.159                           1294800200493 
12.0        15.250     0.689      0.171                           1294800200494 
12.0        15.750     0.725      0.185                           1294800200495 
12.0        16.250     0.689      0.217                           1294800200496 
12.0        16.750     0.747      0.213                           1294800200497 
12.0        17.250     0.615      0.206                           1294800200498 
12.0        17.750     0.528      0.190                           1294800200499 
12.0        18.250     0.787      0.179                           1294800200500 
12.0        18.750     0.925      0.209                           1294800200501 
12.0        19.250     0.734      0.173                           1294800200502 
12.0        19.750     1.033      0.205                           1294800200503 
12.0        20.250     0.841      0.193                           1294800200504 
12.0        20.750     0.824      0.191                           1294800200505 
12.0        21.250     0.751      0.188                           1294800200506 
12.0        21.750     1.039      0.210                           1294800200507 
12.0        22.250     1.036      0.199                           1294800200508 
12.0        22.750     1.252      0.218                           1294800200509 
12.0        23.250     0.987      0.209                           1294800200510 
12.0        23.750     0.957      0.209                           1294800200511 
12.0        24.250     1.087      0.217                           1294800200512 
12.0        24.750     0.963      0.223                           1294800200513 
12.0        25.250     1.220      0.245                           1294800200514 
12.0        25.750     1.218      0.224                           1294800200515 
12.0        26.250     1.268      0.223                           1294800200516 
12.0        26.750     1.240      0.227                           1294800200517 
12.0        27.250     1.110      0.222                           1294800200518 
12.0        27.750     0.911      0.204                           1294800200519 
12.0        28.250     1.034      0.201                           1294800200520 
12.0        28.750     1.334      0.269                           1294800200521 
12.0        29.250     1.135      0.253                           1294800200522 
12.0        29.750     0.857      0.225                           1294800200523 
12.0        30.250     1.324      0.244                           1294800200524 
12.0        30.750     1.153      0.220                           1294800200525 
12.0        31.250     1.376      0.234                           1294800200526 
12.0        31.750     1.137      0.223                           1294800200527 
12.0        32.250     0.965      0.234                           1294800200528 
12.0        32.750     1.320      0.261                           1294800200529 
12.0        33.250     0.797      0.231                           1294800200530 
12.0        33.750     1.306      0.278                           1294800200531 
12.0        34.250     0.806      0.236                           1294800200532 
12.0        34.750     1.499      0.270                           1294800200533 
12.0        35.250     1.428      0.283                           1294800200534 
12.0        35.750     0.746      0.239                           1294800200535 
12.0        36.250     1.019      0.243                           1294800200536 
12.0        36.750     1.726      0.279                           1294800200537 
12.0        37.250     1.453      0.263                           1294800200538 
12.0        37.750     0.701      0.197                           1294800200539 
12.0        38.250     0.943      0.228                           1294800200540 
12.0        38.750     0.858      0.236                           1294800200541 
12.0        39.250     1.118      0.251                           1294800200542 
12.0        39.750     0.685      0.232                           1294800200543 
12.0        40.250     0.721      0.235                           1294800200544 
12.0        40.750     1.282      0.265                           1294800200545 
12.0        41.250     1.286      0.274                           1294800200546 
12.0        41.750     1.126      0.258                           1294800200547 
12.0        42.250     1.155      0.284                           1294800200548 
12.0        42.750     0.856      0.278                           1294800200549 
12.0        43.250     0.842      0.260                           1294800200550 
12.0        43.750     0.925      0.252                           1294800200551 
12.0        44.250     1.045      0.259                           1294800200552 
12.0        44.750     0.895      0.279                           1294800200553 
12.0        45.250     1.121      0.290                           1294800200554 
12.0        45.750     1.501      0.303                           1294800200555 
12.0        46.250     0.927      0.250                           1294800200556 
12.0        46.750     1.233      0.287                           1294800200557 
12.0        47.250     1.032      0.274                           1294800200558 
12.0        47.750     0.921      0.254                           1294800200559 
12.0        48.250     0.821      0.247                           1294800200560 
12.0        48.750     0.671      0.254                           1294800200561 
12.0        49.250     0.712      0.261                           1294800200562 
12.0        49.750     0.993      0.266                           1294800200563 
ENDDATA            553          0                                 1294800200564 
ENDSUBENT          563          0                                 1294800299999 
ENDENTRY             2          0                                 1294899999999 
