ENTRY            13008   20140528                             14011300800000001 
SUBENT        13008001   20140528                             14011300800100001 
BIB                  8         12                                 1300800100002 
INSTITUTE  (1USATNC)                                              1300800100003 
REFERENCE  (P,ORO-2791-32,82,197102) -final data                  1300800100004 
           (P,WASH-1124,182,196810)  - prelim.data                1300800100005 
AUTHOR     (D.O.Nellis,T.C.Martin,P.S.Buchanan,W.E.Tucker,        1300800100006 
           G.H.Williams)                                          1300800100007 
TITLE      Gamma-ray production cross section for 206,207-Pb.     1300800100008 
FACILITY   (VDG,1USATNC)                                          1300800100009 
METHOD     (TOF)                                                  1300800100010 
ERR-ANALYS No information available                               1300800100011 
HISTORY    (19850626C)                                            1300800100012 
           (20140528A) SD: Updated to new date formats,lower case.1300800100013 
                corrections according last EXFOR rules and Dict.  1300800100014 
ENDBIB              12          0                                 1300800100015 
COMMON               1          3                                 1300800100016 
ANG                                                               1300800100017 
ADEG                                                              1300800100018 
 55.                                                              1300800100019 
ENDCOMMON            3          0                                 1300800100020 
ENDSUBENT           19          0                                 1300800199999 
SUBENT        13008002   20140528                             14011300800200001 
BIB                  5          6                                 1300800200002 
REACTION   (82-PB-206(N,INL)82-PB-206,PAR,DA,G)                   1300800200003 
FLAG       (1.) Value regarded as tentative.                      1300800200004 
DETECTOR   (NAICR)                                                1300800200005 
STATUS     (TABLE) Data taken from ORO-2791-32,82 - final data    1300800200006 
HISTORY    (19910829A) Data heading corrected                     1300800200007 
           (20140528A) SD: Col.E for single gamma-lines added.    1300800200008 
ENDBIB               6          0                                 1300800200009 
NOCOMMON             0          0                                 1300800200010 
DATA                 7         58                                 1300800200011 
EN         EN-RSL     E          E-MIN      E-MAX      DATA       1300800200012 
FLAG                                                              1300800200013 
MEV        MEV        MEV        MEV        MEV        MB/SR      1300800200014 
NO-DIM                                                            1300800200015 
        3.4        0.1      0.511                              7.21300800200016 
         1.                                                       1300800200017 
        3.4        0.1      0.538                             27.41300800200018 
         1.                                                       1300800200019 
        3.4        0.1                 0.657      0.662       19.51300800200020 
         1.                                                       1300800200021 
        3.4        0.1      0.803                            122.11300800200022 
                                                                  1300800200023 
        3.4        0.1      0.881                             13.81300800200024 
                                                                  1300800200025 
        3.4        0.1                 0.961      0.982        8.81300800200026 
                                                                  1300800200027 
        3.4        0.1      1.355                              4.81300800200028 
                                                                  1300800200029 
        3.4        0.1      1.399                              3.71300800200030 
                                                                  1300800200031 
        3.4        0.1      1.455                              4.01300800200032 
                                                                  1300800200033 
        3.4        0.1      1.473                              3.41300800200034 
                                                                  1300800200035 
        3.4        0.1      1.597                              3.61300800200036 
                                                                  1300800200037 
        3.4        0.1      1.627                              2.91300800200038 
                                                                  1300800200039 
        3.4        0.1      1.713                              9.81300800200040 
                                                                  1300800200041 
        3.4        0.1      1.856                              5.51300800200042 
                                                                  1300800200043 
        4.0        0.1      0.511                             20.71300800200044 
         1.                                                       1300800200045 
        4.0        0.1      0.538                             33.71300800200046 
         1.                                                       1300800200047 
        4.0        0.1                 0.657      0.662       14.91300800200048 
         1.                                                       1300800200049 
        4.0        0.1      0.803                            123.71300800200050 
                                                                  1300800200051 
        4.0        0.1      0.881                             16.71300800200052 
                                                                  1300800200053 
        4.0        0.1      0.961                              3.31300800200054 
                                                                  1300800200055 
        4.0        0.1      0.982                              7.71300800200056 
                                                                  1300800200057 
        4.0        0.1      1.101                              3.31300800200058 
                                                                  1300800200059 
        4.0        0.1      1.355                              4.21300800200060 
                                                                  1300800200061 
        4.0        0.1      1.399                              2.61300800200062 
                                                                  1300800200063 
        4.0        0.1      1.455                              4.01300800200064 
                                                                  1300800200065 
        4.0        0.1      1.473                              2.71300800200066 
                                                                  1300800200067 
        4.0        0.1      1.568                              1.51300800200068 
                                                                  1300800200069 
        4.0        0.1      1.597                              3.01300800200070 
                                                                  1300800200071 
        4.0        0.1      1.627                              1.71300800200072 
                                                                  1300800200073 
        4.0        0.1      1.713                              8.91300800200074 
                                                                  1300800200075 
        4.0        0.1      1.856                              6.81300800200076 
                                                                  1300800200077 
        4.0        0.1      1.891                              0.31300800200078 
                                                                  1300800200079 
        4.0        0.1      1.916                              0.61300800200080 
                                                                  1300800200081 
        4.0        0.1      2.339                              1.91300800200082 
                                                                  1300800200083 
        4.0        0.1      2.672                              1.31300800200084 
                                                                  1300800200085 
        5.0        0.7      0.511                             20.91300800200086 
         1.                                                       1300800200087 
        5.0        0.7      0.538                             31.71300800200088 
         1.                                                       1300800200089 
        5.0        0.7                 0.657      0.662       15.91300800200090 
         1.                                                       1300800200091 
        5.0        0.7      0.803                            123.91300800200092 
                                                                  1300800200093 
        5.0        0.7      0.881                             22.81300800200094 
                                                                  1300800200095 
        5.0        0.7      0.961                             22.71300800200096 
                                                                  1300800200097 
        5.0        0.7      0.982                              8.01300800200098 
                                                                  1300800200099 
        5.0        0.7      1.101                              5.81300800200100 
                                                                  1300800200101 
        5.0        0.7      1.355                              4.91300800200102 
                                                                  1300800200103 
        5.0        0.7      1.374                              0.51300800200104 
                                                                  1300800200105 
        5.0        0.7      1.399                              3.21300800200106 
                                                                  1300800200107 
        5.0        0.7      1.455                              4.31300800200108 
                                                                  1300800200109 
        5.0        0.7      1.473                              4.01300800200110 
                                                                  1300800200111 
        5.0        0.7      1.568                              1.61300800200112 
                                                                  1300800200113 
        5.0        0.7      1.597                              3.41300800200114 
                                                                  1300800200115 
        5.0        0.7      1.627                              2.31300800200116 
                                                                  1300800200117 
        5.0        0.7      1.713                              8.61300800200118 
                                                                  1300800200119 
        5.0        0.7      1.730                              2.21300800200120 
                                                                  1300800200121 
        5.0        0.7      1.856                             10.11300800200122 
                                                                  1300800200123 
        5.0        0.7      1.891                              1.21300800200124 
                                                                  1300800200125 
        5.0        0.7      1.916                              1.31300800200126 
                                                                  1300800200127 
        5.0        0.7      2.339                              1.91300800200128 
                                                                  1300800200129 
        5.0        0.7      2.672                              2.91300800200130 
                                                                  1300800200131 
ENDDATA            120          0                                 1300800200132 
ENDSUBENT          131          0                                 1300800299999 
SUBENT        13008003   20140528                             14011300800300001 
BIB                  5          6                                 1300800300002 
REACTION   (82-PB-207(N,INL)82-PB-207,PAR,DA,G)                   1300800300003 
FLAG       (1.) Value regarded as tentative.                      1300800300004 
DETECTOR   (GELI)                                                 1300800300005 
STATUS     (TABLE) Data taken from ORO-2791-32,86 - final data    1300800300006 
HISTORY    (19910829A) Data heading corrected                     1300800300007 
           (20140528A) SD: Col.E for single gamma-lines added.    1300800300008 
ENDBIB               6          0                                 1300800300009 
COMMON               1          3                                 1300800300010 
DATA-ERR                                                          1300800300011 
PER-CENT                                                          1300800300012 
 20.                                                              1300800300013 
ENDCOMMON            3          0                                 1300800300014 
DATA                 7         33                                 1300800300015 
EN         EN-RSL     E          E-MIN      E-MAX      DATA       1300800300016 
FLAG                                                              1300800300017 
MEV        MEV        MEV        MEV        MEV        MB/SR      1300800300018 
NO-DIM                                                            1300800300019 
        3.4        0.1      0.511                             10.51300800300020 
         1.                                                       1300800300021 
        3.4        0.1      0.570                             65.01300800300022 
         1.                                                       1300800300023 
        3.4        0.1      0.894                             38.51300800300024 
                                                                  1300800300025 
        3.4        0.1      1.097                              6.71300800300026 
                                                                  1300800300027 
        3.4        0.1      1.730                              7.41300800300028 
                                                                  1300800300029 
        3.4        0.1      1.771                              9.21300800300030 
                                                                  1300800300031 
        3.4        0.1      2.094                              6.01300800300032 
                                                                  1300800300033 
        3.4        0.1      2.617                              0.91300800300034 
                                                                  1300800300035 
        3.4        0.1      2.652                              1.71300800300036 
                                                                  1300800300037 
        4.2        0.1      0.511                             19.11300800300038 
         1.                                                       1300800300039 
        4.2        0.1      0.570                             87.81300800300040 
         1.                                                       1300800300041 
        4.2        0.1      0.894                             44.21300800300042 
                                                                  1300800300043 
        4.2        0.1      1.097                             15.31300800300044 
                                                                  1300800300045 
        4.2        0.1      1.545                              2.71300800300046 
                                                                  1300800300047 
        4.2        0.1      1.593                              4.71300800300048 
                                                                  1300800300049 
        4.2        0.1      1.730                             13.41300800300050 
                                                                  1300800300051 
        4.2        0.1      1.771                             19.11300800300052 
                                                                  1300800300053 
        4.2        0.1      1.892                              3.41300800300054 
                                                                  1300800300055 
        4.2        0.1      2.094                             21.11300800300056 
                                                                  1300800300057 
        4.2        0.1                 2.617      2.652       23.31300800300058 
                                                                  1300800300059 
        4.2        0.1      2.843                              4.51300800300060 
                                                                  1300800300061 
        5.0        0.1      0.511                             20.31300800300062 
         1.                                                       1300800300063 
        5.0        0.1      0.570                             74.31300800300064 
         1.                                                       1300800300065 
        5.0        0.1      0.894                             29.21300800300066 
                                                                  1300800300067 
        5.0        0.1      1.097                             16.01300800300068 
                                                                  1300800300069 
        5.0        0.1      1.545                              1.71300800300070 
                                                                  1300800300071 
        5.0        0.1      1.593                              3.91300800300072 
                                                                  1300800300073 
        5.0        0.1      1.730                              8.61300800300074 
                                                                  1300800300075 
        5.0        0.1      1.771                             14.01300800300076 
                                                                  1300800300077 
        5.0        0.1      1.892                              2.71300800300078 
                                                                  1300800300079 
        5.0        0.1      2.094                             16.21300800300080 
                                                                  1300800300081 
        5.0        0.1                 2.617      2.652       17.91300800300082 
                                                                  1300800300083 
        5.0        0.1      2.843                              4.71300800300084 
                                                                  1300800300085 
ENDDATA             70          0                                 1300800300086 
ENDSUBENT           85          0                                 1300800399999 
ENDENTRY             3          0                                 1300899999999 
