ENTRY            13135   19891106                             00001313500000001 
SUBENT        13135001   19891106                             00001313500100001 
BIB                 10         13                                 1313500100002 
INSTITUTE  (1USAANL)                                              1313500100003 
REFERENCE  (J,NP/A,493,267,8903)                                  1313500100004 
           (R,ANL-NDM-106,8805)                                   1313500100005 
AUTHOR     (R.D.LAWSON,A.B.SMITH,P.T.GUENTHER)                    1313500100006 
TITLE      NEUTRON SCATERING AND THE FERMI SURFACE ANOMALY IN 51V.1313500100007 
FACILITY   (DYNAM) TANDEM DYNAMITRON                              1313500100008 
INC-SOURCE (D-D)                                                  1313500100009 
METHOD     (TOF)                                                  1313500100010 
MONITOR    (1-H-1(N,EL)1-H-1,,SIG)                                1313500100011 
STATUS     DATA RECEIVED VIA ELECTRONIC MAIL 88/7/11              1313500100012 
           (APRVD) A.B.SMITH, 88/12/21.                           1313500100013 
HISTORY    (881115C)                                              1313500100014 
           (891106A) REFERENCE UPDATE.                            1313500100015 
ENDBIB              13          0                                 1313500100016 
NOCOMMON             0          0                                 1313500100017 
ENDSUBENT           16          0                                 1313500199999 
SUBENT        13135002   19890111                             00001313500200001 
BIB                  3         10                                 1313500200002 
REACTION   (23-V-0(N,EL)23-V-0,,DA)                               1313500200003 
ERR-ANALYS STATISTICAL UNCERTAINTIES VARIED FROM < 1% IN REGIONS  1313500200004 
             OF LARGE CROSS SECTIONS, TO > 10% AT THE MINIMA OF   1313500200005 
             THE DISTRIBUTIONS                                    1313500200006 
           SYSTEMATIC UNCERTAINTIES ESTIMATED <= 3%, ARISING      1313500200007 
             PRIMARILY FROM ABSOLUTE CALIBRATION OF DETECTORS     1313500200008 
           UNCERTAINTY DUE TO CORRECTION PROCEDURES GENERALLY     1313500200009 
             <= 1%, EXCEPT AT MINIMA OF DISTRIBUTIONS WHERE       1313500200010 
             THEY MAY BE CONSIDERABLY LARGER                      1313500200011 
COMMENT    MULTIPLE MEASUREMENTS AT SAME ANGLE                    1313500200012 
ENDBIB              10          0                                 1313500200013 
NOCOMMON             0          0                                 1313500200014 
DATA                 4        520                                 1313500200015 
EN         ANG        DATA       DATA-ERR                         1313500200016 
MEV        ADEG       B/SR       PER-CENT                         1313500200017 
  4.5000    19.400001   1.570000  3.000000                        1313500200018 
  4.5000    24.299997   1.320000  3.000000                        1313500200019 
  4.5000    26.300001   1.260000  3.000000                        1313500200020 
  4.5000    27.200001   1.170000  3.000000                        1313500200021 
  4.5000    29.200000   1.100000  3.000000                        1313500200022 
  4.5000    34.199995    .848000  3.000000                        1313500200023 
  4.5000    37.199998    .707000  3.000000                        1313500200024 
  4.5000    42.100000    .487000  3.000000                        1313500200025 
  4.5000    45.100003    .383000  3.000000                        1313500200026 
  4.5000    50.100005    .247000  3.000000                        1313500200027 
  4.5000    53.099990    .183000  3.280000                        1313500200028 
  4.5000    57.599998    .115000  5.220001                        1313500200029 
  4.5000    60.599995    .079500  7.550000                        1313500200030 
  4.5000    65.600002    .046000 13.000000                        1313500200031 
  4.5000    68.499994    .037300 16.099998                        1313500200032 
  4.5000    73.000002    .031000 19.400001                        1313500200033 
  4.5000    75.999999    .032000 18.799999                        1313500200034 
  4.5000    80.999994    .034800 17.199999                        1313500200035 
  4.5000    84.000003    .042500 14.100000                        1313500200036 
  4.5000    88.499999    .049100 12.200001                        1313500200037 
  4.5000    91.499996    .057700 10.400000                        1313500200038 
  4.5000    96.500003    .068300  8.780000                        1313500200039 
  4.5000    99.500000    .072100  8.320000                        1313500200040 
  4.5000   104.000002    .076300  7.860000                        1313500200041 
  4.5000   106.999993    .076800  7.810000                        1313500200042 
  4.5000   111.999989    .075200  7.980000                        1313500200043 
  4.5000   115.000010    .072300  8.299999                        1313500200044 
  4.5000   119.000000    .065300  9.190000                        1313500200045 
  4.5000   122.000009    .064300  9.330000                        1313500200046 
  4.5000   127.000004    .053300 11.299999                        1313500200047 
  4.5000   129.999995    .048700 12.300000                        1313500200048 
  4.5000   134.999990    .042700 14.100000                        1313500200049 
  4.5000   138.000011    .037900 15.799999                        1313500200050 
  4.5000   143.000007    .032800 18.300000                        1313500200051 
  4.5000   145.000011    .031600 19.000000                        1313500200052 
  4.5000   145.999998    .030500 19.700000                        1313500200053 
  4.5000   148.000002    .030600 19.599998                        1313500200054 
  4.5000   152.999997    .032700 18.300000                        1313500200055 
  4.5000   155.999988    .033300 18.000001                        1313500200056 
  5.0000    16.400000   1.720000  3.040000                        1313500200057 
  5.0000    19.400001   1.620000  3.060000                        1313500200058 
  5.0000    24.299997   1.340000  3.110000                        1313500200059 
  5.0000    26.300001   1.240000  3.130000                        1313500200060 
  5.0000    27.200001   1.130000  3.140000                        1313500200061 
  5.0000    29.200000   1.090000  3.170000                        1313500200062 
  5.0000    34.199995    .812000  3.260000                        1313500200063 
  5.0000    37.199998    .648000  3.330000                        1313500200064 
  5.0000    42.100000    .439000  3.450000                        1313500200065 
  5.0000    45.100003    .340000  3.540000                        1313500200066 
  5.0000    50.100005    .213000  3.700000                        1313500200067 
  5.0000    53.099990    .141000  3.800000                        1313500200068 
  5.0000    57.599998    .087200  4.590000                        1313500200069 
  5.0000    60.599995    .059400  6.730000                        1313500200070 
  5.0000    65.600002    .032300 12.399999                        1313500200071 
  5.0000    68.499994    .023200 17.199999                        1313500200072 
  5.0000    73.000002    .020400 19.599998                        1313500200073 
  5.0000    75.999999    .021400 18.700001                        1313500200074 
  5.0000    80.999994    .027400 14.600000                        1313500200075 
  5.0000    84.000003    .034500 11.600001                        1313500200076 
  5.0000    88.499999    .043400  9.219999                        1313500200077 
  5.0000    91.499996    .051900  7.710000                        1313500200078 
  5.0000    96.500003    .058200  6.870000                        1313500200079 
  5.0000    99.500000    .062300  6.420000                        1313500200080 
  5.0000   104.000002    .065400  6.120000                        1313500200081 
  5.0000   106.999993    .066100  6.050000                        1313500200082 
  5.0000   111.999989    .064100  6.240000                        1313500200083 
  5.0000   115.000010    .059000  6.780000                        1313500200084 
  5.0000   119.000000    .051700  7.739999                        1313500200085 
  5.0000   122.000009    .049500  8.080000                        1313500200086 
  5.0000   127.000004    .042500  9.410000                        1313500200087 
  5.0000   129.999995    .036400 10.999998                        1313500200088 
  5.0000   134.999990    .030900 12.900001                        1313500200089 
  5.0000   138.000011    .028700 13.900000                        1313500200090 
  5.0000   143.000007    .024900 16.099998                        1313500200091 
  5.0000   145.000011    .023800 16.799998                        1313500200092 
  5.0000   145.999998    .023600 16.900000                        1313500200093 
  5.0000   148.000002    .023900 16.700000                        1313500200094 
  5.0000   152.999997    .025300 15.799999                        1313500200095 
  5.0000   155.999988    .026100 15.300000                        1313500200096 
  5.5000    17.800000   1.700000  3.000000                        1313500200097 
  5.5000    20.700002   1.560000  3.000000                        1313500200098 
  5.5000    25.599998   1.250000  3.000000                        1313500200099 
  5.5000    27.599996   1.140000  3.000000                        1313500200100 
  5.5000    28.599995   1.060000  3.000000                        1313500200101 
  5.5000    30.900002    .962000  3.000000                        1313500200102 
  5.5000    35.500002    .692000  3.000000                        1313500200103 
  5.5000    38.499999    .536000  3.000000                        1313500200104 
  5.5000    43.500006    .354000  3.000000                        1313500200105 
  5.5000    46.499997    .271000  3.000000                        1313500200106 
  5.5000    51.499999    .156000  3.000000                        1313500200107 
  5.5000    54.499996    .106000  3.000000                        1313500200108 
  5.5000    58.899999    .059800  3.340000                        1313500200109 
  5.5000    61.900008    .036900  5.420001                        1313500200110 
  5.5000    66.899991    .018800 10.599999                        1313500200111 
  5.5000    69.899988    .013500 14.800000                        1313500200112 
  5.5000    74.399996    .013500 14.800000                        1313500200113 
  5.5000    77.399993    .017600 11.399999                        1313500200114 
  5.5000    82.399988    .024400  8.200001                        1313500200115 
  5.5000    85.399997    .031900  6.270001                        1313500200116 
  5.5000    89.899993    .037300  5.360000                        1313500200117 
  5.5000    92.899990    .043500  4.600000                        1313500200118 
  5.5000    97.899997    .050900  3.930000                        1313500200119 
  5.5000   100.999993    .050200  3.980000                        1313500200120 
  5.5000   104.999989    .051700  3.870000                        1313500200121 
  5.5000   107.999992    .054100  3.700000                        1313500200122 
  5.5000   113.000005    .049900  4.010000                        1313500200123 
  5.5000   116.000009    .046500  4.300000                        1313500200124 
  5.5000   121.000004    .041800  4.780000                        1313500200125 
  5.5000   123.999995    .037400  5.350001                        1313500200126 
  5.5000   129.000008    .031800  6.289999                        1313500200127 
  5.5000   131.999999    .027600  7.250000                        1313500200128 
  5.5000   135.999978    .025700  7.780000                        1313500200129 
  5.5000   138.999999    .022400  8.930000                        1313500200130 
  5.5000   143.999994    .023000  8.700001                        1313500200131 
  5.5000   145.999998    .022900  8.729999                        1313500200132 
  5.5000   147.000015    .023000  8.700001                        1313500200133 
  5.5000   148.999989    .021700  9.219999                        1313500200134 
  5.5000   153.999984    .025400  7.869999                        1313500200135 
  5.5000   157.000005    .026400  7.580000                        1313500200136 
  5.9000    17.300001   1.860000  9.059999                        1313500200137 
  5.9000    20.299998   1.650000  8.090000                        1313500200138 
  5.9000    25.199997   1.450000  8.160000                        1313500200139 
  5.9000    27.200001   1.210000  7.190000                        1313500200140 
  5.9000    28.200001   1.080000  6.210001                        1313500200141 
  5.9000    30.100000   1.020000  5.250000                        1313500200142 
  5.9000    35.099995    .769000  3.360000                        1313500200143 
  5.9000    38.099998    .545000  3.430000                        1313500200144 
  5.9000    43.099993    .382000  3.550000                        1313500200145 
  5.9000    46.000004    .280000  3.620000                        1313500200146 
  5.9000    50.999999    .167000  3.740000                        1313500200147 
  5.9000    53.999996    .094600  3.840000                        1313500200148 
  5.9000    58.500004    .069000  4.030000                        1313500200149 
  5.9000    61.500001    .042900  4.660000                        1313500200150 
  5.9000    66.499996    .022800  8.770001                        1313500200151 
  5.9000    69.500005    .014600 13.700002                        1313500200152 
  5.9000    74.000001    .012300 16.299999                        1313500200153 
  5.9000    76.899993    .013900 14.399999                        1313500200154 
  5.9000    81.899989    .021500  9.299999                        1313500200155 
  5.9000    84.899998    .025600  7.810000                        1313500200156 
  5.9000    89.399993    .033300  6.010001                        1313500200157 
  5.9000    92.399991    .035600  5.620000                        1313500200158 
  5.9000    97.399998    .045900  4.360000                        1313500200159 
  5.9000    99.999994    .044700  4.470000                        1313500200160 
  5.9000   104.999989    .047100  4.250000                        1313500200161 
  5.9000   107.999992    .047800  4.180000                        1313500200162 
  5.9000   113.000005    .047600  4.200000                        1313500200163 
  5.9000   116.000009    .043800  4.570000                        1313500200164 
  5.9000   120.000005    .040000  5.000000                        1313500200165 
  5.9000   122.999996    .037100  5.390000                        1313500200166 
  5.9000   127.999991    .032500  6.150000                        1313500200167 
  5.9000   130.999982    .027000  7.409999                        1313500200168 
  5.9000   135.999978    .021000  9.520000                        1313500200169 
  5.9000   138.999999    .019100 10.499999                        1313500200170 
  5.9000   143.999994    .019300 10.400000                        1313500200171 
  5.9000   145.999998    .017400 11.500001                        1313500200172 
  5.9000   147.000015    .019800 10.099999                        1313500200173 
  5.9000   148.999989    .019100 10.499999                        1313500200174 
  5.9000   153.999984    .022200  9.010000                        1313500200175 
  5.9000   157.000005    .022300  8.970000                        1313500200176 
  6.5000    17.300001   1.950000  3.110000                        1313500200177 
  6.5000    20.199999   1.740000  3.160000                        1313500200178 
  6.5000    25.199997   1.450000  3.270000                        1313500200179 
  6.5000    27.100003   1.240000  3.320000                        1313500200180 
  6.5000    28.100002   1.190000  3.350000                        1313500200181 
  6.5000    30.100000   1.010000  3.420000                        1313500200182 
  6.5000    35.099995    .752000  3.630000                        1313500200183 
  6.5000    38.099998    .570000  3.770000                        1313500200184 
  6.5000    43.000001    .335000  4.040000                        1313500200185 
  6.5000    46.000004    .235000  4.210000                        1313500200186 
  6.5000    50.999999    .136000  4.470000                        1313500200187 
  6.5000    53.999996    .085500  4.570000                        1313500200188 
  6.5000    58.500004    .051400  4.600000                        1313500200189 
  6.5000    61.500001    .030200  4.740000                        1313500200190 
  6.5000    66.499996    .015000  7.279999                        1313500200191 
  6.5000    69.399989    .012000  8.620001                        1313500200192 
  6.5000    73.899996    .008800 11.399999                        1313500200193 
  6.5000    76.899993    .011600  8.690001                        1313500200194 
  6.5000    81.899989    .016100  6.520001                        1313500200195 
  6.5000    84.899998    .018500  5.740000                        1313500200196 
  6.5000    89.399993    .023400  4.529999                        1313500200197 
  6.5000    92.399991    .029100  3.640000                        1313500200198 
  6.5000    97.399998    .034500  3.100000                        1313500200199 
  6.5000   100.999993    .037500  3.040000                        1313500200200 
  6.5000   104.999989    .040700  3.020000                        1313500200201 
  6.5000   107.999992    .041700  3.000000                        1313500200202 
  6.5000   113.000005    .042500  3.000000                        1313500200203 
  6.5000   116.000009    .040400  3.010000                        1313500200204 
  6.5000   120.000005    .036400  3.050000                        1313500200205 
  6.5000   122.999996    .034300  3.100000                        1313500200206 
  6.5000   127.999991    .030200  3.470000                        1313500200207 
  6.5000   130.999982    .025000  4.160000                        1313500200208 
  6.5000   135.999978    .019400  5.250000                        1313500200209 
  6.5000   138.999999    .018100  5.569999                        1313500200210 
  6.5000   143.999994    .016700  5.990000                        1313500200211 
  6.5000   145.999998    .015900  6.300000                        1313500200212 
  6.5000   147.000015    .016100  6.229999                        1313500200213 
  6.5000   148.999989    .018300  5.510000                        1313500200214 
  6.5000   153.999984    .022100  4.680001                        1313500200215 
  6.5000   157.000005    .025100  4.200000                        1313500200216 
  7.1400    17.800000   1.820000  9.100001                        1313500200217 
  7.1400    20.700002   1.540000  8.139999                        1313500200218 
  7.1400    25.599998   1.240000  7.229999                        1313500200219 
  7.1400    27.599996   1.090000  6.280000                        1313500200220 
  7.1400    28.599995   1.010000  5.300000                        1313500200221 
  7.1400    30.900002    .822000  4.360000                        1313500200222 
  7.1400    35.500002    .585000  3.510000                        1313500200223 
  7.1400    38.499999    .436000  3.630000                        1313500200224 
  7.1400    43.500006    .255000  3.850000                        1313500200225 
  7.1400    46.499997    .155000  4.000000                        1313500200226 
  7.1400    51.499999    .090100  4.220001                        1313500200227 
  7.1400    54.499996    .053100  4.260000                        1313500200228 
  7.1400    58.899999    .030500  6.560000                        1313500200229 
  7.1400    61.900008    .019600 10.200000                        1313500200230 
  7.1400    66.899991    .014900 13.400000                        1313500200231 
  7.1400    69.899988    .012200 16.400000                        1313500200232 
  7.1400    74.399996    .010800 18.500000                        1313500200233 
  7.1400    77.399993    .011000 18.200001                        1313500200234 
  7.1400    82.399988    .014300 14.000002                        1313500200235 
  7.1400    85.399997    .017200 11.600001                        1313500200236 
  7.1400    89.899993    .021500  9.299999                        1313500200237 
  7.1400    92.899990    .023900  8.370001                        1313500200238 
  7.1400    97.899997    .030500  6.560000                        1313500200239 
  7.1400   100.999993    .033700  5.930001                        1313500200240 
  7.1400   104.999989    .034300  5.829999                        1313500200241 
  7.1400   107.999992    .036900  5.420001                        1313500200242 
  7.1400   113.000005    .037700  5.310000                        1313500200243 
  7.1400   116.000009    .037000  5.410000                        1313500200244 
  7.1400   121.000004    .032300  6.190000                        1313500200245 
  7.1400   123.999995    .027700  7.220000                        1313500200246 
  7.1400   129.000008    .023000  8.700001                        1313500200247 
  7.1400   131.999999    .019900 10.099999                        1313500200248 
  7.1400   135.999978    .018100 10.999998                        1313500200249 
  7.1400   138.999999    .016800 11.900000                        1313500200250 
  7.1400   143.999994    .018900 10.599999                        1313500200251 
  7.1400   145.999998    .017100 11.700001                        1313500200252 
  7.1400   147.000015    .019700 10.200000                        1313500200253 
  7.1400   148.999989    .018100 10.999998                        1313500200254 
  7.1400   153.999984    .024200  8.260000                        1313500200255 
  7.1400   157.000005    .025700  7.780000                        1313500200256 
  7.5000    16.299999   1.890000  3.300000                        1313500200257 
  7.5000    24.200001   1.240000  3.630000                        1313500200258 
  7.5000    26.099998   1.040000  3.730000                        1313500200259 
  7.5000    27.100003   1.050000  3.790000                        1313500200260 
  7.5000    29.100001    .919000  3.900000                        1313500200261 
  7.5000    34.099996    .525000  4.200000                        1313500200262 
  7.5000    37.099999    .405000  4.399999                        1313500200263 
  7.5000    41.999996    .238000  4.710000                        1313500200264 
  7.5000    44.999999    .175000  4.880000                        1313500200265 
  7.5000    50.000000    .077200  5.080000                        1313500200266 
  7.5000    52.999997    .051200  5.120000                        1313500200267 
  7.5000    57.500005    .030500  6.560000                        1313500200268 
  7.5000    60.500002    .020800  9.620001                        1313500200269 
  7.5000    65.499997    .011800 16.900000                        1313500200270 
  7.5000    68.399990    .011200 17.900002                        1313500200271 
  7.5000    72.899997    .010600 18.900001                        1313500200272 
  7.5000    75.899994    .011800 16.900000                        1313500200273 
  7.5000    80.899990    .013100 15.300000                        1313500200274 
  7.5000    83.899999    .015200 13.200003                        1313500200275 
  7.5000    88.399994    .019800 10.099999                        1313500200276 
  7.5000    91.399992    .023100  8.659999                        1313500200277 
  7.5000    96.399999    .026500  7.550000                        1313500200278 
  7.5000    99.399996    .030900  6.470001                        1313500200279 
  7.5000   104.000002    .032300  6.190000                        1313500200280 
  7.5000   105.999988    .035000  5.710000                        1313500200281 
  7.5000   110.999984    .032800  6.100000                        1313500200282 
  7.5000   114.000005    .031900  6.270001                        1313500200283 
  7.5000   119.000000    .029800  6.710000                        1313500200284 
  7.5000   122.000009    .027900  7.170000                        1313500200285 
  7.5000   127.000004    .019900 10.099999                        1313500200286 
  7.5000   130.999982    .018400 10.900000                        1313500200287 
  7.5000   134.000003    .015600 12.799999                        1313500200288 
  7.5000   136.999995    .015300 13.099998                        1313500200289 
  7.5000   142.000020    .015500 12.900001                        1313500200290 
  7.5000   143.999994    .017100 11.700001                        1313500200291 
  7.5000   145.999998    .018500 10.799999                        1313500200292 
  7.5000   147.000015    .020700  9.660000                        1313500200293 
  7.5000   152.999997    .024800  8.060000                        1313500200294 
  8.0300    16.599998   1.910000  9.090000                        1313500200295 
  8.0300    19.499999   1.690000  9.129999                        1313500200296 
  8.0300    24.499997   1.300000  8.230000                        1313500200297 
  8.0300    26.400006   1.100000  7.270000                        1313500200298 
  8.0300    27.400005   1.060000  6.300000                        1313500200299 
  8.0300    29.400003    .891000  5.350001                        1313500200300 
  8.0300    34.399998    .589000  4.529999                        1313500200301 
  8.0300    37.400001    .432000  3.650000                        1313500200302 
  8.0300    42.300004    .218000  3.870000                        1313500200303 
  8.0300    45.300007    .146000  3.990000                        1313500200304 
  8.0300    50.300002    .076100  4.010000                        1313500200305 
  8.0300    53.299999    .049000  4.080000                        1313500200306 
  8.0300    57.800007    .027700  7.220000                        1313500200307 
  8.0300    60.800004    .019300 10.400000                        1313500200308 
  8.0300    65.799999    .013700 14.600000                        1313500200309 
  8.0300    68.699992    .011400 17.500001                        1313500200310 
  8.0300    73.199999    .010600 19.999999                        1313500200311 
  8.0300    76.199996    .010900 18.300000                        1313500200312 
  8.0300    81.199992    .011400 17.500001                        1313500200313 
  8.0300    84.200001    .013500 14.800000                        1313500200314 
  8.0300    88.699996    .015200 13.200003                        1313500200315 
  8.0300    91.699994    .019900 10.099999                        1313500200316 
  8.0300    96.700001    .023900  8.370001                        1313500200317 
  8.0300    99.699998    .027500  7.270000                        1313500200318 
  8.0300   104.000002    .029400  6.800001                        1313500200319 
  8.0300   106.999993    .031700  6.310000                        1313500200320 
  8.0300   111.999989    .033000  6.060001                        1313500200321 
  8.0300   115.000010    .031400  6.370000                        1313500200322 
  8.0300   120.000005    .025600  7.810000                        1313500200323 
  8.0300   122.999996    .022300  8.970000                        1313500200324 
  8.0300   127.999991    .018000 11.100001                        1313500200325 
  8.0300   130.999982    .015200 13.200003                        1313500200326 
  8.0300   134.999990    .013000 15.399998                        1313500200327 
  8.0300   138.000011    .013700 14.600000                        1313500200328 
  8.0300   143.000007    .015500 12.900001                        1313500200329 
  8.0300   145.000011    .017400 11.500001                        1313500200330 
  8.0300   145.999998    .018300 10.900000                        1313500200331 
  8.0300   148.000002    .020900  9.570000                        1313500200332 
  8.0300   152.999997    .030400  6.580000                        1313500200333 
  8.0300   155.999988    .033300  6.010001                        1313500200334 
  8.4000    18.900001   1.690000  9.000000                        1313500200335 
  8.4000    21.799999   1.440000  8.000000                        1313500200336 
  8.4000    26.700002   1.020000  7.000000                        1313500200337 
  8.4000    28.700000    .878000  6.000000                        1313500200338 
  8.4000    29.700005    .783000  5.000000                        1313500200339 
  8.4000    31.999999    .671000  4.000000                        1313500200340 
  8.4000    36.699998    .396000  3.000000                        1313500200341 
  8.4000    39.600003    .271000  3.000000                        1313500200342 
  8.4000    44.599998    .152000  3.000000                        1313500200343 
  8.4000    47.600001    .093600  3.000000                        1313500200344 
  8.4000    52.600002    .044300  4.510000                        1313500200345 
  8.4000    55.599999    .028600  6.990000                        1313500200346 
  8.4000    60.100007    .016200 12.300000                        1313500200347 
  8.4000    63.099992    .012600 15.899998                        1313500200348 
  8.4000    67.999995    .010900 18.300000                        1313500200349 
  8.4000    71.000004    .009800 20.400000                        1313500200350 
  8.4000    75.999999    .011200 17.900002                        1313500200351 
  8.4000    78.499997    .011800 16.900000                        1313500200352 
  8.4000    83.500004    .014400 13.900000                        1313500200353 
  8.4000    86.500001    .016200 12.300000                        1313500200354 
  8.4000    90.999997    .018200 10.999998                        1313500200355 
  8.4000    94.000006    .020700  9.660000                        1313500200356 
  8.4000    99.000001    .024900  8.030001                        1313500200357 
  8.4000   101.999998    .026600  7.520001                        1313500200358 
  8.4000   105.999988    .029000  6.899999                        1313500200359 
  8.4000   109.999985    .029400  6.800001                        1313500200360 
  8.4000   114.000005    .029000  6.899999                        1313500200361 
  8.4000   117.000014    .025200  7.939999                        1313500200362 
  8.4000   122.000009    .022600  8.850000                        1313500200363 
  8.4000   125.000000    .017800 11.200002                        1313500200364 
  8.4000   129.999995    .015300 13.099998                        1313500200365 
  8.4000   132.999986    .012900 15.500000                        1313500200366 
  8.4000   136.999995    .012100 16.500002                        1313500200367 
  8.4000   140.000015    .014300 14.000002                        1313500200368 
  8.4000   145.000011    .016700 12.000000                        1313500200369 
  8.4000   147.000015    .022600  8.850000                        1313500200370 
  8.4000   148.000002    .022900  8.729999                        1313500200371 
  8.4000   150.000006    .028200  7.090000                        1313500200372 
  8.4000   155.000001    .035300  5.670000                        1313500200373 
  9.0600    17.099997   1.760000  9.000000                        1313500200374 
  9.0600    17.900002   1.750000  8.329999                        1313500200375 
  9.0600    20.099998   1.510000  7.000000                        1313500200376 
  9.0600    20.800000   1.420000  6.430000                        1313500200377 
  9.0600    25.000000   1.060000  6.000000                        1313500200378 
  9.0600    25.700003   1.000000  6.660000                        1313500200379 
  9.0600    26.999998    .872000  6.000000                        1313500200380 
  9.0600    27.700001    .860000  6.760000                        1313500200381 
  9.0600    28.000003    .811000  6.000000                        1313500200382 
  9.0600    28.700000    .742000  6.819999                        1313500200383 
  9.0600    30.299997    .668000  6.000000                        1313500200384 
  9.0600    31.000000    .612000  6.949999                        1313500200385 
  9.0600    34.900004    .388000  5.000000                        1313500200386 
  9.0600    35.699999    .376000  4.260000                        1313500200387 
  9.0600    37.900001    .268000  3.000000                        1313500200388 
  9.0600    38.599998    .243000  4.460000                        1313500200389 
  9.0600    42.900002    .136000  3.000000                        1313500200390 
  9.0600    43.599999    .122000  4.790000                        1313500200391 
  9.0600    45.899999    .079200  3.000000                        1313500200392 
  9.0600    46.599996    .073600  4.920000                        1313500200393 
  9.0600    50.800002    .038900  5.140001                        1313500200394 
  9.0600    51.600003    .037100  5.580000                        1313500200395 
  9.0600    53.799999    .025900  7.720001                        1313500200396 
  9.0600    54.600000    .023400  8.549999                        1313500200397 
  9.0600    58.299994    .015900 12.599999                        1313500200398 
  9.0600    59.099996    .018000 11.100001                        1313500200399 
  9.0600    61.099994    .013600 14.700001                        1313500200400 
  9.0600    66.299999    .010900 18.300000                        1313500200401 
  9.0600    66.999996    .012600 15.899998                        1313500200402 
  9.0600    69.300008    .010800 18.500000                        1313500200403 
  9.0600    70.000005    .011400 17.500001                        1313500200404 
  9.0600    74.300003    .010300 19.400001                        1313500200405 
  9.0600    75.000000    .011500 17.400002                        1313500200406 
  9.0600    76.800001    .009500 21.099997                        1313500200407 
  9.0600    77.499998    .010900 18.300000                        1313500200408 
  9.0600    81.800008    .013100 15.300000                        1313500200409 
  9.0600    82.500005    .012900 15.500000                        1313500200410 
  9.0600    84.800005    .013900 14.399999                        1313500200411 
  9.0600    85.500002    .013900 14.399999                        1313500200412 
  9.0600    89.199996    .016500 12.100000                        1313500200413 
  9.0600    89.999998    .015200 13.200003                        1313500200414 
  9.0600    92.199993    .018900 10.599999                        1313500200415 
  9.0600    92.999995    .017200 11.700001                        1313500200416 
  9.0600    97.200000    .022900  8.729999                        1313500200417 
  9.0600    98.000002    .021800  9.620001                        1313500200418 
  9.0600    99.999994    .024500  8.160000                        1313500200419 
  9.0600   100.999993    .023100  8.970000                        1313500200420 
  9.0600   104.999989    .026500  7.550000                        1313500200421 
  9.0600   108.999997    .026200  7.630000                        1313500200422 
  9.0600   113.000005    .022700  8.809999                        1313500200423 
  9.0600   113.000005    .025600  7.830000                        1313500200424 
  9.0600   116.000009    .020700  9.660000                        1313500200425 
  9.0600   116.000009    .023500  8.510001                        1313500200426 
  9.0600   120.000005    .017900 11.200002                        1313500200427 
  9.0600   121.000004    .019600 10.200000                        1313500200428 
  9.0600   122.999996    .015900 12.599999                        1313500200429 
  9.0600   123.999995    .016800 11.900000                        1313500200430 
  9.0600   127.999991    .012400 16.099998                        1313500200431 
  9.0600   129.000008    .012000 16.700000                        1313500200432 
  9.0600   130.999982    .010300 19.400001                        1313500200433 
  9.0600   131.999999    .010600 18.900001                        1313500200434 
  9.0600   135.999978    .011900 16.799998                        1313500200435 
  9.0600   138.999999    .014100 14.200002                        1313500200436 
  9.0600   143.999994    .014800 13.499999                        1313500200437 
  9.0600   143.999994    .017900 11.200002                        1313500200438 
  9.0600   145.999998    .018400 10.900000                        1313500200439 
  9.0600   145.999998    .019200 10.400000                        1313500200440 
  9.0600   147.000015    .018100 10.999998                        1313500200441 
  9.0600   148.000002    .021000  9.520000                        1313500200442 
  9.0600   148.999989    .023400  8.590000                        1313500200443 
  9.0600   153.999984    .028700  7.200000                        1313500200444 
  9.5000    17.900002   1.550000  3.330000                        1313500200445 
  9.5000    20.800000   1.320000  3.440000                        1313500200446 
  9.5000    25.700003    .900000  3.670000                        1313500200447 
  9.5000    27.700001    .753000  3.780000                        1313500200448 
  9.5000    28.700000    .651000  3.840000                        1313500200449 
  9.5000    31.000000    .566000  3.980000                        1313500200450 
  9.5000    35.699999    .329000  4.320000                        1313500200451 
  9.5000    38.599998    .214000  4.540000                        1313500200452 
  9.5000    43.599999    .101000  4.880000                        1313500200453 
  9.5000    46.599996    .064400  4.930000                        1313500200454 
  9.5000    51.600003    .031400  6.050000                        1313500200455 
  9.5000    54.600000    .023400  7.079999                        1313500200456 
  9.5000    59.099996    .017700  8.850000                        1313500200457 
  9.5000    62.100005    .015200 10.900000                        1313500200458 
  9.5000    66.999996    .013000 13.099998                        1313500200459 
  9.5000    70.000005    .012400 13.900000                        1313500200460 
  9.5000    74.500000    .010000 18.200001                        1313500200461 
  9.5000    77.499998    .010600 16.599998                        1313500200462 
  9.5000    82.500005    .012000 14.800000                        1313500200463 
  9.5000    85.500002    .012400 15.300000                        1313500200464 
  9.5000    89.999998    .015200 13.299999                        1313500200465 
  9.5000    92.999995    .016900 12.300000                        1313500200466 
  9.5000    98.000002    .020200 10.300000                        1313500200467 
  9.5000   100.999993    .020500 10.099999                        1313500200468 
  9.5000   104.999989    .027300  7.840000                        1313500200469 
  9.5000   108.999997    .026100  7.970001                        1313500200470 
  9.5000   113.000005    .022100  9.240000                        1313500200471 
  9.5000   116.000009    .019900 10.300000                        1313500200472 
  9.5000   121.000004    .015800 12.000000                        1313500200473 
  9.5000   123.999995    .014500 13.400000                        1313500200474 
  9.5000   129.000008    .010900 17.000002                        1313500200475 
  9.5000   131.999999    .010300 17.099997                        1313500200476 
  9.5000   135.999978    .010200 17.099997                        1313500200477 
  9.5000   138.999999    .012100 15.500000                        1313500200478 
  9.5000   143.999994    .018100 10.700002                        1313500200479 
  9.5000   145.999998    .017200 11.500001                        1313500200480 
  9.5000   147.000015    .021300  9.469999                        1313500200481 
  9.5000   148.999989    .018800 10.799999                        1313500200482 
  9.5000   153.999984    .026400  7.930000                        1313500200483 
  9.5000   157.000005    .031500  7.149999                        1313500200484 
  9.9900    22.200003   1.050000  9.000000                        1313500200485 
  9.9900    27.599996    .715000  8.000000                        1313500200486 
  9.9900    27.700001    .697000  7.000000                        1313500200487 
  9.9900    28.700000    .673000  7.000000                        1313500200488 
  9.9900    31.000000    .494000  6.000000                        1313500200489 
  9.9900    32.099998    .478000  5.000000                        1313500200490 
  9.9900    35.699999    .263000  4.100000                        1313500200491 
  9.9900    37.599999    .242000  3.780000                        1313500200492 
  9.9900    42.500001    .123000  3.910000                        1313500200493 
  9.9900    43.599999    .104000  3.880000                        1313500200494 
  9.9900    46.599996    .067500  3.670000                        1313500200495 
  9.9900    51.600003    .035400  4.240000                        1313500200496 
  9.9900    54.600000    .025900  5.790000                        1313500200497 
  9.9900    58.000004    .020100  6.740000                        1313500200498 
  9.9900    59.099996    .017300  8.670000                        1313500200499 
  9.9900    62.100005    .013700 10.900000                        1313500200500 
  9.9900    63.499999    .012600 10.200000                        1313500200501 
  9.9900    66.999996    .010100 14.899999                        1313500200502 
  9.9900    68.899989    .010100 13.200003                        1313500200503 
  9.9900    70.000005    .009400 15.899998                        1313500200504 
  9.9900    74.000001    .009900 13.200003                        1313500200505 
  9.9900    77.999997    .010700 12.599999                        1313500200506 
  9.9900    83.500004    .013700 10.099999                        1313500200507 
  9.9900    85.500002    .015800  9.490000                        1313500200508 
  9.9900    88.899994    .017200  8.750000                        1313500200509 
  9.9900    89.999998    .018600  8.060000                        1313500200510 
  9.9900    92.999995    .021800  6.880000                        1313500200511 
  9.9900    94.399989    .019400  7.890000                        1313500200512 
  9.9900    98.000002    .025200  5.950000                        1313500200513 
  9.9900    99.999994    .023500  6.470001                        1313500200514 
  9.9900   100.999993    .025700  5.840000                        1313500200515 
  9.9900   104.000002    .024600  6.100000                        1313500200516 
  9.9900   104.999989    .025100  5.979999                        1313500200517 
  9.9900   108.999997    .023000  6.520001                        1313500200518 
  9.9900   109.999985    .020800  7.240000                        1313500200519 
  9.9900   113.000005    .020400  7.350000                        1313500200520 
  9.9900   115.000010    .018400  8.350000                        1313500200521 
  9.9900   116.000009    .016600  9.040000                        1313500200522 
  9.9900   121.000004    .013600 10.999998                        1313500200523 
  9.9900   123.999995    .010900 13.799998                        1313500200524 
  9.9900   125.000000    .011000 13.400000                        1313500200525 
  9.9900   129.000008    .007400 20.199999                        1313500200526 
  9.9900   131.999999    .006800 22.100002                        1313500200527 
  9.9900   134.999990    .009300 15.099999                        1313500200528 
  9.9900   135.999978    .010100 14.899999                        1313500200529 
  9.9900   140.000015    .011500 12.599999                        1313500200530 
  9.9900   143.999994    .015600  9.620001                        1313500200531 
  9.9900   145.000011    .016200  9.059999                        1313500200532 
  9.9900   145.999998    .015100  9.799999                        1313500200533 
  9.9900   145.999998    .018600  8.060000                        1313500200534 
  9.9900   147.000015    .018500  8.110001                        1313500200535 
  9.9900   150.000006    .022000  7.170000                        1313500200536 
  9.9900   155.000001    .030500  5.620000                        1313500200537 
ENDDATA            522          0                                 1313500200538 
ENDSUBENT          537          0                                 1313500299999 
SUBENT        13135003   19890111                             00001313500300001 
BIB                  1          1                                 1313500300002 
REACTION   (23-V-0(N,INL)23-V-0,PAR,SIG)                          1313500300003 
ENDBIB               1          0                                 1313500300004 
COMMON               2          3                                 1313500300005 
E-LVL-MIN  E-LVL-MAX                                              1313500300006 
MEV        MEV                                                    1313500300007 
 1.6        1.85                                                  1313500300008 
ENDCOMMON            3          0                                 1313500300009 
DATA                 3         12                                 1313500300010 
EN         DATA       DATA-ERR                                    1313500300011 
MEV        B          B                                           1313500300012 
  .4500E 01  .2090E 00  .2090E-01                                 1313500300013 
  .5000E 01  .1450E 00  .1450E-01                                 1313500300014 
  .5500E 01  .1080E 00  .1080E-01                                 1313500300015 
  .5900E 01  .0960E 00  .0960E-01                                 1313500300016 
  .6500E 01  .0639E 00  .0639E-01                                 1313500300017 
  .7100E 01  .0620E 00  .0620E-01                                 1313500300018 
  .7500E 01  .0465E 00  .0465E-01                                 1313500300019 
  .8000E 01  .0441E 00  .0441E-01                                 1313500300020 
  .8400E 01  .0448E 00  .0448E-01                                 1313500300021 
  .9060E 01  .0406E 00  .0406E-01                                 1313500300022 
  .9500E 01  .0316E 00  .0316E-01                                 1313500300023 
  .9999E 01  .0332E 00  .0332E-01                                 1313500300024 
ENDDATA             14          0                                 1313500300025 
ENDSUBENT           24          0                                 1313500399999 
ENDENTRY             3          0                                 1313599999999 
