ENTRY            13165   19890911                             00001316500000001 
SUBENT        13165001   19890911                             00001316500100001 
BIB                  8         12                                 1316500100002 
INSTITUTE  (1USALAS)                                              1316500100003 
REFERENCE  (J,PR/C,38,2019,8811)                                  1316500100004 
AUTHOR     (P.E.KOEHLER,H.A.O'BRIEN)                              1316500100005 
TITLE      22NA(N,P)22NE AND 22NA(N,ALPHA)19F CROSS SECTIONS FROM 1316500100006 
            25 MILLI-EV TO 35 KEV.                                1316500100007 
SAMPLE     22NA SAMPLES PRODUCED BY BOMBARDING AN ULTRAPURE       1316500100008 
            ALUMINUM TARGET WITH 800-MEV PROTONS. 22NA CHEMICALLY 1316500100009 
            SEPARATED AS NA-CL                                    1316500100010 
DETECTOR   (SOLST) SILICON SURFACE BARRIER DETECTORS              1316500100011 
STATUS     DATA RECEIVED BY ELECTRONIC MAIL, 89/8/10              1316500100012 
           (APRVD) P.E.KOEHLER, 89/9/11                           1316500100013 
HISTORY    (890814C)                                              1316500100014 
ENDBIB              12          0                                 1316500100015 
NOCOMMON             0          0                                 1316500100016 
ENDSUBENT           15          0                                 1316500199999 
SUBENT        13165002   19890817                             00001316500200001 
BIB                  4          5                                 1316500200002 
REACTION   (11-NA-22(N,P)10-NE-22,PAR,SIG)                        1316500200003 
FACILITY   (REAC) OMEGA WEST REACTOR                              1316500200004 
MONITOR    (79-AU-197(N,G)79-AU-198,,SIG) FLUX MONITOR            1316500200005 
ERR-ANALYS DATA UNCERTAINTY GIVEN IS TOTAL UNCERTAINTY AND        1316500200006 
           INCLUDES STATISTICAL AND SYSTEMATIC UNCERTAINTIES      1316500200007 
ENDBIB               5          0                                 1316500200008 
COMMON               1          3                                 1316500200009 
EN                                                                1316500200010 
EV                                                                1316500200011 
 0.0253                                                           1316500200012 
ENDCOMMON            3          0                                 1316500200013 
DATA                 3          2                                 1316500200014 
E-LVL      DATA       DATA-ERR                                    1316500200015 
MEV        B          B                                           1316500200016 
 0.          235.        13.                                      1316500200017 
 1.27      27600.      2400.                                      1316500200018 
ENDDATA              4          0                                 1316500200019 
ENDSUBENT           18          0                                 1316500299999 
SUBENT        13165003   19890817                             00001316500300001 
BIB                  5          8                                 1316500300002 
REACTION   (11-NA-22(N,P)10-NE-22,PAR,SIG)                        1316500300003 
FACILITY   (MESON) LAMPF                                          1316500300004 
INC-SOURCE LANSCE WHITE NEUTRON SOURCE                            1316500300005 
MONITOR    (3-LI-6(N,T)2-HE-4,,SIG) RELATIVE TO 6LI TAKEN FROM    1316500300006 
             HALE, ET AL., BNL-NCS-51619 (1982)                   1316500300007 
           ((MONIT)11-NA-22(N,P)10-NE-22,PAR,SIG) NORMALIZED TO   1316500300008 
             THERMAL VALUE                                        1316500300009 
ERR-ANALYS DATA UNCERTAINTY GIVEN IS RELATIVE UNCERTAINTY         1316500300010 
ENDBIB               8          0                                 1316500300011 
COMMON               3          3                                 1316500300012 
EN-NRM     E-LVL      MONIT                                       1316500300013 
EV         MEV        B                                           1316500300014 
 0.0253     0.         235.                                       1316500300015 
ENDCOMMON            3          0                                 1316500300016 
DATA                 3         23                                 1316500300017 
EN         DATA       DATA-ERR                                    1316500300018 
EV         B          B                                           1316500300019 
  0.754E-01   129.50       6.00                                   1316500300020 
  0.103E+00   120.10       6.00                                   1316500300021 
  0.147E+00    96.00       5.80                                   1316500300022 
  0.230E+00    70.80       4.80                                   1316500300023 
  0.350E+00    54.10       5.40                                   1316500300024 
  0.488E+00    46.50       4.60                                   1316500300025 
  0.727E+00    36.90       3.70                                   1316500300026 
  0.120E+01    32.30       3.00                                   1316500300027 
  0.180E+01    24.80       4.80                                   1316500300028 
  0.216E+01    25.50       4.70                                   1316500300029 
  0.263E+01    19.20       3.80                                   1316500300030 
  0.329E+01    19.70       3.70                                   1316500300031 
  0.422E+01    14.20       2.90                                   1316500300032 
  0.561E+01    15.70       2.90                                   1316500300033 
  0.783E+01    11.40       2.20                                   1316500300034 
  0.117E+02    11.90       2.00                                   1316500300035 
  0.169E+02     7.20       2.00                                   1316500300036 
  0.225E+02     6.20       1.70                                   1316500300037 
  0.315E+02     5.50       1.50                                   1316500300038 
  0.470E+02     6.40       1.40                                   1316500300039 
  0.775E+02     3.66       0.93                                   1316500300040 
  0.152E+03     2.97       0.69                                   1316500300041 
  0.420E+03     0.98       0.41                                   1316500300042 
ENDDATA             25          0                                 1316500300043 
ENDSUBENT           42          0                                 1316500399999 
SUBENT        13165004   19890817                             00001316500400001 
BIB                  6          9                                 1316500400002 
REACTION   (11-NA-22(N,P)10-NE-22,PAR,SIG)                        1316500400003 
FACILITY   (MESON) LAMPF                                          1316500400004 
INC-SOURCE LANSCE WHITE NEUTRON SOURCE                            1316500400005 
DETECTOR   (TELES) DELTA E-E DETECTOR TELESCOPE                   1316500400006 
MONITOR    (3-LI-6(N,T)2-HE-4,,SIG) RELATIVE TO 6LI TAKEN         1316500400007 
            FROM HALE, ET AL., BNL-NCS-51619 (1982)               1316500400008 
           ((MONIT)11-NA-22(N,P)10-NE-22,PAR,SIG) NORMALIZED TO   1316500400009 
             THERMAL VALUE                                        1316500400010 
ERR-ANALYS DATA UNCERTAINTY GIVEN IS RELATIVE UNCERTAINTY         1316500400011 
ENDBIB               9          0                                 1316500400012 
COMMON               3          3                                 1316500400013 
EN-NRM     E-LVL      MONIT                                       1316500400014 
EV         MEV        B                                           1316500400015 
 0.0253     1.27       27600.                                     1316500400016 
ENDCOMMON            3          0                                 1316500400017 
DATA                 3        191                                 1316500400018 
EN         DATA       DATA-ERR                                    1316500400019 
EV         B          B                                           1316500400020 
  0.674E-01 17000.       250.                                     1316500400021 
  0.697E-01 16780.       250.                                     1316500400022 
  0.721E-01 16570.       250.                                     1316500400023 
  0.747E-01 16090.       240.                                     1316500400024 
  0.774E-01 15350.       240.                                     1316500400025 
  0.803E-01 15300.       240.                                     1316500400026 
  0.833E-01 15030.       240.                                     1316500400027 
  0.865E-01 14670.       230.                                     1316500400028 
  0.899E-01 14570.       230.                                     1316500400029 
  0.935E-01 13960.       230.                                     1316500400030 
  0.973E-01 13850.       230.                                     1316500400031 
  0.101E+00 13870.       230.                                     1316500400032 
  0.106E+00 13620.       230.                                     1316500400033 
  0.110E+00 12810.       230.                                     1316500400034 
  0.115E+00 13060.       230.                                     1316500400035 
  0.120E+00 12090.       230.                                     1316500400036 
  0.126E+00 11990.       230.                                     1316500400037 
  0.132E+00 11610.       230.                                     1316500400038 
  0.138E+00 11510.       230.                                     1316500400039 
  0.145E+00 10980.       220.                                     1316500400040 
  0.153E+00 10610.       220.                                     1316500400041 
  0.161E+00 10080.       220.                                     1316500400042 
  0.170E+00 10290.       220.                                     1316500400043 
  0.179E+00  9790.       210.                                     1316500400044 
  0.189E+00  9800.       210.                                     1316500400045 
  0.200E+00  9310.       210.                                     1316500400046 
  0.213E+00  8860.       200.                                     1316500400047 
  0.226E+00  8510.       190.                                     1316500400048 
  0.240E+00  8400.       190.                                     1316500400049 
  0.256E+00  8200.       190.                                     1316500400050 
  0.274E+00  7810.       180.                                     1316500400051 
  0.294E+00  7460.       170.                                     1316500400052 
  0.310E+00  7370.       230.                                     1316500400053 
  0.321E+00  7220.       230.                                     1316500400054 
  0.333E+00  7360.       230.                                     1316500400055 
  0.346E+00  6900.       220.                                     1316500400056 
  0.360E+00  7000.       220.                                     1316500400057 
  0.374E+00  6320.       200.                                     1316500400058 
  0.390E+00  6480.       210.                                     1316500400059 
  0.406E+00  6220.       200.                                     1316500400060 
  0.423E+00  6390.       200.                                     1316500400061 
  0.441E+00  6380.       200.                                     1316500400062 
  0.461E+00  5940.       190.                                     1316500400063 
  0.482E+00  5880.       190.                                     1316500400064 
  0.504E+00  5860.       190.                                     1316500400065 
  0.528E+00  5700.       180.                                     1316500400066 
  0.554E+00  5290.       170.                                     1316500400067 
  0.582E+00  5130.       170.                                     1316500400068 
  0.612E+00  4960.       160.                                     1316500400069 
  0.644E+00  4700.       160.                                     1316500400070 
  0.679E+00  4690.       150.                                     1316500400071 
  0.717E+00  4660.       150.                                     1316500400072 
  0.757E+00  4570.       150.                                     1316500400073 
  0.802E+00  4440.       140.                                     1316500400074 
  0.851E+00  4330.       140.                                     1316500400075 
  0.904E+00  4050.       130.                                     1316500400076 
  0.962E+00  4070.       130.                                     1316500400077 
  0.103E+01  3960.       130.                                     1316500400078 
  0.110E+01  3530.       120.                                     1316500400079 
  0.118E+01  3660.       120.                                     1316500400080 
  0.126E+01  3360.       110.                                     1316500400081 
  0.136E+01  3300.       110.                                     1316500400082 
  0.147E+01  3410.       110.                                     1316500400083 
  0.159E+01  3060.       100.                                     1316500400084 
  0.168E+01  3440.       200.                                     1316500400085 
  0.171E+01  2710.       180.                                     1316500400086 
  0.175E+01  2940.       190.                                     1316500400087 
  0.179E+01  2940.       190.                                     1316500400088 
  0.183E+01  3070.       190.                                     1316500400089 
  0.187E+01  2830.       180.                                     1316500400090 
  0.191E+01  2860.       180.                                     1316500400091 
  0.195E+01  2710.       180.                                     1316500400092 
  0.200E+01  3000.       190.                                     1316500400093 
  0.204E+01  2790.       180.                                     1316500400094 
  0.209E+01  2710.       180.                                     1316500400095 
  0.214E+01  2460.       160.                                     1316500400096 
  0.219E+01  2490.       170.                                     1316500400097 
  0.225E+01  2470.       160.                                     1316500400098 
  0.230E+01  2370.       160.                                     1316500400099 
  0.236E+01  2320.       160.                                     1316500400100 
  0.242E+01  2400.       160.                                     1316500400101 
  0.248E+01  2320.       150.                                     1316500400102 
  0.255E+01  2430.       150.                                     1316500400103 
  0.261E+01  2270.       150.                                     1316500400104 
  0.268E+01  2340.       150.                                     1316500400105 
  0.276E+01  2400.       150.                                     1316500400106 
  0.283E+01  2270.       150.                                     1316500400107 
  0.291E+01  2520.       160.                                     1316500400108 
  0.299E+01  2060.       140.                                     1316500400109 
  0.308E+01  2150.       140.                                     1316500400110 
  0.317E+01  2190.       140.                                     1316500400111 
  0.326E+01  2100.       140.                                     1316500400112 
  0.336E+01  2160.       140.                                     1316500400113 
  0.346E+01  2030.       130.                                     1316500400114 
  0.357E+01  2220.       140.                                     1316500400115 
  0.368E+01  2100.       130.                                     1316500400116 
  0.380E+01  1900.       120.                                     1316500400117 
  0.392E+01  2020.       130.                                     1316500400118 
  0.405E+01  1850.       120.                                     1316500400119 
  0.418E+01  1730.       110.                                     1316500400120 
  0.432E+01  1860.       120.                                     1316500400121 
  0.447E+01  1840.       120.                                     1316500400122 
  0.463E+01  1940.       120.                                     1316500400123 
  0.480E+01  1830.       120.                                     1316500400124 
  0.497E+01  1830.       110.                                     1316500400125 
  0.515E+01  1790.       110.                                     1316500400126 
  0.535E+01  1830.       110.                                     1316500400127 
  0.556E+01  1780.       110.                                     1316500400128 
  0.577E+01  1770.       110.                                     1316500400129 
  0.601E+01  1600.       100.                                     1316500400130 
  0.625E+01  1602.       100.                                     1316500400131 
  0.651E+01  1630.       100.                                     1316500400132 
  0.679E+01  1710.       100.                                     1316500400133 
  0.708E+01  1480.        93.                                     1316500400134 
  0.740E+01  1542.        94.                                     1316500400135 
  0.774E+01  1411.        88.                                     1316500400136 
  0.810E+01  1450.        89.                                     1316500400137 
  0.848E+01  1376.        87.                                     1316500400138 
  0.890E+01  1399.        86.                                     1316500400139 
  0.934E+01  1373.        83.                                     1316500400140 
  0.982E+01  1389.        83.                                     1316500400141 
  0.103E+02  1359.        81.                                     1316500400142 
  0.109E+02  1314.        79.                                     1316500400143 
  0.115E+02  1322.        78.                                     1316500400144 
  0.122E+02  1218.        73.                                     1316500400145 
  0.129E+02  1096.        68.                                     1316500400146 
  0.137E+02  1173.        70.                                     1316500400147 
  0.145E+02  1265.        73.                                     1316500400148 
  0.152E+02  1099.        89.                                     1316500400149 
  0.157E+02  1090.        89.                                     1316500400150 
  0.162E+02  1069.        89.                                     1316500400151 
  0.168E+02  1139.        93.                                     1316500400152 
  0.173E+02  1024.        88.                                     1316500400153 
  0.179E+02  1069.        91.                                     1316500400154 
  0.186E+02  1133.        93.                                     1316500400155 
  0.192E+02   881.        77.                                     1316500400156 
  0.199E+02   956.        80.                                     1316500400157 
  0.207E+02   972.        81.                                     1316500400158 
  0.215E+02   975.        81.                                     1316500400159 
  0.223E+02  1028.        83.                                     1316500400160 
  0.232E+02   921.        77.                                     1316500400161 
  0.241E+02   938.        77.                                     1316500400162 
  0.251E+02   910.        74.                                     1316500400163 
  0.261E+02   867.        72.                                     1316500400164 
  0.273E+02   888.        72.                                     1316500400165 
  0.285E+02   851.        70.                                     1316500400166 
  0.297E+02   912.        73.                                     1316500400167 
  0.311E+02   756.        64.                                     1316500400168 
  0.325E+02   836.        68.                                     1316500400169 
  0.341E+02   983.        76.                                     1316500400170 
  0.358E+02   894.        69.                                     1316500400171 
  0.375E+02   816.        64.                                     1316500400172 
  0.395E+02   902.        68.                                     1316500400173 
  0.416E+02   736.        59.                                     1316500400174 
  0.438E+02   805.        62.                                     1316500400175 
  0.463E+02   674.        54.                                     1316500400176 
  0.489E+02   822.        60.                                     1316500400177 
  0.518E+02   838.        61.                                     1316500400178 
  0.550E+02   781.        57.                                     1316500400179 
  0.584E+02   798.        57.                                     1316500400180 
  0.622E+02   864.        60.                                     1316500400181 
  0.664E+02   849.        59.                                     1316500400182 
  0.710E+02   832.        57.                                     1316500400183 
  0.761E+02   825.        56.                                     1316500400184 
  0.818E+02   883.        58.                                     1316500400185 
  0.881E+02   992.        62.                                     1316500400186 
  0.952E+02  1008.        62.                                     1316500400187 
  0.103E+03  1005.        61.                                     1316500400188 
  0.112E+03  1047.        63.                                     1316500400189 
  0.122E+03  1185.        68.                                     1316500400190 
  0.134E+03  1209.        68.                                     1316500400191 
  0.148E+03  1255.        69.                                     1316500400192 
  0.163E+03  1424.        75.                                     1316500400193 
  0.182E+03  1451.        75.                                     1316500400194 
  0.203E+03  1353.        70.                                     1316500400195 
  0.229E+03  1137.        61.                                     1316500400196 
  0.260E+03   812.        47.                                     1316500400197 
  0.297E+03   487.        32.                                     1316500400198 
  0.344E+03   224.        19.                                     1316500400199 
  0.402E+03   154.        14.                                     1316500400200 
  0.476E+03    82.3        9.5                                    1316500400201 
  0.572E+03    41.8        6.3                                    1316500400202 
  0.702E+03    24.3        4.5                                    1316500400203 
  0.880E+03    13.0        3.1                                    1316500400204 
  0.114E+04     8.0        2.2                                    1316500400205 
  0.152E+04     2.7        1.2                                    1316500400206 
  0.215E+04     3.3        1.2                                    1316500400207 
  0.326E+04     0.39       0.40                                   1316500400208 
  0.551E+04     0.63       0.45                                   1316500400209 
  0.113E+05     0.40       0.28                                   1316500400210 
  0.346E+05     0.16       0.12                                   1316500400211 
ENDDATA            193          0                                 1316500400212 
ENDSUBENT          211          0                                 1316500499999 
SUBENT        13165005   19890817                             00001316500500001 
BIB                  5          7                                 1316500500002 
REACTION   (11-NA-22(N,P)10-NE-22,PAR,SIG)                        1316500500003 
FACILITY   (MESON) LAMPF                                          1316500500004 
INC-SOURCE LANSCE WHITE NEUTRON SOURCE                            1316500500005 
MONITOR    (3-LI-6(N,T)2-HE-4,,SIG) RELATIVE TO 6LI TAKEN         1316500500006 
            FROM HALE, ET AL., BNL-NCS-51619 (1982)               1316500500007 
           NORMALIZED AT THERMAL ENERGY                           1316500500008 
ERR-ANALYS DATA UNCERTAINTY GIVEN IS RELATIVE UNCERTAINTY         1316500500009 
ENDBIB               7          0                                 1316500500010 
COMMON               3          3                                 1316500500011 
EN-NRM     E-LVL      MONIT                                       1316500500012 
EV         MEV        B                                           1316500500013 
 0.0253     1.27       27600.                                     1316500500014 
ENDCOMMON            3          0                                 1316500500015 
DATA                 3         96                                 1316500500016 
EN         DATA       DATA-ERR                                    1316500500017 
EV         B          B                                           1316500500018 
  0.680E-01 17010.       190.                                     1316500500019 
  0.728E-01 16650.       190.                                     1316500500020 
  0.782E-01 16090.       180.                                     1316500500021 
  0.842E-01 15560.       180.                                     1316500500022 
  0.909E-01 14770.       180.                                     1316500500023 
  0.984E-01 14390.       180.                                     1316500500024 
  0.107E+00 13620.       170.                                     1316500500025 
  0.117E+00 12920.       170.                                     1316500500026 
  0.128E+00 12450.       170.                                     1316500500027 
  0.140E+00 11750.       170.                                     1316500500028 
  0.155E+00 11150.       170.                                     1316500500029 
  0.172E+00 10310.       160.                                     1316500500030 
  0.192E+00  9890.       160.                                     1316500500031 
  0.216E+00  9200.       150.                                     1316500500032 
  0.244E+00  8720.       140.                                     1316500500033 
  0.279E+00  7970.       130.                                     1316500500034 
  0.313E+00  7730.       170.                                     1316500500035 
  0.337E+00  7370.       170.                                     1316500500036 
  0.364E+00  7000.       160.                                     1316500500037 
  0.394E+00  6590.       150.                                     1316500500038 
  0.428E+00  6200.       150.                                     1316500500039 
  0.466E+00  6150.       140.                                     1316500500040 
  0.511E+00  5830.       140.                                     1316500500041 
  0.561E+00  5440.       130.                                     1316500500042 
  0.620E+00  5110.       120.                                     1316500500043 
  0.689E+00  4870.       120.                                     1316500500044 
  0.769E+00  4640.       110.                                     1316500500045 
  0.864E+00  4340.       100.                                     1316500500046 
  0.979E+00  4300.       100.                                     1316500500047 
  0.112E+01  4053.        95.                                     1316500500048 
  0.129E+01  3642.        85.                                     1316500500049 
  0.150E+01  3406.        80.                                     1316500500050 
  0.169E+01  3090.       130.                                     1316500500051 
  0.176E+01  3230.       150.                                     1316500500052 
  0.184E+01  2960.       140.                                     1316500500053 
  0.192E+01  2820.       130.                                     1316500500054 
  0.201E+01  2850.       130.                                     1316500500055 
  0.211E+01  2830.       130.                                     1316500500056 
  0.221E+01  2670.       130.                                     1316500500057 
  0.232E+01  2610.       120.                                     1316500500058 
  0.244E+01  2550.       120.                                     1316500500059 
  0.256E+01  2590.       120.                                     1316500500060 
  0.270E+01  2480.       120.                                     1316500500061 
  0.285E+01  2330.       110.                                     1316500500062 
  0.302E+01  2370.       110.                                     1316500500063 
  0.319E+01  2350.       110.                                     1316500500064 
  0.339E+01  2102.        99.                                     1316500500065 
  0.360E+01  2053.        96.                                     1316500500066 
  0.383E+01  2072.        97.                                     1316500500067 
  0.408E+01  1976.        92.                                     1316500500068 
  0.436E+01  1835.        86.                                     1316500500069 
  0.467E+01  1898.        87.                                     1316500500070 
  0.502E+01  1904.        87.                                     1316500500071 
  0.540E+01  1736.        81.                                     1316500500072 
  0.583E+01  1657.        77.                                     1316500500073 
  0.632E+01  1567.        72.                                     1316500500074 
  0.687E+01  1568.        72.                                     1316500500075 
  0.749E+01  1509.        68.                                     1316500500076 
  0.820E+01  1547.        69.                                     1316500500077 
  0.901E+01  1342.        62.                                     1316500500078 
  0.996E+01  1325.        59.                                     1316500500079 
  0.111E+02  1273.        57.                                     1316500500080 
  0.124E+02  1212.        54.                                     1316500500081 
  0.139E+02  1145.        51.                                     1316500500082 
  0.154E+02  1140.        66.                                     1316500500083 
  0.164E+02  1136.        69.                                     1316500500084 
  0.175E+02  1064.        67.                                     1316500500085 
  0.188E+02  1059.        66.                                     1316500500086 
  0.201E+02  1051.        64.                                     1316500500087 
  0.217E+02  1012.        62.                                     1316500500088 
  0.234E+02   986.        60.                                     1316500500089 
  0.254E+02   962.        58.                                     1316500500090 
  0.276E+02   954.        57.                                     1316500500091 
  0.301E+02   886.        53.                                     1316500500092 
  0.329E+02   891.        53.                                     1316500500093 
  0.362E+02   928.        54.                                     1316500500094 
  0.400E+02   859.        50.                                     1316500500095 
  0.445E+02   835.        48.                                     1316500500096 
  0.497E+02   764.        44.                                     1316500500097 
  0.559E+02   858.        47.                                     1316500500098 
  0.633E+02   918.        49.                                     1316500500099 
  0.723E+02   878.        46.                                     1316500500100 
  0.834E+02   941.        48.                                     1316500500101 
  0.972E+02  1017.        50.                                     1316500500102 
  0.115E+03  1139.        55.                                     1316500500103 
  0.138E+03  1360.        63.                                     1316500500104 
  0.168E+03  1477.        67.                                     1316500500105 
  0.210E+03  1312.        59.                                     1316500500106 
  0.269E+03   693.        35.                                     1316500500107 
  0.358E+03   212.        13.                                     1316500500108 
  0.499E+03    67.1        7.1                                    1316500500109 
  0.744E+03    20.3        3.3                                    1316500500110 
  0.122E+04     4.10       1.20                                   1316500500111 
  0.238E+04     1.87       0.71                                   1316500500112 
  0.651E+04     0.30       0.22                                   1316500500113 
  0.354E+05     0.35       0.12                                   1316500500114 
ENDDATA             98          0                                 1316500500115 
ENDSUBENT          114          0                                 1316500599999 
SUBENT        13165006   19890817                             00001316500600001 
BIB                  4          6                                 1316500600002 
REACTION   ((11-NA-22(N,A)9-F-19,PAR,SIG)//                       1316500600003 
           (11-NA-22(N,P)10-NE-22,PAR,SIG))                       1316500600004 
FACILITY   (REAC) OMEGA WEST REACTOR                              1316500600005 
MONITOR    (79-AU-197(N,G)79-AU-198,,SIG) FLUX MONITOR            1316500600006 
ERR-ANALYS DATA UNCERTAINTY GIVEN IS TOTAL UNCERTAINTY AND        1316500600007 
           INCLUDES STATISTICAL AND SYSTEMATIC UNCERTAINTIES      1316500600008 
ENDBIB               6          0                                 1316500600009 
COMMON               2          3                                 1316500600010 
EN         E-LVL-DN                                               1316500600011 
EV         MEV                                                    1316500600012 
 0.0253     1.27                                                  1316500600013 
ENDCOMMON            3          0                                 1316500600014 
DATA                 3          3                                 1316500600015 
E-LVL-NM   DATA       DATA-ERR                                    1316500600016 
MEV        NO-DIM     NO-DIM                                      1316500600017 
 0.         1.3    -03 0.3    -03                                 1316500600018 
 0.110      3.4    -03 0.8    -03                                 1316500600019 
 0.197      4.6    -03 1.2    -03                                 1316500600020 
ENDDATA              5          0                                 1316500600021 
ENDSUBENT           20          0                                 1316500699999 
SUBENT        13165007   19890817                             00001316500700001 
BIB                  3          5                                 1316500700002 
REACTION  1(11-NA-22(N,0),,EN)                                    1316500700003 
          2(11-NA-22(N,EL),,WID/RED)                              1316500700004 
          3(11-NA-22(N,P),PAR,WID)                                1316500700005 
ANALYSIS   R-MATRIX ANALYSIS                                      1316500700006 
ERR-ANALYS NO INFORMATION                                         1316500700007 
ENDBIB               5          0                                 1316500700008 
NOCOMMON             0          0                                 1316500700009 
DATA                 5          1                                 1316500700010 
DATA      1MOMENTUM L2DATA      2E-LVL     3DATA      3           1316500700011 
EV         NO-DIM     EV         MEV        EV                    1316500700012 
 178.       0.         2.7        1.27       148.                 1316500700013 
ENDDATA              3          0                                 1316500700014 
ENDSUBENT           13          0                                 1316500799999 
ENDENTRY             7          0                                 1316599999999 
