ENTRY            13359   20050719                             13361335900000001 
SUBENT        13359001   20050719                             13361335900100001 
BIB                 10         14                                 1335900100002 
INSTITUTE  (1USAUI)                                               1335900100003 
REFERENCE  (J,NIM,147,487,1977)                                   1335900100004 
           (T,Diiorio,1977) PH.D Thesis, Univ. of Illinois, Urbana1335900100005 
AUTHOR     (G.Diiorio,B.W.Wehring)                                1335900100006 
TITLE      Direct physical measurement of mass yields for 235U    1335900100007 
            (N(TH),F)                                             1335900100008 
FACILITY   (REAC) TRIGA                                           1335900100009 
INC-SOURCE Thru neutron beam port                                 1335900100010 
SAMPLE     Foil enriched to 93.4% 235U                            1335900100011 
METHOD     (ASEP) Hiawatha                                        1335900100012 
STATUS     (RIDER) Reference 76DII1                               1335900100013 
            Data taken from thesis                                1335900100014 
HISTORY    (19891121C) VM                                         1335900100015 
           (20050719C) DR Format updated and reference corrected  1335900100016 
ENDBIB              14          0                                 1335900100017 
COMMON               1          3                                 1335900100018 
EN-DUMMY                                                          1335900100019 
EV                                                                1335900100020 
0.0253                                                            1335900100021 
ENDCOMMON            3          0                                 1335900100022 
ENDSUBENT           21          0                                 1335900199999 
SUBENT        13359002   19891122                             13361335900200001 
BIB                  4          7                                 1335900200002 
REACTION   (92-U-235(N,F)MASS,CHN,FY,,MXW)                        1335900200003 
MONITOR    Data for heavy mass peak normalized to Meek and Rider, 1335900200004 
            NEDO-12154-1 (1974)                                   1335900200005 
CORRECTION Adjusted for delayed neutrons for A = 84-98, 133-145   1335900200006 
           Corrected for background, misidentified charge states  1335900200007 
ERR-ANALYS (DATA-ERR) Standard deviation based on counting        1335900200008 
             statistics                                           1335900200009 
ENDBIB               7          0                                 1335900200010 
NOCOMMON             0          0                                 1335900200011 
DATA                 3         64                                 1335900200012 
MASS       DATA       DATA-ERR                                    1335900200013 
NO-DIM     PC/FIS     PC/FIS                                      1335900200014 
 77.         0.0082     0.001                                     1335900200015 
 78.         0.0216     0.002                                     1335900200016 
 79.         0.0439     0.003                                     1335900200017 
 80.         0.130      0.006                                     1335900200018 
 81.         0.190      0.007                                     1335900200019 
 82.         0.321      0.009                                     1335900200020 
 83.         0.560      0.012                                     1335900200021 
 84.         1.03       0.019                                     1335900200022 
 85.         1.34       0.022                                     1335900200023 
 86.         1.99       0.023                                     1335900200024 
 87.         2.60       0.029                                     1335900200025 
 88.         3.63       0.043                                     1335900200026 
 89.         4.84       0.064                                     1335900200027 
 90.         5.88       0.045                                     1335900200028 
 91.         6.01       0.041                                     1335900200029 
 92.         6.01       0.043                                     1335900200030 
 93.         6.34       0.050                                     1335900200031 
 94.         6.43       0.049                                     1335900200032 
 95.         6.61       0.042                                     1335900200033 
 96.         6.35       0.040                                     1335900200034 
 97.         6.01       0.098                                     1335900200035 
 98.         5.60       0.097                                     1335900200036 
 99.         6.04       0.038                                     1335900200037 
100.         6.17       0.038                                     1335900200038 
101.         5.14       0.035                                     1335900200039 
102.         4.26       0.032                                     1335900200040 
103.         2.94       0.027                                     1335900200041 
104.         1.87       0.021                                     1335900200042 
105.         0.957      0.015                                     1335900200043 
106.         0.436      0.010                                     1335900200044 
107.         0.139      0.006                                     1335900200045 
108.         0.067      0.004                                     1335900200046 
109.         0.038      0.003                                     1335900200047 
110.         0.033      0.003                                     1335900200048 
125.         0.0294     0.005                                     1335900200049 
126.         0.0585     0.007                                     1335900200050 
127.         0.1233     0.009                                     1335900200051 
128.         0.3600     0.011                                     1335900200052 
129.         0.8039     0.016                                     1335900200053 
130.         1.8124     0.023                                     1335900200054 
131.         2.925      0.040                                     1335900200055 
132.         4.203      0.048                                     1335900200056 
133.         6.555      0.060                                     1335900200057 
134.         7.651      0.064                                     1335900200058 
135.         6.557      0.060                                     1335900200059 
136.         6.223      0.067                                     1335900200060 
137.         6.458      0.076                                     1335900200061 
138.         6.811      0.077                                     1335900200062 
139.         6.321      0.076                                     1335900200063 
140.         6.070      0.063                                     1335900200064 
141.         6.019      0.053                                     1335900200065 
142.         5.639      0.051                                     1335900200066 
143.         6.087      0.052                                     1335900200067 
144.         5.595      0.049                                     1335900200068 
145.         4.131      0.041                                     1335900200069 
146.         3.000      0.035                                     1335900200070 
147.         2.295      0.031                                     1335900200071 
148.         1.645      0.026                                     1335900200072 
149.         0.967      0.047                                     1335900200073 
150.         0.667      0.018                                     1335900200074 
151.         0.417      0.015                                     1335900200075 
152.         0.275      0.013                                     1335900200076 
153.         0.105      0.011                                     1335900200077 
154.         0.056      0.009                                     1335900200078 
ENDDATA             66          0                                 1335900200079 
ENDSUBENT           78          0                                 1335900299999 
ENDENTRY             2          0                                 1335999999999 
