ENTRY            13480   19930312                             00001348000000001 
SUBENT        13480001   19930312                             00001348000100001 
BIB                  9         12                                 1348000100002 
INSTITUTE  (1CANMCM)                                              1348000100003 
REFERENCE  (J,CJP,37,926,5908)                                    1348000100004 
AUTHOR     (H.R.FICKEL,R.H.TOMLINSON)                             1348000100005 
TITLE      THE CUMULATIVE FISSION YIELDS OF 21 HEAVY MASS NUCLIDES1348000100006 
            PRODUCED IN THE THERMAL FISSION OF PU239              1348000100007 
FACILITY   (REAC,1CANCRC) NRX REACTOR                             1348000100008 
SAMPLE     PUO(2) SEALED IN QUARTZ TUBES (96.1% 239PU) AND        1348000100009 
           PU-AL ALLOY (13.9% PU OF WHICH 96.1% WAS 239PU)        1348000100010 
ERR-ANALYS NO INFORMATION                                         1348000100011 
STATUS     DATA TAKEN FROM PAPER                                  1348000100012 
HISTORY    (920429C)                                              1348000100013 
           (930312A) CONVERTED TO LOWER CASE                      1348000100014 
ENDBIB              12          0                                 1348000100015 
COMMON               1          3                                 1348000100016 
EN-DUMMY                                                          1348000100017 
EV                                                                1348000100018 
 0.0253                                                           1348000100019 
ENDCOMMON            3          0                                 1348000100020 
ENDSUBENT           19          0                                 1348000199999 
SUBENT        13480002   19930312                             00001348000200001 
BIB                  6         24                                 1348000200002 
REACTION  1(94-PU-239(N,F)MASS,CHN,FY,,SPA) PUO(2) SAMPLE         1348000200003 
          2(94-PU-239(N,F)MASS,CHN,FY,,SPA) PU-AL ALLOY SAMPLE    1348000200004 
MONITOR    ((MONIT1)27-CO-59(N,G)27-CO-60,,SIG,,SPA) FLUX MONITOR 1348000200005 
           ((MONIT2)94-PU-239(N,F),,SIG,,SPA)                     1348000200006 
           NEUTRON TEMPERATURE DETERMINED USING SM MONITOR AND    1348000200007 
            SPECTROMETRIC RATIO OF 150SM/149SM FOR PU-AL ALLOY.   1348000200008 
METHOD     (ASEP,CHSEP) ANALYSED BY MASS SPECTROMETER AND BY      1348000200009 
            ISOTOPE DILUTION,                                     1348000200010 
            PUO(2) SAMPLE 8 MONTHS AFTER IRRADIATION,             1348000200011 
            PU-AL ALLOY 16 MONTHS AFTER IRRADIATION.              1348000200012 
ANALYSIS   CALCULATED FROM RELATIVE CUMULATIVE YIELDS FOR         1348000200013 
            ELEMENTS CS, BA, CE, ND, AND SM AND THE ABSOLUTE      1348000200014 
            NUMBER OF ATOMS OF ONE ISOTOPE OF EACH ELEMENT.       1348000200015 
           SUMMED TO 100%, ASSUMING INTERPOLATED VALUES (IN %)    1348000200016 
          1 FOR PUO(2): 118-130 (5.65), 138 (6.37), 139 (6.00),   1348000200017 
             141 (5.10), 153 (0.45),  155 (0.17),  156 (0.08).    1348000200018 
          2 FOR PU-AL ALLOY: 118-130 (5.75), 139 (5.97),          1348000200019 
             141 (5.36), 153 (0.45),  155 (0.17),  156 (0.08).    1348000200020 
STATUS     (DEP,13480003) FROM CUMULATIVE YIELDS, SEE ANALYSIS    1348000200021 
           (DEP,13480004)                                         1348000200022 
           (DEP,13480005)                                         1348000200023 
           (DEP,13480006)                                         1348000200024 
           (DEP,13480007)                                         1348000200025 
HISTORY    (930312A) STATUS CORRECTED                             1348000200026 
ENDBIB              24          0                                 1348000200027 
COMMON               2          3                                 1348000200028 
MONIT1     MONIT2                                                 1348000200029 
B          B                                                      1348000200030 
 36.9      872.                                                   1348000200031 
ENDCOMMON            3          0                                 1348000200032 
DATA                 3         21                                 1348000200033 
MASS       DATA      1DATA      2                                 1348000200034 
NO-DIM     PC/FIS     PC/FIS                                      1348000200035 
131.        3.80       3.73                                       1348000200036 
132.        5.30       5.21                                       1348000200037 
133.        6.96       6.83                                       1348000200038 
134.        7.52       7.39                                       1348000200039 
135.        7.32       7.17                                       1348000200040 
136.        6.69       6.56                                       1348000200041 
137.        6.54       6.42                                       1348000200042 
138.                   6.25                                       1348000200043 
140.        5.50       5.66                                       1348000200044 
142.        4.90       5.03                                       1348000200045 
143.        4.50       4.61                                       1348000200046 
144.        3.78       3.89                                       1348000200047 
145.        3.08       3.16                                       1348000200048 
146.        2.53       2.60                                       1348000200049 
147.        2.02       1.96                                       1348000200050 
148.        1.69       1.73                                       1348000200051 
149.        1.32       1.28                                       1348000200052 
150.        1.00       1.03                                       1348000200053 
151.        0.814      0.790                                      1348000200054 
152.        0.625      0.606                                      1348000200055 
154.        0.297      0.289                                      1348000200056 
ENDDATA             23          0                                 1348000200057 
ENDSUBENT           56          0                                 1348000299999 
SUBENT        13480003   19920429                             00001348000300001 
BIB                  3          8                                 1348000300002 
REACTION   ((94-PU-239(N,F)ELEM/MASS,CUM,FY,,SPA)/                1348000300003 
           (94-PU-239(N,F)55-CS-133,CUM,FY,,SPA))                 1348000300004 
METHOD     (ASEP) ANALYZED BY MASS SPECTROMETER                   1348000300005 
            PU-O(2) SAMPLE 8 MONTHS AFTER IRRADIATION,            1348000300006 
            PU-AL ALLOY 16 MONTHS AFTER IRRADIATION.              1348000300007 
CORRECTION 135CS YIELD CORRECTED FOR 3.45E+6-B ABSORPTION CROSS   1348000300008 
            SECTION OF 135XE.                                     1348000300009 
           137CS YIELD CORRECTED FOR 26.6-YEAR HALF-LIFE OF 137CS.1348000300010 
ENDBIB               8          0                                 1348000300011 
COMMON               1          3                                 1348000300012 
ELEMENT                                                           1348000300013 
NO-DIM                                                            1348000300014 
 55.                                                              1348000300015 
ENDCOMMON            3          0                                 1348000300016 
DATA                 3          2                                 1348000300017 
MASS       DATA       DATA-ERR                                    1348000300018 
NO-DIM     NO-DIM     NO-DIM                                      1348000300019 
135.        1.05       0.15                                       1348000300020 
137.        0.940      0.013                                      1348000300021 
ENDDATA              4          0                                 1348000300022 
ENDSUBENT           21          0                                 1348000399999 
SUBENT        13480004   19920429                             00001348000400001 
BIB                  3          6                                 1348000400002 
REACTION   ((94-PU-239(N,F)ELEM/MASS,CUM,FY,,SPA)/                1348000400003 
           (94-PU-239(N,F)60-ND-143,CUM,FY,,SPA))                 1348000400004 
METHOD     (ASEP) ANALYZED BY MASS SPECTROMETER                   1348000400005 
            PU-O(2) SAMPLE 8 MONTHS AFTER IRRADIATION,            1348000400006 
            PU-AL ALLOY 16 MONTHS AFTER IRRADIATION.              1348000400007 
CORRECTION 144ND YIELD CORRECTED FOR 278-DAY HALF-LIFE OF 144CE.  1348000400008 
ENDBIB               6          0                                 1348000400009 
COMMON               1          3                                 1348000400010 
ELEMENT                                                           1348000400011 
NO-DIM                                                            1348000400012 
 60.                                                              1348000400013 
ENDCOMMON            3          0                                 1348000400014 
DATA                 3          5                                 1348000400015 
MASS       DATA       DATA-ERR                                    1348000400016 
NO-DIM     NO-DIM     NO-DIM                                      1348000400017 
144.        0.841      0.010                                      1348000400018 
145.        0.685      0.008                                      1348000400019 
146.        0.563      0.008                                      1348000400020 
148.        0.375      0.006                                      1348000400021 
150.        0.223      0.003                                      1348000400022 
ENDDATA              7          0                                 1348000400023 
ENDSUBENT           22          0                                 1348000499999 
SUBENT        13480005   19920429                             00001348000500001 
BIB                  3          6                                 1348000500002 
REACTION   ((94-PU-239(N,F)ELEM/MASS,CUM,FY,,SPA)/                1348000500003 
           (94-PU-239(N,F)58-CE-142,CUM,FY,,SPA))                 1348000500004 
METHOD     (ASEP) ANALYZED BY MASS SPECTROMETER                   1348000500005 
            PU-O(2) SAMPLE 8 MONTHS AFTER IRRADIATION,            1348000500006 
            PU-AL ALLOY 16 MONTHS AFTER IRRADIATION.              1348000500007 
CORRECTION 144CE YIELD CORRECTED FOR 278-DAY HALF-LIFE            1348000500008 
ENDBIB               6          0                                 1348000500009 
COMMON               1          3                                 1348000500010 
ELEMENT                                                           1348000500011 
NO-DIM                                                            1348000500012 
 58.                                                              1348000500013 
ENDCOMMON            3          0                                 1348000500014 
DATA                 3          2                                 1348000500015 
MASS       DATA       DATA-ERR                                    1348000500016 
NO-DIM     NO-DIM     NO-DIM                                      1348000500017 
140.        1.12       0.01                                       1348000500018 
144.        0.773      0.006                                      1348000500019 
ENDDATA              4          0                                 1348000500020 
ENDSUBENT           19          0                                 1348000599999 
SUBENT        13480006   19920429                             00001348000600001 
BIB                  3          8                                 1348000600002 
REACTION   ((94-PU-239(N,F)ELEM/MASS,CUM,FY,,SPA)/                1348000600003 
           (94-PU-239(N,F)62-SM-149,CUM,FY,,SPA))                 1348000600004 
METHOD     (ASEP) ANALYZED BY MASS SPECTROMETER                   1348000600005 
            PU-O(2) SAMPLE 8 MONTHS AFTER IRRADIATION,            1348000600006 
            PU-AL ALLOY 16 MONTHS AFTER IRRADIATION.              1348000600007 
CORRECTION 147SM YIELD CORRECTED FOR 2.52-YEAR HALF-LIFE OF 147PM.1348000600008 
           151,152SM YIELDS CORRECTED FOR 12,800-B CROSS SECTION  1348000600009 
            OF 151SM.                                             1348000600010 
ENDBIB               8          0                                 1348000600011 
COMMON               1          3                                 1348000600012 
ELEMENT                                                           1348000600013 
NO-DIM                                                            1348000600014 
 62.                                                              1348000600015 
ENDCOMMON            3          0                                 1348000600016 
DATA                 3          4                                 1348000600017 
MASS       DATA       DATA-ERR                                    1348000600018 
NO-DIM     NO-DIM     NO-DIM                                      1348000600019 
147.        1.846      0.027                                      1348000600020 
151.        0.7410     0.0074                                     1348000600021 
152.        0.5685     0.0045                                     1348000600022 
154.        0.2719     0.0035                                     1348000600023 
ENDDATA              6          0                                 1348000600024 
ENDSUBENT           23          0                                 1348000699999 
SUBENT        13480007   19920429                             00001348000700001 
BIB                  2          6                                 1348000700002 
REACTION   ((94-PU-239(N,F)ELEM/MASS,CUM,FY,,SPA)/                1348000700003 
           (94-PU-239(N,F)56-BA-138,CUM,FY,,SPA))                 1348000700004 
METHOD     (ASEP,CHSEP) ANALYZED BY MASS SPECTROMETER AND BY      1348000700005 
            ISOTOPE DILUTION,                                     1348000700006 
            PU-O(2) SAMPLE 8 MONTHS AFTER IRRADIATION,            1348000700007 
            PU-AL ALLOY 16 MONTHS AFTER IRRADIATION.              1348000700008 
ENDBIB               6          0                                 1348000700009 
COMMON               1          3                                 1348000700010 
ELEMENT                                                           1348000700011 
NO-DIM                                                            1348000700012 
 56.                                                              1348000700013 
ENDCOMMON            3          0                                 1348000700014 
DATA                 3          2                                 1348000700015 
MASS       DATA       DATA-ERR                                    1348000700016 
NO-DIM     NO-DIM     NO-DIM                                      1348000700017 
134.        0.2484     0.0025                                     1348000700018 
136.        0.1097     0.0019                                     1348000700019 
ENDDATA              4          0                                 1348000700020 
ENDSUBENT           19          0                                 1348000799999 
ENDENTRY             7          0                                 1348099999999 
