ENTRY            13505   19920319                             00001350500000001 
SUBENT        13505001   19920319                             00001350500100001 
BIB                 14         25                                 1350500100002 
INSTITUTE  (1USAANL)                                              1350500100003 
REFERENCE  (J,PR/C,45,1260,9203)                                  1350500100004 
           (R,ANL-NDM-119,9106)                                   1350500100005 
AUTHOR     (S.CHIBA,P.T.GUENTHUR,A.B.SMITH,M.SUGIMOTO,R.D.LAWSON) 1350500100006 
TITLE      FAST-NEUTRON INTERACTION WITH ELEMENTAL ZIRCONIUM AND  1350500100007 
            THE DISPERSIVE OPTICAL MODEL                          1350500100008 
INC-SOURCE (D-D)                                                  1350500100009 
INC-SPECT  MEAN ENERGY DETERMINED TO <= 20 KEV.                   1350500100010 
SAMPLE     SOLID METAL CYLINDERS OF NATURAL ZIRCONIUM.            1350500100011 
           CHEMICAL PURITY > 99%.                                 1350500100012 
METHOD     (TOF)                                                  1350500100013 
           HIGHER-RESOLUTION MEASUREMENTS MADE AT SELECTED        1350500100014 
            ENERGIES USING 14.52-M FLIGHT PATH AT 80 DEGREES.     1350500100015 
DETECTOR   (SCIN) ORGANIC LIQUID SCINTILLATORS.                   1350500100016 
MONITOR    (1-H-1(N,EL)1-H-1,,DA) POLYETHYLENE                    1350500100017 
           RELATIVE ENERGY DEPENDENCE OF DETECTORS DETERMINED     1350500100018 
            RELATIVE TO NEUTRONS EMIITED BY 252CF SPONTANEOUS     1350500100019 
            FISSION.                                              1350500100020 
CORRECTION CORRECTED FOR MULTIPLE-EVENT, ANGULAR-RESOLUTION, AND  1350500100021 
            BEAM-ATTENUATION EFFECTS                              1350500100022 
ERR-ANALYS (DATA-ERR) ESTIMATE OF TOTAL UNCERTAINTY               1350500100023 
STATUS     DATA RECEIVED BY EMAIL FROM A.B.SMITH, 91/8/19         1350500100024 
           (APRVD) A.B.SMITH, 91/9/23                             1350500100025 
HISTORY    (910820C)                                              1350500100026 
           (920319A) REFERENCE UPDATE                             1350500100027 
ENDBIB              25          0                                 1350500100028 
NOCOMMON             0          0                                 1350500100029 
ENDSUBENT           28          0                                 1350500199999 
SUBENT        13505002   19910820                             00001350500200001 
BIB                  2          2                                 1350500200002 
REACTION   (40-ZR-0(N,EL)40-ZR-0,,DA)                             1350500200003 
COMMENT    DUPLICATE VALUES GIVEN AT SOME ENERGIES                1350500200004 
ENDBIB               2          0                                 1350500200005 
NOCOMMON             0          0                                 1350500200006 
DATA                 4       1279                                 1350500200007 
EN         ANG        DATA       DATA-ERR                         1350500200008 
MEV        ADEG       B/SR       PER-CENT                         1350500200009 
   4.5       16.4000    1.6400    4.5000                          1350500200010 
   4.5       18.2000    1.6000    4.5000                          1350500200011 
   4.5       19.4000    1.4000    4.5000                          1350500200012 
   4.5       21.2000    1.2700    4.5000                          1350500200013 
   4.5       24.3000    1.0600    4.5000                          1350500200014 
   4.5       26.1000    0.8510    4.5000                          1350500200015 
   4.5       26.3000    0.8910    4.5000                          1350500200016 
   4.5       27.2000    0.7890    4.5000                          1350500200017 
   4.5       28.1000    0.8030    4.5000                          1350500200018 
   4.5       29.1000    0.6500    4.5000                          1350500200019 
   4.5       29.2000    0.6750    4.5000                          1350500200020 
   4.5       31.4000    0.5270    4.5000                          1350500200021 
   4.5       34.2000    0.3930    4.5000                          1350500200022 
   4.5       36.0000    0.2640    4.5000                          1350500200023 
   4.5       37.2000    0.2470    4.5000                          1350500200024 
   4.5       39.0000    0.1650    4.5000                          1350500200025 
   4.5       42.1000    0.0987    4.5000                          1350500200026 
   4.5       44.0000    0.0742    4.5000                          1350500200027 
   4.5       45.1000    0.0544    5.8820                          1350500200028 
   4.5       47.0000    0.0350    9.1430                          1350500200029 
   4.5       50.1000    0.0310   10.3200                          1350500200030 
   4.5       51.9000    0.0388    8.2470                          1350500200031 
   4.5       53.1000    0.0390    8.2050                          1350500200032 
   4.5       54.9000    0.0619    5.1700                          1350500200033 
   4.5       57.6000    0.0749    4.5000                          1350500200034 
   4.5       59.4000    0.0889    4.5000                          1350500200035 
   4.5       60.6000    0.1020    4.5000                          1350500200036 
   4.5       62.4000    0.1280    4.5000                          1350500200037 
   4.5       65.6000    0.1450    4.5000                          1350500200038 
   4.5       67.4000    0.1630    4.5000                          1350500200039 
   4.5       68.5000    0.1680    4.5000                          1350500200040 
   4.5       70.4000    0.1830    4.5000                          1350500200041 
   4.5       73.0000    0.1900    4.5000                          1350500200042 
   4.5       75.0000    0.1900    4.5000                          1350500200043 
   4.5       76.0000    0.1880    4.5000                          1350500200044 
   4.5       77.9000    0.1820    4.5000                          1350500200045 
   4.5       81.0000    0.1700    4.5000                          1350500200046 
   4.5       83.1000    0.1510    4.5000                          1350500200047 
   4.5       84.0000    0.1530    4.5000                          1350500200048 
   4.5       85.9000    0.1270    4.5000                          1350500200049 
   4.5       88.5000    0.1120    4.5000                          1350500200050 
   4.5       90.3000    0.1030    4.5000                          1350500200051 
   4.5       91.5000    0.0904    4.5000                          1350500200052 
   4.5       93.3000    0.0746    4.5000                          1350500200053 
   4.5       96.5000    0.0585    5.4700                          1350500200054 
   4.5       98.3000    0.0441    7.2560                          1350500200055 
   4.5       99.5000    0.0425    7.5290                          1350500200056 
   4.5      101.0000    0.0323    9.9070                          1350500200057 
   4.5      104.0000    0.0236   13.5600                          1350500200058 
   4.5      106.0000    0.0204   15.6900                          1350500200059 
   4.5      107.0000    0.0193   16.5800                          1350500200060 
   4.5      109.0000    0.0169   18.9300                          1350500200061 
   4.5      112.0000    0.0160   20.0000                          1350500200062 
   4.5      114.0000    0.0194   16.4900                          1350500200063 
   4.5      115.0000    0.0189   16.9300                          1350500200064 
   4.5      117.0000    0.0216   14.8100                          1350500200065 
   4.5      119.0000    0.0269   11.9000                          1350500200066 
   4.5      121.0000    0.0279   11.4700                          1350500200067 
   4.5      122.0000    0.0297   10.7700                          1350500200068 
   4.5      124.0000    0.0335    9.5520                          1350500200069 
   4.5      127.0000    0.0381    8.3990                          1350500200070 
   4.5      129.0000    0.0404    7.9210                          1350500200071 
   4.5      130.0000    0.0448    7.1430                          1350500200072 
   4.5      132.0000    0.0464    6.8970                          1350500200073 
   4.5      135.0000    0.0480    6.6670                          1350500200074 
   4.5      137.0000    0.0541    5.9150                          1350500200075 
   4.5      138.0000    0.0531    6.0260                          1350500200076 
   4.5      140.0000    0.0568    5.6340                          1350500200077 
   4.5      143.0000    0.0569    5.6240                          1350500200078 
   4.5      145.0000    0.0615    5.2030                          1350500200079 
   4.5      145.0000    0.0613    5.2200                          1350500200080 
   4.5      146.0000    0.0611    5.2370                          1350500200081 
   4.5      147.0000    0.0659    4.8560                          1350500200082 
   4.5      148.0000    0.0635    5.0390                          1350500200083 
   4.5      148.0000    0.0643    4.9770                          1350500200084 
   4.5      150.0000    0.0738    4.5000                          1350500200085 
   4.5      153.0000    0.0778    4.5000                          1350500200086 
   4.5      155.0000    0.0858    4.5000                          1350500200087 
   4.5      156.0000    0.0880    4.5000                          1350500200088 
   4.5      157.0000    0.1000    4.5000                          1350500200089 
   5.0       14.5000    1.9600    4.0000                          1350500200090 
   5.0       16.4000    1.7800    4.0000                          1350500200091 
   5.0       17.4000    1.6300    4.0000                          1350500200092 
   5.0       18.2000    1.6300    4.0000                          1350500200093 
   5.0       19.4000    1.4900    4.0000                          1350500200094 
   5.0       21.2000    1.3900    4.0000                          1350500200095 
   5.0       22.3000    1.2100    4.0000                          1350500200096 
   5.0       24.3000    1.0700    4.0000                          1350500200097 
   5.0       24.3000    1.0500    4.0000                          1350500200098 
   5.0       25.3000    0.9270    4.0000                          1350500200099 
   5.0       26.1000    0.9110    4.0000                          1350500200100 
   5.0       26.3000    0.9150    4.0000                          1350500200101 
   5.0       27.2000    0.7670    4.0000                          1350500200102 
   5.0       27.5000    0.8040    4.0000                          1350500200103 
   5.0       28.1000    0.7430    4.0000                          1350500200104 
   5.0       29.1000    0.6400    4.0000                          1350500200105 
   5.0       29.2000    0.6880    4.0000                          1350500200106 
   5.0       31.4000    0.5290    4.0000                          1350500200107 
   5.0       32.2000    0.4530    4.0000                          1350500200108 
   5.0       34.2000    0.3700    4.1600                          1350500200109 
   5.0       35.2000    0.2720    4.0000                          1350500200110 
   5.0       36.0000    0.2490    4.0000                          1350500200111 
   5.0       37.2000    0.2110    4.6100                          1350500200112 
   5.0       39.0000    0.1270    4.0000                          1350500200113 
   5.0       40.1000    0.1150    4.0000                          1350500200114 
   5.0       42.1000    0.0781    5.8200                          1350500200115 
   5.0       43.1000    0.0585    5.1280                          1350500200116 
   5.0       44.0000    0.0382    7.8530                          1350500200117 
   5.0       45.1000    0.0364    8.2420                          1350500200118 
   5.0       47.0000    0.0214   14.0200                          1350500200119 
   5.0       48.1000    0.0184   16.3000                          1350500200120 
   5.0       50.1000    0.0177   16.9500                          1350500200121 
   5.0       51.1000    0.0236   12.7100                          1350500200122 
   5.0       51.9000    0.0327    9.1740                          1350500200123 
   5.0       53.1000    0.0330    9.0910                          1350500200124 
   5.0       54.9000    0.0620    4.8390                          1350500200125 
   5.0       55.6000    0.0517    5.8030                          1350500200126 
   5.0       57.6000    0.0642    4.6730                          1350500200127 
   5.0       58.6000    0.0843    4.0000                          1350500200128 
   5.0       59.4000    0.1010    4.0000                          1350500200129 
   5.0       60.6000    0.1000    4.0000                          1350500200130 
   5.0       62.4000    0.1330    4.0000                          1350500200131 
   5.0       63.6000    0.1410    4.0000                          1350500200132 
   5.0       65.6000    0.1420    4.0000                          1350500200133 
   5.0       66.6000    0.1690    4.0000                          1350500200134 
   5.0       67.4000    0.1810    4.0000                          1350500200135 
   5.0       68.5000    0.1610    4.0000                          1350500200136 
   5.0       70.4000    0.1890    4.0000                          1350500200137 
   5.0       71.1000    0.1780    4.0000                          1350500200138 
   5.0       73.0000    0.1730    4.0000                          1350500200139 
   5.0       74.0000    0.1810    4.0000                          1350500200140 
   5.0       75.0000    0.1820    4.0000                          1350500200141 
   5.0       76.0000    0.1730    4.0000                          1350500200142 
   5.0       77.9000    0.1730    4.0000                          1350500200143 
   5.0       79.2000    0.1620    4.0000                          1350500200144 
   5.0       81.0000    0.1540    4.0000                          1350500200145 
   5.0       82.0000    0.1500    4.0000                          1350500200146 
   5.0       83.1000    0.1430    4.0000                          1350500200147 
   5.0       84.0000    0.1280    4.0000                          1350500200148 
   5.0       85.9000    0.1100    4.0000                          1350500200149 
   5.0       86.5000    0.1180    4.0000                          1350500200150 
   5.0       88.5000    0.0983    4.0000                          1350500200151 
   5.0       89.5000    0.0924    4.0000                          1350500200152 
   5.0       90.3000    0.0821    4.0000                          1350500200153 
   5.0       91.5000    0.0780    4.0000                          1350500200154 
   5.0       93.3000    0.0617    4.8620                          1350500200155 
   5.0       94.5000    0.0545    5.5050                          1350500200156 
   5.0       96.5000    0.0458    6.5500                          1350500200157 
   5.0       97.5000    0.0381    7.8740                          1350500200158 
   5.0       98.3000    0.0350    8.5710                          1350500200159 
   5.0       99.5000    0.0293   10.2400                          1350500200160 
   5.0      101.0000    0.0184   16.3000                          1350500200161 
   5.0      102.0000    0.0210   14.2900                          1350500200162 
   5.0      104.0000    0.0175   17.1400                          1350500200163 
   5.0      105.0000    0.0164   18.2900                          1350500200164 
   5.0      106.0000    0.0129   23.2600                          1350500200165 
   5.0      107.0000    0.0121   24.7900                          1350500200166 
   5.0      109.0000    0.0138   21.7400                          1350500200167 
   5.0      110.0000    0.0143   20.9800                          1350500200168 
   5.0      112.0000    0.0147   20.4100                          1350500200169 
   5.0      113.0000    0.0163   18.4000                          1350500200170 
   5.0      114.0000    0.0200   15.0000                          1350500200171 
   5.0      115.0000    0.0204   14.7100                          1350500200172 
   5.0      117.0000    0.0261   11.4900                          1350500200173 
   5.0      117.0000    0.0226   13.2700                          1350500200174 
   5.0      119.0000    0.0262   11.4500                          1350500200175 
   5.0      120.0000    0.0305    9.8360                          1350500200176 
   5.0      121.0000    0.0312    9.6150                          1350500200177 
   5.0      122.0000    0.0342    8.7720                          1350500200178 
   5.0      124.0000    0.0399    7.5190                          1350500200179 
   5.0      125.0000    0.0387    7.7520                          1350500200180 
   5.0      127.0000    0.0428    7.0090                          1350500200181 
   5.0      128.0000    0.0444    6.7570                          1350500200182 
   5.0      129.0000    0.0476    6.3030                          1350500200183 
   5.0      130.0000    0.0445    6.7420                          1350500200184 
   5.0      132.0000    0.0479    6.2630                          1350500200185 
   5.0      133.0000    0.0464    6.4660                          1350500200186 
   5.0      135.0000    0.0464    6.4660                          1350500200187 
   5.0      136.0000    0.0467    6.4240                          1350500200188 
   5.0      137.0000    0.0461    6.5080                          1350500200189 
   5.0      138.0000    0.0461    6.5080                          1350500200190 
   5.0      140.0000    0.0491    6.1100                          1350500200191 
   5.0      141.0000    0.0503    5.9640                          1350500200192 
   5.0      143.0000    0.0476    6.3030                          1350500200193 
   5.0      143.0000    0.0464    6.4660                          1350500200194 
   5.0      144.0000    0.0497    6.0360                          1350500200195 
   5.0      145.0000    0.0462    6.4940                          1350500200196 
   5.0      145.0000    0.0546    5.4950                          1350500200197 
   5.0      146.0000    0.0501    5.9880                          1350500200198 
   5.0      146.0000    0.0507    5.9170                          1350500200199 
   5.0      147.0000    0.0550    5.4550                          1350500200200 
   5.0      148.0000    0.0495    6.0610                          1350500200201 
   5.0      148.0000    0.0501    5.9880                          1350500200202 
   5.0      150.0000    0.0518    5.7920                          1350500200203 
   5.0      151.0000    0.0517    5.8030                          1350500200204 
   5.0      153.0000    0.0566    5.3000                          1350500200205 
   5.0      154.0000    0.0559    5.3670                          1350500200206 
   5.0      155.0000    0.0726    4.1320                          1350500200207 
   5.0      156.0000    0.0613    4.8940                          1350500200208 
   5.0      157.0000    0.0713    4.2080                          1350500200209 
   5.5       14.5000    2.1600    4.0000                          1350500200210 
   5.5       17.4000    1.8800    4.0000                          1350500200211 
   5.5       17.8000    1.7500    4.0000                          1350500200212 
   5.5       20.7000    1.4800    4.0000                          1350500200213 
   5.5       21.2000    1.4700    4.0000                          1350500200214 
   5.5       22.3000    1.3800    4.0000                          1350500200215 
   5.5       24.3000    1.1400    4.0000                          1350500200216 
   5.5       25.3000    1.0900    4.0000                          1350500200217 
   5.5       25.6000    0.9690    4.0000                          1350500200218 
   5.5       26.1000    0.9610    4.0000                          1350500200219 
   5.5       27.5000    0.8600    4.0000                          1350500200220 
   5.5       27.6000    0.8060    4.0000                          1350500200221 
   5.5       28.6000    0.6670    4.0000                          1350500200222 
   5.5       29.1000    0.7150    4.0000                          1350500200223 
   5.5       30.9000    0.5540    4.0000                          1350500200224 
   5.5       31.4000    0.5140    4.0000                          1350500200225 
   5.5       32.2000    0.4820    4.0000                          1350500200226 
   5.5       35.2000    0.3110    4.0000                          1350500200227 
   5.5       35.5000    0.2640    4.0000                          1350500200228 
   5.5       36.0000    0.2380    4.0000                          1350500200229 
   5.5       38.5000    0.1370    4.8400                          1350500200230 
   5.5       39.0000    0.1300    4.0000                          1350500200231 
   5.5       40.1000    0.1050    4.0000                          1350500200232 
   5.5       43.1000    0.0469    6.3970                          1350500200233 
   5.5       43.5000    0.0384    7.8800                          1350500200234 
   5.5       46.5000    0.0173   17.3400                          1350500200235 
   5.5       47.0000    0.0161   18.6300                          1350500200236 
   5.5       48.1000    0.0138   21.7400                          1350500200237 
   5.5       51.1000    0.0252   11.9000                          1350500200238 
   5.5       51.5000    0.0233   12.8800                          1350500200239 
   5.5       51.9000    0.0337    8.9020                          1350500200240 
   5.5       54.5000    0.0518    5.7920                          1350500200241 
   5.5       54.9000    0.0604    4.9670                          1350500200242 
   5.5       55.6000    0.0601    4.9920                          1350500200243 
   5.5       58.6000    0.0896    4.0000                          1350500200244 
   5.5       58.9000    0.0883    4.0000                          1350500200245 
   5.5       61.9000    0.1260    4.0000                          1350500200246 
   5.5       62.4000    0.1370    4.0000                          1350500200247 
   5.5       63.6000    0.1410    4.0000                          1350500200248 
   5.5       66.6000    0.1660    4.0000                          1350500200249 
   5.5       66.9000    0.1640    4.0000                          1350500200250 
   5.5       67.4000    0.1750    4.0000                          1350500200251 
   5.5       69.9000    0.1730    4.0000                          1350500200252 
   5.5       70.4000    0.1940    4.0000                          1350500200253 
   5.5       71.1000    0.1780    4.0000                          1350500200254 
   5.5       74.0000    0.1780    4.0000                          1350500200255 
   5.5       74.4000    0.1720    4.0000                          1350500200256 
   5.5       77.4000    0.1660    4.0000                          1350500200257 
   5.5       77.9000    0.1630    4.0000                          1350500200258 
   5.5       79.2000    0.1560    4.0000                          1350500200259 
   5.5       82.0000    0.1370    4.0000                          1350500200260 
   5.5       82.4000    0.1270    4.0000                          1350500200261 
   5.5       83.1000    0.1280    4.0000                          1350500200262 
   5.5       85.4000    0.1030    4.0000                          1350500200263 
   5.5       85.9000    0.1040    4.0000                          1350500200264 
   5.5       86.5000    0.1050    4.0000                          1350500200265 
   5.5       89.5000    0.0846    4.0000                          1350500200266 
   5.5       89.9000    0.0775    4.0000                          1350500200267 
   5.5       92.9000    0.0569    5.2720                          1350500200268 
   5.5       93.3000    0.0529    5.6710                          1350500200269 
   5.5       94.5000    0.0484    6.1980                          1350500200270 
   5.5       97.5000    0.0312    9.6150                          1350500200271 
   5.5       97.9000    0.0282   10.6400                          1350500200272 
   5.5       98.3000    0.0252   11.9000                          1350500200273 
   5.5      101.0000    0.0136   22.0600                          1350500200274 
   5.5      101.0000    0.0162   18.5200                          1350500200275 
   5.5      102.0000    0.0146   20.5500                          1350500200276 
   5.5      105.0000    0.0123   24.3900                          1350500200277 
   5.5      105.0000    0.0120   25.0000                          1350500200278 
   5.5      108.0000    0.0126   23.8100                          1350500200279 
   5.5      109.0000    0.0117   25.6400                          1350500200280 
   5.5      110.0000    0.0124   24.1900                          1350500200281 
   5.5      113.0000    0.0184   16.3000                          1350500200282 
   5.5      113.0000    0.0210   14.2900                          1350500200283 
   5.5      114.0000    0.0216   13.8900                          1350500200284 
   5.5      116.0000    0.0257   11.6700                          1350500200285 
   5.5      117.0000    0.0278   10.7900                          1350500200286 
   5.5      117.0000    0.0272   11.0300                          1350500200287 
   5.5      120.0000    0.0355    8.4510                          1350500200288 
   5.5      121.0000    0.0353    8.4990                          1350500200289 
   5.5      124.0000    0.0417    7.1940                          1350500200290 
   5.5      124.0000    0.0401    7.4810                          1350500200291 
   5.5      125.0000    0.0415    7.2290                          1350500200292 
   5.5      128.0000    0.0482    6.2240                          1350500200293 
   5.5      129.0000    0.0471    6.3690                          1350500200294 
   5.5      129.0000    0.0445    6.7420                          1350500200295 
   5.5      132.0000    0.0499    6.0120                          1350500200296 
   5.5      132.0000    0.0501    5.9880                          1350500200297 
   5.5      133.0000    0.0496    6.0480                          1350500200298 
   5.5      136.0000    0.0495    6.0610                          1350500200299 
   5.5      136.0000    0.0475    6.3160                          1350500200300 
   5.5      139.0000    0.0474    6.3290                          1350500200301 
   5.5      140.0000    0.0483    6.2110                          1350500200302 
   5.5      141.0000    0.0488    6.1480                          1350500200303 
   5.5      143.0000    0.0434    6.9120                          1350500200304 
   5.5      144.0000    0.0441    6.8030                          1350500200305 
   5.5      144.0000    0.0448    6.6960                          1350500200306 
   5.5      145.0000    0.0453    6.6230                          1350500200307 
   5.5      146.0000    0.0414    7.2460                          1350500200308 
   5.5      146.0000    0.0425    7.0590                          1350500200309 
   5.5      147.0000    0.0454    6.6080                          1350500200310 
   5.5      148.0000    0.0455    6.5930                          1350500200311 
   5.5      149.0000    0.0417    7.1940                          1350500200312 
   5.5      150.0000    0.0468    6.4100                          1350500200313 
   5.5      151.0000    0.0407    7.3710                          1350500200314 
   5.5      154.0000    0.0452    6.6370                          1350500200315 
   5.5      154.0000    0.0443    6.7720                          1350500200316 
   5.5      155.0000    0.0534    5.6180                          1350500200317 
   5.5      157.0000    0.0563    5.3290                          1350500200318 
   5.5      157.0000    0.0472    6.3560                          1350500200319 
   5.9       14.5000    2.3300    4.0000                          1350500200320 
   5.9       17.4000    1.9300    4.0000                          1350500200321 
   5.9       18.2000    1.7400    4.0000                          1350500200322 
   5.9       21.1000    1.4400    4.0000                          1350500200323 
   5.9       22.3000    1.3300    4.0000                          1350500200324 
   5.9       24.3000    1.2000    4.0000                          1350500200325 
   5.9       25.2000    1.1800    4.0000                          1350500200326 
   5.9       25.3000    1.0600    4.0000                          1350500200327 
   5.9       26.1000    0.9700    4.0000                          1350500200328 
   5.9       27.2000    1.0000    4.0000                          1350500200329 
   5.9       27.5000    0.8270    4.0000                          1350500200330 
   5.9       28.0000    0.7700    4.0000                          1350500200331 
   5.9       28.2000    0.8390    4.0000                          1350500200332 
   5.9       29.0000    0.6820    4.0000                          1350500200333 
   5.9       31.3000    0.5330    4.0000                          1350500200334 
   5.9       32.2000    0.4280    4.0000                          1350500200335 
   5.9       35.1000    0.3410    4.5200                          1350500200336 
   5.9       35.2000    0.2710    4.0000                          1350500200337 
   5.9       36.0000    0.2610    4.0000                          1350500200338 
   5.9       38.1000    0.1810    5.1600                          1350500200339 
   5.9       39.0000    0.1380    4.0000                          1350500200340 
   5.9       40.1000    0.1030    4.0000                          1350500200341 
   5.9       43.1000    0.0415    5.3010                          1350500200342 
   5.9       43.1000    0.0589    6.9900                          1350500200343 
   5.9       43.9000    0.0356    6.1800                          1350500200344 
   5.9       46.0000    0.0218   10.0900                          1350500200345 
   5.9       46.9000    0.0171   12.8700                          1350500200346 
   5.9       48.1000    0.0188   11.7000                          1350500200347 
   5.9       51.0000    0.0199   11.0600                          1350500200348 
   5.9       51.1000    0.0292    7.5340                          1350500200349 
   5.9       51.9000    0.0263    8.3650                          1350500200350 
   5.9       54.0000    0.0434    5.1000                          1350500200351 
   5.9       54.9000    0.0526    4.1830                          1350500200352 
   5.9       55.6000    0.0628    4.0000                          1350500200353 
   5.9       58.5000    0.0901    4.0000                          1350500200354 
   5.9       58.6000    0.0986    4.0000                          1350500200355 
   5.9       59.4000    0.1040    4.0000                          1350500200356 
   5.9       61.5000    0.1220    4.0000                          1350500200357 
   5.9       62.4000    0.1330    4.0000                          1350500200358 
   5.9       63.6000    0.1450    4.0000                          1350500200359 
   5.9       66.5000    0.1660    4.0000                          1350500200360 
   5.9       66.6000    0.1610    4.0000                          1350500200361 
   5.9       67.4000    0.1680    4.0000                          1350500200362 
   5.9       69.5000    0.1760    4.0000                          1350500200363 
   5.9       70.3000    0.1730    4.0000                          1350500200364 
   5.9       71.1000    0.1710    4.0000                          1350500200365 
   5.9       74.0000    0.1690    4.0000                          1350500200366 
   5.9       74.0000    0.1810    4.0000                          1350500200367 
   5.9       74.9000    0.1680    4.0000                          1350500200368 
   5.9       76.9000    0.1670    4.0000                          1350500200369 
   5.9       77.8000    0.1590    4.0000                          1350500200370 
   5.9       79.2000    0.1430    4.0000                          1350500200371 
   5.9       81.9000    0.1420    4.0000                          1350500200372 
   5.9       82.0000    0.1270    4.0000                          1350500200373 
   5.9       83.0000    0.1270    4.0000                          1350500200374 
   5.9       84.9000    0.1120    4.0000                          1350500200375 
   5.9       85.8000    0.1070    4.0000                          1350500200376 
   5.9       86.5000    0.0935    4.0000                          1350500200377 
   5.9       89.4000    0.0858    4.0000                          1350500200378 
   5.9       89.5000    0.0706    4.0000                          1350500200379 
   5.9       90.3000    0.0683    4.0000                          1350500200380 
   5.9       92.4000    0.0584    4.0000                          1350500200381 
   5.9       93.3000    0.0496    4.4350                          1350500200382 
   5.9       94.5000    0.0366    6.0110                          1350500200383 
   5.9       97.4000    0.0308    7.1430                          1350500200384 
   5.9       97.5000    0.0241    9.1290                          1350500200385 
   5.9       98.3000    0.0248    8.8710                          1350500200386 
   5.9      100.0000    0.0181   12.1500                          1350500200387 
   5.9      101.0000    0.0154   14.2900                          1350500200388 
   5.9      102.0000    0.0149   14.7700                          1350500200389 
   5.9      105.0000    0.0103   21.3600                          1350500200390 
   5.9      105.0000    0.0100   22.0900                          1350500200391 
   5.9      106.0000    0.0110   20.0000                          1350500200392 
   5.9      108.0000    0.0100   22.0000                          1350500200393 
   5.9      109.0000    0.0114   19.3000                          1350500200394 
   5.9      110.0000    0.0140   15.7100                          1350500200395 
   5.9      113.0000    0.0192   11.4600                          1350500200396 
   5.9      113.0000    0.0158   13.9200                          1350500200397 
   5.9      114.0000    0.0198   11.1100                          1350500200398 
   5.9      116.0000    0.0240    9.1670                          1350500200399 
   5.9      117.0000    0.0277    7.9420                          1350500200400 
   5.9      117.0000    0.0259    8.4940                          1350500200401 
   5.9      120.0000    0.0347    6.3400                          1350500200402 
   5.9      120.0000    0.0338    6.5090                          1350500200403 
   5.9      121.0000    0.0357    6.1620                          1350500200404 
   5.9      123.0000    0.0392    5.6120                          1350500200405 
   5.9      124.0000    0.0444    4.9550                          1350500200406 
   5.9      125.0000    0.0434    5.0690                          1350500200407 
   5.9      128.0000    0.0474    4.6410                          1350500200408 
   5.9      128.0000    0.0510    4.3140                          1350500200409 
   5.9      129.0000    0.0477    4.6120                          1350500200410 
   5.9      131.0000    0.0510    4.3140                          1350500200411 
   5.9      132.0000    0.0493    4.4620                          1350500200412 
   5.9      133.0000    0.0507    4.3390                          1350500200413 
   5.9      136.0000    0.0479    4.5930                          1350500200414 
   5.9      136.0000    0.0482    4.5640                          1350500200415 
   5.9      137.0000    0.0463    4.7520                          1350500200416 
   5.9      139.0000    0.0438    5.0230                          1350500200417 
   5.9      140.0000    0.0456    4.8250                          1350500200418 
   5.9      141.0000    0.0420    5.2380                          1350500200419 
   5.9      143.0000    0.0424    5.1890                          1350500200420 
   5.9      144.0000    0.0417    5.2760                          1350500200421 
   5.9      144.0000    0.0406    5.4190                          1350500200422 
   5.9      145.0000    0.0385    5.7140                          1350500200423 
   5.9      146.0000    0.0334    6.5870                          1350500200424 
   5.9      146.0000    0.0366    6.0110                          1350500200425 
   5.9      147.0000    0.0365    6.0270                          1350500200426 
   5.9      147.0000    0.0407    5.4050                          1350500200427 
   5.9      148.0000    0.0393    5.5980                          1350500200428 
   5.9      149.0000    0.0369    5.9620                          1350500200429 
   5.9      150.0000    0.0374    5.8820                          1350500200430 
   5.9      151.0000    0.0337    6.5280                          1350500200431 
   5.9      154.0000    0.0387    5.6850                          1350500200432 
   5.9      154.0000    0.0343    6.4140                          1350500200433 
   5.9      155.0000    0.0387    5.6850                          1350500200434 
   5.9      157.0000    0.0412    5.3400                          1350500200435 
   5.9      157.0000    0.0368    5.9780                          1350500200436 
   6.5       14.5000    2.7400    4.0000                          1350500200437 
   6.5       17.4000    2.2800    4.0000                          1350500200438 
   6.5       18.2000    2.0900    4.0000                          1350500200439 
   6.5       21.1000    1.6300    4.0000                          1350500200440 
   6.5       22.3000    1.6000    4.0000                          1350500200441 
   6.5       24.3000    1.3200    4.0000                          1350500200442 
   6.5       25.3000    1.2200    4.0000                          1350500200443 
   6.5       26.1000    1.0900    4.0000                          1350500200444 
   6.5       27.5000    0.9560    4.0000                          1350500200445 
   6.5       28.0000    0.8360    4.0000                          1350500200446 
   6.5       29.0000    0.7570    4.0000                          1350500200447 
   6.5       31.3000    0.5600    4.0000                          1350500200448 
   6.5       32.2000    0.5050    4.0000                          1350500200449 
   6.5       35.2000    0.3020    4.0000                          1350500200450 
   6.5       36.0000    0.2550    4.0000                          1350500200451 
   6.5       39.0000    0.1380    4.0000                          1350500200452 
   6.5       40.1000    0.0967    4.0000                          1350500200453 
   6.5       43.1000    0.0464    4.7400                          1350500200454 
   6.5       43.9000    0.0413    5.3300                          1350500200455 
   6.5       46.9000    0.0227    9.6900                          1350500200456 
   6.5       48.1000    0.0214   10.3000                          1350500200457 
   6.5       51.1000    0.0375    5.8700                          1350500200458 
   6.5       51.9000    0.0401    5.4900                          1350500200459 
   6.5       54.9000    0.0667    4.0000                          1350500200460 
   6.5       55.6000    0.0755    4.0000                          1350500200461 
   6.5       58.6000    0.0986    4.0000                          1350500200462 
   6.5       59.4000    0.1090    4.0000                          1350500200463 
   6.5       62.4000    0.1310    4.0000                          1350500200464 
   6.5       63.6000    0.1400    4.0000                          1350500200465 
   6.5       66.6000    0.1490    4.0000                          1350500200466 
   6.5       67.4000    0.1600    4.0000                          1350500200467 
   6.5       70.3000    0.1620    4.0000                          1350500200468 
   6.5       71.1000    0.1600    4.0000                          1350500200469 
   6.5       74.0000    0.1520    4.0000                          1350500200470 
   6.5       74.9000    0.1530    4.0000                          1350500200471 
   6.5       77.8000    0.1380    4.0000                          1350500200472 
   6.5       79.2000    0.1260    4.0000                          1350500200473 
   6.5       82.0000    0.1100    4.0000                          1350500200474 
   6.5       83.0000    0.1060    4.0000                          1350500200475 
   6.5       85.8000    0.0874    4.0000                          1350500200476 
   6.5       86.5000    0.0760    4.0000                          1350500200477 
   6.5       89.5000    0.0598    4.0000                          1350500200478 
   6.5       90.3000    0.0567    4.0000                          1350500200479 
   6.5       93.3000    0.0406    5.4200                          1350500200480 
   6.5       94.5000    0.0313    7.0300                          1350500200481 
   6.5       97.5000    0.0213   10.3000                          1350500200482 
   6.5       98.3000    0.0193   11.4000                          1350500200483 
   6.5      101.0000    0.0136   16.2000                          1350500200484 
   6.5      102.0000    0.0104   21.2000                          1350500200485 
   6.5      105.0000    0.0078   28.2000                          1350500200486 
   6.5      106.0000    0.0110   20.0000                          1350500200487 
   6.5      109.0000    0.0121   18.2000                          1350500200488 
   6.5      110.0000    0.0134   16.4000                          1350500200489 
   6.5      113.0000    0.0191   11.5000                          1350500200490 
   6.5      114.0000    0.0217   10.1000                          1350500200491 
   6.5      117.0000    0.0305    7.2100                          1350500200492 
   6.5      117.0000    0.0292    7.5300                          1350500200493 
   6.5      120.0000    0.0382    5.7600                          1350500200494 
   6.5      121.0000    0.0390    5.6400                          1350500200495 
   6.5      124.0000    0.0430    5.1200                          1350500200496 
   6.5      125.0000    0.0459    4.7900                          1350500200497 
   6.5      128.0000    0.0528    4.1700                          1350500200498 
   6.5      129.0000    0.0477    4.6100                          1350500200499 
   6.5      132.0000    0.0493    4.4600                          1350500200500 
   6.5      133.0000    0.0524    4.2000                          1350500200501 
   6.5      136.0000    0.0469    4.6900                          1350500200502 
   6.5      137.0000    0.0481    4.5700                          1350500200503 
   6.5      140.0000    0.0419    5.2500                          1350500200504 
   6.5      141.0000    0.0404    5.4500                          1350500200505 
   6.5      143.0000    0.0384    5.7300                          1350500200506 
   6.5      144.0000    0.0382    5.7600                          1350500200507 
   6.5      145.0000    0.0351    6.2700                          1350500200508 
   6.5      146.0000    0.0333    6.6100                          1350500200509 
   6.5      147.0000    0.0346    6.3600                          1350500200510 
   6.5      148.0000    0.0314    7.0100                          1350500200511 
   6.5      150.0000    0.0300    7.3300                          1350500200512 
   6.5      151.0000    0.0286    7.6900                          1350500200513 
   6.5      154.0000    0.0287    7.6700                          1350500200514 
   6.5      155.0000    0.0284    7.7500                          1350500200515 
   6.5      157.0000    0.0306    7.1900                          1350500200516 
   7.14      14.5000    3.0000    4.0000                          1350500200517 
   7.14      17.4000    2.4100    4.0000                          1350500200518 
   7.14      17.8000    2.4300    4.0000                          1350500200519 
   7.14      18.2000    2.2900    4.0000                          1350500200520 
   7.14      20.7000    1.8100    4.0000                          1350500200521 
   7.14      21.1000    1.7900    4.0000                          1350500200522 
   7.14      22.3000    1.6500    4.0000                          1350500200523 
   7.14      24.3000    1.3000    4.0000                          1350500200524 
   7.14      25.3000    1.1300    4.0000                          1350500200525 
   7.14      25.6000    1.2600    4.0000                          1350500200526 
   7.14      26.1000    1.1300    4.0000                          1350500200527 
   7.14      27.5000    0.9380    4.0000                          1350500200528 
   7.14      27.6000    0.9500    4.0000                          1350500200529 
   7.14      28.0000    0.9190    4.0000                          1350500200530 
   7.14      28.6000    0.8300    4.0000                          1350500200531 
   7.14      29.0000    0.7960    4.0000                          1350500200532 
   7.14      30.9000    0.5690    4.0000                          1350500200533 
   7.14      31.3000    0.5550    4.0000                          1350500200534 
   7.14      32.2000    0.4490    4.0000                          1350500200535 
   7.14      35.5000    0.2830    4.0000                          1350500200536 
   7.14      36.0000    0.2410    4.0000                          1350500200537 
   7.14      38.5000    0.1430    4.8100                          1350500200538 
   7.14      39.0000    0.1260    4.0000                          1350500200539 
   7.14      40.1000    0.0953    4.0000                          1350500200540 
   7.14      43.1000    0.0440    5.0000                          1350500200541 
   7.14      43.5000    0.0432    5.4200                          1350500200542 
   7.14      43.9000    0.0379    5.8000                          1350500200543 
   7.14      46.5000    0.0305    7.2100                          1350500200544 
   7.14      46.9000    0.0287    7.6700                          1350500200545 
   7.14      48.1000    0.0364    6.0400                          1350500200546 
   7.14      51.1000    0.0581    4.0000                          1350500200547 
   7.14      51.5000    0.0537    4.1000                          1350500200548 
   7.14      51.9000    0.0528    4.1700                          1350500200549 
   7.14      54.5000    0.0776    4.0000                          1350500200550 
   7.14      54.9000    0.0766    4.0000                          1350500200551 
   7.14      55.6000    0.0871    4.0000                          1350500200552 
   7.14      58.6000    0.1110    4.0000                          1350500200553 
   7.14      58.9000    0.1130    4.0000                          1350500200554 
   7.14      59.4000    0.1160    4.0000                          1350500200555 
   7.14      61.9000    0.1350    4.0000                          1350500200556 
   7.14      62.4000    0.1350    4.0000                          1350500200557 
   7.14      63.6000    0.1380    4.0000                          1350500200558 
   7.14      66.6000    0.1400    4.0000                          1350500200559 
   7.14      66.9000    0.1460    4.0000                          1350500200560 
   7.14      67.4000    0.1450    4.0000                          1350500200561 
   7.14      69.9000    0.1420    4.0000                          1350500200562 
   7.14      70.3000    0.1460    4.0000                          1350500200563 
   7.14      71.1000    0.1390    4.0000                          1350500200564 
   7.14      74.0000    0.1290    4.0000                          1350500200565 
   7.14      74.4000    0.1190    4.0000                          1350500200566 
   7.14      74.9000    0.1250    4.0000                          1350500200567 
   7.14      77.4000    0.1000    4.0000                          1350500200568 
   7.14      77.8000    0.1090    4.0000                          1350500200569 
   7.14      79.2000    0.0976    4.0000                          1350500200570 
   7.14      82.0000    0.0803    4.0000                          1350500200571 
   7.14      82.4000    0.0780    4.0000                          1350500200572 
   7.14      83.0000    0.0811    4.0000                          1350500200573 
   7.14      85.4000    0.0560    4.0000                          1350500200574 
   7.14      85.8000    0.0645    4.0000                          1350500200575 
   7.14      86.5000    0.0557    4.0000                          1350500200576 
   7.14      89.5000    0.0407    5.4100                          1350500200577 
   7.14      89.9000    0.0403    5.4600                          1350500200578 
   7.14      90.3000    0.0396    5.5600                          1350500200579 
   7.14      92.9000    0.0279    7.8900                          1350500200580 
   7.14      93.3000    0.0270    8.1500                          1350500200581 
   7.14      94.5000    0.0220   10.0000                          1350500200582 
   7.14      97.9000    0.0176   12.5000                          1350500200583 
   7.14      98.3000    0.0146   15.1000                          1350500200584 
   7.14     101.0000    0.0115   19.1000                          1350500200585 
   7.14     101.0000    0.0100   22.0000                          1350500200586 
   7.14     102.0000    0.0087   25.2000                          1350500200587 
   7.14     105.0000    0.0100   22.1000                          1350500200588 
   7.14     105.0000    0.0088   24.9000                          1350500200589 
   7.14     106.0000    0.0099   22.1000                          1350500200590 
   7.14     108.0000    0.0117   18.8000                          1350500200591 
   7.14     109.0000    0.0134   16.4000                          1350500200592 
   7.14     110.0000    0.0142   15.5000                          1350500200593 
   7.14     113.0000    0.0210   10.5000                          1350500200594 
   7.14     113.0000    0.0218   10.1000                          1350500200595 
   7.14     114.0000    0.0214   10.3000                          1350500200596 
   7.14     116.0000    0.0282    7.8000                          1350500200597 
   7.14     117.0000    0.0308    7.1400                          1350500200598 
   7.14     117.0000    0.0279    7.8900                          1350500200599 
   7.14     120.0000    0.0338    6.5100                          1350500200600 
   7.14     121.0000    0.0349    6.3000                          1350500200601 
   7.14     121.0000    0.0377    5.8400                          1350500200602 
   7.14     124.0000    0.0405    5.4300                          1350500200603 
   7.14     124.0000    0.0427    5.1500                          1350500200604 
   7.14     125.0000    0.0415    5.3000                          1350500200605 
   7.14     128.0000    0.0423    5.2000                          1350500200606 
   7.14     129.0000    0.0448    4.9100                          1350500200607 
   7.14     129.0000    0.0436    5.0500                          1350500200608 
   7.14     132.0000    0.0468    4.7000                          1350500200609 
   7.14     132.0000    0.0440    5.0000                          1350500200610 
   7.14     133.0000    0.0410    5.3700                          1350500200611 
   7.14     136.0000    0.0439    5.0100                          1350500200612 
   7.14     136.0000    0.0415    5.3000                          1350500200613 
   7.14     137.0000    0.0399    5.5100                          1350500200614 
   7.14     139.0000    0.0387    5.6800                          1350500200615 
   7.14     140.0000    0.0381    5.7700                          1350500200616 
   7.14     141.0000    0.0363    6.0600                          1350500200617 
   7.14     144.0000    0.0352    6.2500                          1350500200618 
   7.14     144.0000    0.0321    6.8500                          1350500200619 
   7.14     145.0000    0.0314    7.0100                          1350500200620 
   7.14     146.0000    0.0288    7.6400                          1350500200621 
   7.14     146.0000    0.0265    8.3000                          1350500200622 
   7.14     147.0000    0.0296    7.4300                          1350500200623 
   7.14     147.0000    0.0278    7.9100                          1350500200624 
   7.14     148.0000    0.0288    7.6400                          1350500200625 
   7.14     150.0000    0.0298    7.3800                          1350500200626 
   7.14     151.0000    0.0253    8.7000                          1350500200627 
   7.14     154.0000    0.0239    9.2100                          1350500200628 
   7.14     154.0000    0.0242    9.0900                          1350500200629 
   7.14     155.0000    0.0256    8.5900                          1350500200630 
   7.14     157.0000    0.0246    8.9400                          1350500200631 
   7.14     157.0000    0.0263    8.3700                          1350500200632 
   7.5       14.5000    3.2900    4.0000                          1350500200633 
   7.5       17.4000    2.8200    4.0000                          1350500200634 
   7.5       19.7000    2.3600    4.0000                          1350500200635 
   7.5       22.3000    1.9400    4.0000                          1350500200636 
   7.5       24.3000    1.4800    4.0000                          1350500200637 
   7.5       24.7000    1.4300    4.4700                          1350500200638 
   7.5       25.3000    1.4300    4.0000                          1350500200639 
   7.5       26.6000    1.0200    4.7500                          1350500200640 
   7.5       27.5000    1.0700    4.0000                          1350500200641 
   7.5       27.6000    1.0500    4.9300                          1350500200642 
   7.5       28.0000    0.8920    4.0000                          1350500200643 
   7.5       29.6000    0.7430    5.3200                          1350500200644 
   7.5       32.2000    0.5270    4.0000                          1350500200645 
   7.5       34.6000    0.3020    6.7000                          1350500200646 
   7.5       35.2000    0.2980    4.0000                          1350500200647 
   7.5       37.6000    0.1660    7.8900                          1350500200648 
   7.5       40.1000    0.1040    4.0000                          1350500200649 
   7.5       42.5000    0.0450    8.2500                          1350500200650 
   7.5       43.1000    0.0471    4.6700                          1350500200651 
   7.5       43.9000    0.0397    5.5400                          1350500200652 
   7.5       45.5000    0.0344    6.4000                          1350500200653 
   7.5       46.9000    0.0384    5.7300                          1350500200654 
   7.5       48.1000    0.0363    6.0600                          1350500200655 
   7.5       50.5000    0.0530    5.7300                          1350500200656 
   7.5       51.1000    0.0583    4.0000                          1350500200657 
   7.5       51.9000    0.0635    4.0000                          1350500200658 
   7.5       53.5000    0.0806    4.6200                          1350500200659 
   7.5       54.9000    0.0871    4.0000                          1350500200660 
   7.5       55.6000    0.0941    4.0000                          1350500200661 
   7.5       58.0000    0.1210    4.0000                          1350500200662 
   7.5       58.6000    0.1200    4.0000                          1350500200663 
   7.5       59.4000    0.1170    4.0000                          1350500200664 
   7.5       61.0000    0.1430    4.0000                          1350500200665 
   7.5       62.4000    0.1320    4.0000                          1350500200666 
   7.5       63.6000    0.1350    4.0000                          1350500200667 
   7.5       66.0000    0.1430    4.0000                          1350500200668 
   7.5       66.6000    0.1430    4.0000                          1350500200669 
   7.5       67.4000    0.1410    4.0000                          1350500200670 
   7.5       68.9000    0.1410    4.0000                          1350500200671 
   7.5       70.3000    0.1260    4.0000                          1350500200672 
   7.5       71.1000    0.1310    4.0000                          1350500200673 
   7.5       73.4000    0.1160    4.0000                          1350500200674 
   7.5       74.0000    0.1180    4.0000                          1350500200675 
   7.5       74.9000    0.1100    4.0000                          1350500200676 
   7.5       76.4000    0.1070    4.0000                          1350500200677 
   7.5       77.8000    0.0941    4.0000                          1350500200678 
   7.5       79.2000    0.0893    4.0000                          1350500200679 
   7.5       81.4000    0.0751    4.0000                          1350500200680 
   7.5       82.0000    0.0741    4.0000                          1350500200681 
   7.5       83.0000    0.0682    4.0000                          1350500200682 
   7.5       84.4000    0.0587    4.0000                          1350500200683 
   7.5       85.8000    0.0469    4.6900                          1350500200684 
   7.5       86.5000    0.0461    4.7700                          1350500200685 
   7.5       88.9000    0.0380    5.7900                          1350500200686 
   7.5       89.5000    0.0363    6.0600                          1350500200687 
   7.5       90.3000    0.0321    6.8500                          1350500200688 
   7.5       91.9000    0.0282    7.8000                          1350500200689 
   7.5       93.3000    0.0221    9.9500                          1350500200690 
   7.5       94.5000    0.0203   10.8000                          1350500200691 
   7.5       96.9000    0.0135   16.3000                          1350500200692 
   7.5       97.5000    0.0128   17.2000                          1350500200693 
   7.5       98.3000    0.0111   19.8000                          1350500200694 
   7.5       99.9000    0.0113   19.5000                          1350500200695 
   7.5      101.0000    0.0083   26.4000                          1350500200696 
   7.5      102.0000    0.0071   31.2000                          1350500200697 
   7.5      104.0000    0.0079   27.9000                          1350500200698 
   7.5      105.0000    0.0067   32.7000                          1350500200699 
   7.5      106.0000    0.0104   21.2000                          1350500200700 
   7.5      107.0000    0.0106   20.8000                          1350500200701 
   7.5      109.0000    0.0134   16.4000                          1350500200702 
   7.5      110.0000    0.0116   19.0000                          1350500200703 
   7.5      112.0000    0.0181   12.2000                          1350500200704 
   7.5      113.0000    0.0173   12.7000                          1350500200705 
   7.5      114.0000    0.0240    9.1700                          1350500200706 
   7.5      115.0000    0.0249    8.8400                          1350500200707 
   7.5      117.0000    0.0270    8.1500                          1350500200708 
   7.5      117.0000    0.0251    8.7600                          1350500200709 
   7.5      120.0000    0.0362    6.0800                          1350500200710 
   7.5      120.0000    0.0322    6.8300                          1350500200711 
   7.5      121.0000    0.0357    6.1600                          1350500200712 
   7.5      123.0000    0.0405    5.4300                          1350500200713 
   7.5      124.0000    0.0366    6.0100                          1350500200714 
   7.5      125.0000    0.0363    6.0600                          1350500200715 
   7.5      128.0000    0.0415    5.3000                          1350500200716 
   7.5      128.0000    0.0378    5.8200                          1350500200717 
   7.5      129.0000    0.0428    5.1400                          1350500200718 
   7.5      131.0000    0.0456    4.8200                          1350500200719 
   7.5      132.0000    0.0411    5.3500                          1350500200720 
   7.5      133.0000    0.0402    5.4700                          1350500200721 
   7.5      135.0000    0.0370    5.9500                          1350500200722 
   7.5      136.0000    0.0392    5.6100                          1350500200723 
   7.5      137.0000    0.0391    5.6300                          1350500200724 
   7.5      138.0000    0.0336    6.5500                          1350500200725 
   7.5      140.0000    0.0337    6.5300                          1350500200726 
   7.5      141.0000    0.0302    7.2800                          1350500200727 
   7.5      143.0000    0.0254    8.6600                          1350500200728 
   7.5      143.0000    0.0287    7.6700                          1350500200729 
   7.5      144.0000    0.0281    7.8300                          1350500200730 
   7.5      145.0000    0.0235    9.3600                          1350500200731 
   7.5      145.0000    0.0277    7.9400                          1350500200732 
   7.5      146.0000    0.0247    8.9100                          1350500200733 
   7.5      146.0000    0.0273    8.0600                          1350500200734 
   7.5      147.0000    0.0263    8.3700                          1350500200735 
   7.5      148.0000    0.0211   10.4000                          1350500200736 
   7.5      151.0000    0.0252    8.7300                          1350500200737 
   7.5      153.0000    0.0237    9.2800                          1350500200738 
   7.5      154.0000    0.0234    9.4000                          1350500200739 
   7.5      155.0000    0.0237    9.2800                          1350500200740 
   7.5      156.0000    0.0274    8.0300                          1350500200741 
   7.5      157.0000    0.0244    9.0200                          1350500200742 
   8.03      16.6000    2.8200    4.0000                          1350500200743 
   8.03      18.2000    2.5700    4.0000                          1350500200744 
   8.03      19.5000    2.3600    4.0000                          1350500200745 
   8.03      21.1000    2.0500    4.0000                          1350500200746 
   8.03      24.5000    1.4500    4.0000                          1350500200747 
   8.03      26.1000    1.3000    4.0000                          1350500200748 
   8.03      26.4000    1.1400    4.0000                          1350500200749 
   8.03      27.4000    0.9630    4.0000                          1350500200750 
   8.03      28.0000    0.8920    4.0000                          1350500200751 
   8.03      29.0000    0.8140    4.0000                          1350500200752 
   8.03      29.4000    0.8010    4.2000                          1350500200753 
   8.03      31.3000    0.5760    4.0000                          1350500200754 
   8.03      34.4000    0.3370    5.0500                          1350500200755 
   8.03      36.0000    0.2510    4.0000                          1350500200756 
   8.03      37.4000    0.1560    5.8300                          1350500200757 
   8.03      39.0000    0.1120    4.0000                          1350500200758 
   8.03      42.3000    0.0467   13.1000                          1350500200759 
   8.03      43.9000    0.0448    4.9100                          1350500200760 
   8.03      45.3000    0.0294   15.0000                          1350500200761 
   8.03      46.9000    0.0382    5.7600                          1350500200762 
   8.03      50.3000    0.0521   15.3000                          1350500200763 
   8.03      51.9000    0.0711    4.0000                          1350500200764 
   8.03      53.3000    0.0778   12.2000                          1350500200765 
   8.03      54.9000    0.0969    4.0000                          1350500200766 
   8.03      57.8000    0.1100    4.0000                          1350500200767 
   8.03      59.4000    0.1250    4.0000                          1350500200768 
   8.03      60.8000    0.1230    4.0000                          1350500200769 
   8.03      62.4000    0.1320    4.0000                          1350500200770 
   8.03      65.8000    0.1230    4.0000                          1350500200771 
   8.03      67.4000    0.1310    4.0000                          1350500200772 
   8.03      68.7000    0.1200    4.0000                          1350500200773 
   8.03      70.3000    0.1220    4.0000                          1350500200774 
   8.03      73.2000    0.0996    4.0000                          1350500200775 
   8.03      74.9000    0.0947    4.0000                          1350500200776 
   8.03      76.2000    0.0847    4.0000                          1350500200777 
   8.03      77.8000    0.0829    4.0000                          1350500200778 
   8.03      81.2000    0.0591    4.0000                          1350500200779 
   8.03      83.0000    0.0551    4.0000                          1350500200780 
   8.03      84.2000    0.0437    5.0300                          1350500200781 
   8.03      85.8000    0.0412    5.3400                          1350500200782 
   8.03      88.7000    0.0267    8.2400                          1350500200783 
   8.03      90.3000    0.0256    8.5900                          1350500200784 
   8.03      91.7000    0.0207   10.6000                          1350500200785 
   8.03      93.3000    0.0177   12.4000                          1350500200786 
   8.03      96.7000    0.0116   19.0000                          1350500200787 
   8.03      98.3000    0.0101   21.8000                          1350500200788 
   8.03      99.7000    0.0068   32.3000                          1350500200789 
   8.03     101.0000    0.0076   28.8000                          1350500200790 
   8.03     104.0000    0.0077   28.6000                          1350500200791 
   8.03     106.0000    0.0088   25.1000                          1350500200792 
   8.03     107.0000    0.0102   21.6000                          1350500200793 
   8.03     109.0000    0.0120   18.3000                          1350500200794 
   8.03     112.0000    0.0165   13.3000                          1350500200795 
   8.03     114.0000    0.0205   10.7000                          1350500200796 
   8.03     115.0000    0.0221    9.9500                          1350500200797 
   8.03     117.0000    0.0252    8.7300                          1350500200798 
   8.03     120.0000    0.0275    8.0000                          1350500200799 
   8.03     121.0000    0.0320    6.8800                          1350500200800 
   8.03     123.0000    0.0297    7.4100                          1350500200801 
   8.03     124.0000    0.0341    6.4500                          1350500200802 
   8.03     128.0000    0.0360    6.1100                          1350500200803 
   8.03     129.0000    0.0373    5.9000                          1350500200804 
   8.03     131.0000    0.0316    6.9600                          1350500200805 
   8.03     132.0000    0.0364    6.0400                          1350500200806 
   8.03     135.0000    0.0313    7.0300                          1350500200807 
   8.03     137.0000    0.0347    6.3400                          1350500200808 
   8.03     138.0000    0.0265    8.3000                          1350500200809 
   8.03     140.0000    0.0304    7.2400                          1350500200810 
   8.03     143.0000    0.0240    9.1700                          1350500200811 
   8.03     145.0000    0.0244    9.0200                          1350500200812 
   8.03     145.0000    0.0237    9.2800                          1350500200813 
   8.03     146.0000    0.0210   10.5000                          1350500200814 
   8.03     147.0000    0.0217   10.1000                          1350500200815 
   8.03     148.0000    0.0219   10.0000                          1350500200816 
   8.03     148.0000    0.0200   11.0000                          1350500200817 
   8.03     150.0000    0.0217   10.1000                          1350500200818 
   8.03     153.0000    0.0217   10.1000                          1350500200819 
   8.03     155.0000    0.0227    9.6900                          1350500200820 
   8.03     156.0000    0.0226    9.7300                          1350500200821 
   8.03     157.0000    0.0239    9.2100                          1350500200822 
   8.4       17.9000    2.8500    4.0000                          1350500200823 
   8.4       18.2000    2.6400    4.0000                          1350500200824 
   8.4       18.9000    2.6100    4.0000                          1350500200825 
   8.4       20.8000    2.3000    4.0000                          1350500200826 
   8.4       21.1000    2.1100    4.0000                          1350500200827 
   8.4       21.8000    2.0000    4.0000                          1350500200828 
   8.4       25.8000    1.3600    4.0000                          1350500200829 
   8.4       26.1000    1.2800    4.0000                          1350500200830 
   8.4       26.7000    1.1500    4.0000                          1350500200831 
   8.4       28.0000    0.8900    4.0000                          1350500200832 
   8.4       28.7000    0.8820    4.0000                          1350500200833 
   8.4       28.7000    0.8630    4.0000                          1350500200834 
   8.4       29.0000    0.8410    4.0000                          1350500200835 
   8.4       29.7000    0.7140    4.0000                          1350500200836 
   8.4       31.0000    0.6370    4.0000                          1350500200837 
   8.4       31.3000    0.5790    4.0000                          1350500200838 
   8.4       32.0000    0.5350    4.0000                          1350500200839 
   8.4       35.7000    0.2500    4.0000                          1350500200840 
   8.4       36.0000    0.2250    4.0000                          1350500200841 
   8.4       36.7000    0.1920    4.0000                          1350500200842 
   8.4       38.7000    0.1220    4.0000                          1350500200843 
   8.4       38.7000    0.1190    4.0000                          1350500200844 
   8.4       39.0000    0.1130    4.0000                          1350500200845 
   8.4       39.6000    0.0932    4.0000                          1350500200846 
   8.4       43.6000    0.0426    5.1600                          1350500200847 
   8.4       43.9000    0.0466    4.7200                          1350500200848 
   8.4       44.6000    0.0463    4.7500                          1350500200849 
   8.4       46.6000    0.0391    5.6300                          1350500200850 
   8.4       46.9000    0.0393    5.6000                          1350500200851 
   8.4       47.6000    0.0540    4.0700                          1350500200852 
   8.4       51.6000    0.0697    4.0000                          1350500200853 
   8.4       51.9000    0.0740    4.0000                          1350500200854 
   8.4       52.6000    0.0917    4.0000                          1350500200855 
   8.4       54.6000    0.0982    4.0000                          1350500200856 
   8.4       54.6000    0.0941    4.0000                          1350500200857 
   8.4       54.9000    0.0948    4.0000                          1350500200858 
   8.4       55.6000    0.1150    4.0000                          1350500200859 
   8.4       59.1000    0.1230    4.0000                          1350500200860 
   8.4       59.4000    0.1200    4.0000                          1350500200861 
   8.4       62.1000    0.1310    4.0000                          1350500200862 
   8.4       62.4000    0.1290    4.0000                          1350500200863 
   8.4       67.1000    0.1190    4.0000                          1350500200864 
   8.4       67.4000    0.1210    4.0000                          1350500200865 
   8.4       70.0000    0.1080    4.0000                          1350500200866 
   8.4       70.0000    0.1120    4.0000                          1350500200867 
   8.4       70.3000    0.1080    4.0000                          1350500200868 
   8.4       74.6000    0.0796    4.0000                          1350500200869 
   8.4       74.9000    0.0818    4.0000                          1350500200870 
   8.4       76.0000    0.0749    4.0000                          1350500200871 
   8.4       77.5000    0.0668    4.0000                          1350500200872 
   8.4       77.8000    0.0697    4.0000                          1350500200873 
   8.4       78.5000    0.0622    4.0000                          1350500200874 
   8.4       82.7000    0.0415    5.3000                          1350500200875 
   8.4       83.0000    0.0453    4.8600                          1350500200876 
   8.4       83.5000    0.0411    5.3500                          1350500200877 
   8.4       85.5000    0.0314    7.0100                          1350500200878 
   8.4       85.5000    0.0332    6.6300                          1350500200879 
   8.4       85.8000    0.0346    6.3600                          1350500200880 
   8.4       86.5000    0.0280    7.8600                          1350500200881 
   8.4       90.0000    0.0203   10.8000                          1350500200882 
   8.4       90.3000    0.0230    9.5700                          1350500200883 
   8.4       91.0000    0.0163   13.5000                          1350500200884 
   8.4       93.0000    0.0141   15.6000                          1350500200885 
   8.4       93.3000    0.0156   14.1000                          1350500200886 
   8.4       94.0000    0.0113   19.5000                          1350500200887 
   8.4       98.0000    0.0095   23.3000                          1350500200888 
   8.4       98.3000    0.0093   23.6000                          1350500200889 
   8.4       99.0000    0.0067   32.8000                          1350500200890 
   8.4      101.0000    0.0073   30.3000                          1350500200891 
   8.4      102.0000    0.0078   28.4000                          1350500200892 
   8.4      102.0000    0.0086   25.6000                          1350500200893 
   8.4      102.0000    0.0080   27.5000                          1350500200894 
   8.4      106.0000    0.0096   23.0000                          1350500200895 
   8.4      106.0000    0.0091   24.3000                          1350500200896 
   8.4      106.0000    0.0095   23.2000                          1350500200897 
   8.4      109.0000    0.0115   19.1000                          1350500200898 
   8.4      109.0000    0.0127   17.3000                          1350500200899 
   8.4      110.0000    0.0135   16.3000                          1350500200900 
   8.4      113.0000    0.0195   11.3000                          1350500200901 
   8.4      114.0000    0.0218   10.1000                          1350500200902 
   8.4      116.0000    0.0247    8.9100                          1350500200903 
   8.4      116.0000    0.0236    9.3200                          1350500200904 
   8.4      117.0000    0.0231    9.5200                          1350500200905 
   8.4      117.0000    0.0256    8.5900                          1350500200906 
   8.4      120.0000    0.0266    8.2700                          1350500200907 
   8.4      121.0000    0.0279    7.8900                          1350500200908 
   8.4      122.0000    0.0281    7.8300                          1350500200909 
   8.4      123.0000    0.0320    6.8800                          1350500200910 
   8.4      124.0000    0.0324    6.7900                          1350500200911 
   8.4      125.0000    0.0318    6.9200                          1350500200912 
   8.4      129.0000    0.0335    6.5700                          1350500200913 
   8.4      129.0000    0.0332    6.6300                          1350500200914 
   8.4      130.0000    0.0320    6.8800                          1350500200915 
   8.4      132.0000    0.0321    6.8500                          1350500200916 
   8.4      132.0000    0.0316    6.9600                          1350500200917 
   8.4      132.0000    0.0331    6.6500                          1350500200918 
   8.4      133.0000    0.0280    7.8600                          1350500200919 
   8.4      137.0000    0.0277    7.9400                          1350500200920 
   8.4      137.0000    0.0274    8.0300                          1350500200921 
   8.4      137.0000    0.0256    8.5900                          1350500200922 
   8.4      139.0000    0.0240    9.1700                          1350500200923 
   8.4      140.0000    0.0240    9.1700                          1350500200924 
   8.4      140.0000    0.0211   10.4000                          1350500200925 
   8.4      144.0000    0.0177   12.4000                          1350500200926 
   8.4      145.0000    0.0202   10.9000                          1350500200927 
   8.4      145.0000    0.0180   12.2000                          1350500200928 
   8.4      146.0000    0.0198   11.1000                          1350500200929 
   8.4      147.0000    0.0193   11.4000                          1350500200930 
   8.4      147.0000    0.0184   12.0000                          1350500200931 
   8.4      147.0000    0.0186   11.8000                          1350500200932 
   8.4      147.0000    0.0179   12.3000                          1350500200933 
   8.4      148.0000    0.0180   12.2000                          1350500200934 
   8.4      148.0000    0.0157   14.0000                          1350500200935 
   8.4      149.0000    0.0188   11.7000                          1350500200936 
   8.4      150.0000    0.0156   14.1000                          1350500200937 
   8.4      150.0000    0.0190   11.6000                          1350500200938 
   8.4      155.0000    0.0185   11.9000                          1350500200939 
   8.4      155.0000    0.0209   10.5000                          1350500200940 
   8.4      155.0000    0.0220   10.0000                          1350500200941 
   8.4      157.0000    0.0221    9.9500                          1350500200942 
   8.4      157.0000    0.0270    8.1500                          1350500200943 
   8.4      157.0000    0.0252    8.7300                          1350500200944 
   8.4      158.0000    0.0245    8.9800                          1350500200945 
   9.06      17.9000    3.3600    5.0000                          1350500200946 
   9.06      18.1000    2.9900    5.0000                          1350500200947 
   9.06      18.9000    3.0000    5.0000                          1350500200948 
   9.06      20.8000    2.5200    5.0000                          1350500200949 
   9.06      21.1000    2.3800    5.0000                          1350500200950 
   9.06      21.8000    2.1900    5.0000                          1350500200951 
   9.06      25.8000    1.4200    5.0000                          1350500200952 
   9.06      26.0000    1.3400    5.0000                          1350500200953 
   9.06      26.7000    1.2800    5.0000                          1350500200954 
   9.06      27.7000    1.0600    5.0000                          1350500200955 
   9.06      28.0000    1.0100    5.0000                          1350500200956 
   9.06      28.7000    0.9510    5.0000                          1350500200957 
   9.06      28.7000    0.9100    5.0000                          1350500200958 
   9.06      29.0000    0.8820    5.0000                          1350500200959 
   9.06      29.7000    0.7550    5.0000                          1350500200960 
   9.06      31.0000    0.6460    5.0000                          1350500200961 
   9.06      31.3000    0.6330    5.0000                          1350500200962 
   9.06      32.0000    0.5630    5.2300                          1350500200963 
   9.06      35.7000    0.2330    5.0000                          1350500200964 
   9.06      35.9000    0.2250    5.0000                          1350500200965 
   9.06      36.7000    0.2270    6.4500                          1350500200966 
   9.06      38.7000    0.1070    5.0000                          1350500200967 
   9.06      38.9000    0.1040    5.0000                          1350500200968 
   9.06      39.6000    0.0893    7.4400                          1350500200969 
   9.06      43.6000    0.0406    5.4200                          1350500200970 
   9.06      43.9000    0.0388    5.6700                          1350500200971 
   9.06      44.6000    0.0392    5.6100                          1350500200972 
   9.06      46.6000    0.0422    5.2100                          1350500200973 
   9.06      46.9000    0.0446    5.0000                          1350500200974 
   9.06      47.6000    0.0491    5.0600                          1350500200975 
   9.06      51.6000    0.0750    5.0000                          1350500200976 
   9.06      51.8000    0.0810    5.0000                          1350500200977 
   9.06      52.6000    0.0825    5.0000                          1350500200978 
   9.06      54.6000    0.0965    5.0000                          1350500200979 
   9.06      54.8000    0.0984    5.0000                          1350500200980 
   9.06      55.6000    0.1110    5.0000                          1350500200981 
   9.06      59.1000    0.1190    5.0000                          1350500200982 
   9.06      59.3000    0.1150    5.0000                          1350500200983 
   9.06      60.1000    0.1430    5.0000                          1350500200984 
   9.06      62.1000    0.1240    5.0000                          1350500200985 
   9.06      63.1000    0.1290    5.0000                          1350500200986 
   9.06      68.0000    0.1090    5.0000                          1350500200987 
   9.06      70.0000    0.0969    5.0000                          1350500200988 
   9.06      71.0000    0.0902    5.0000                          1350500200989 
   9.06      74.6000    0.0691    5.0000                          1350500200990 
   9.06      75.3000    0.0613    5.0000                          1350500200991 
   9.06      76.0000    0.0573    5.0000                          1350500200992 
   9.06      77.5000    0.0506    5.0000                          1350500200993 
   9.06      77.8000    0.0467    5.0000                          1350500200994 
   9.06      78.5000    0.0423    5.2000                          1350500200995 
   9.06      82.7000    0.0307    7.1700                          1350500200996 
   9.06      82.8000    0.0306    7.1900                          1350500200997 
   9.06      83.5000    0.0268    8.2100                          1350500200998 
   9.06      85.5000    0.0226    9.7300                          1350500200999 
   9.06      85.8000    0.0236    9.3200                          1350500201000 
   9.06      86.5000    0.0182   12.1000                          1350500201001 
   9.06      90.0000    0.0148   14.9000                          1350500201002 
   9.06      90.2000    0.0141   15.6000                          1350500201003 
   9.06      91.0000    0.0115   19.1000                          1350500201004 
   9.06      93.0000    0.0114   19.3000                          1350500201005 
   9.06      93.2000    0.0100   22.0000                          1350500201006 
   9.06      94.0000    0.0081   27.3000                          1350500201007 
   9.06      98.0000    0.0083   26.4000                          1350500201008 
   9.06      98.2000    0.0068   32.3000                          1350500201009 
   9.06      99.0000    0.0077   28.7000                          1350500201010 
   9.06     101.0000    0.0076   28.8000                          1350500201011 
   9.06     102.0000    0.0079   28.0000                          1350500201012 
   9.06     102.0000    0.0082   26.7000                          1350500201013 
   9.06     106.0000    0.0097   22.6000                          1350500201014 
   9.06     106.0000    0.0116   19.0000                          1350500201015 
   9.06     109.0000    0.0114   19.3000                          1350500201016 
   9.06     110.0000    0.0150   14.7000                          1350500201017 
   9.06     113.0000    0.0163   13.5000                          1350500201018 
   9.06     114.0000    0.0152   14.5000                          1350500201019 
   9.06     116.0000    0.0192   11.5000                          1350500201020 
   9.06     117.0000    0.0186   11.8000                          1350500201021 
   9.06     117.0000    0.0218   10.1000                          1350500201022 
   9.06     120.0000    0.0250    8.8000                          1350500201023 
   9.06     121.0000    0.0225    9.7800                          1350500201024 
   9.06     122.0000    0.0302    7.2800                          1350500201025 
   9.06     123.0000    0.0262    8.4000                          1350500201026 
   9.06     124.0000    0.0240    9.1700                          1350500201027 
   9.06     125.0000    0.0270    8.1500                          1350500201028 
   9.06     129.0000    0.0254    8.6600                          1350500201029 
   9.06     129.0000    0.0218   10.1000                          1350500201030 
   9.06     130.0000    0.0265    8.3000                          1350500201031 
   9.06     132.0000    0.0211   10.4000                          1350500201032 
   9.06     132.0000    0.0246    8.9400                          1350500201033 
   9.06     133.0000    0.0255    8.6300                          1350500201034 
   9.06     137.0000    0.0214   10.3000                          1350500201035 
   9.06     137.0000    0.0174   12.6000                          1350500201036 
   9.06     137.0000    0.0222    9.9100                          1350500201037 
   9.06     139.0000    0.0185   11.9000                          1350500201038 
   9.06     140.0000    0.0167   13.2000                          1350500201039 
   9.06     140.0000    0.0138   15.9000                          1350500201040 
   9.06     145.0000    0.0121   18.2000                          1350500201041 
   9.06     145.0000    0.0106   20.8000                          1350500201042 
   9.06     147.0000    0.0116   19.0000                          1350500201043 
   9.06     147.0000    0.0090   24.5000                          1350500201044 
   9.06     148.0000    0.0114   19.3000                          1350500201045 
   9.06     149.0000    0.0116   19.0000                          1350500201046 
   9.06     150.0000    0.0090   24.6000                          1350500201047 
   9.06     155.0000    0.0192   11.5000                          1350500201048 
   9.06     155.0000    0.0203   10.8000                          1350500201049 
   9.06     157.0000    0.0228    9.6500                          1350500201050 
   9.06     157.0000    0.0241    9.1300                          1350500201051 
   9.06     158.0000    0.0185   11.9000                          1350500201052 
   9.5       17.8000    3.1100    5.0000                          1350500201053 
   9.5       17.9000    3.2000    5.0000                          1350500201054 
   9.5       18.9000    2.7900    5.0000                          1350500201055 
   9.5       20.7000    2.4000    5.0000                          1350500201056 
   9.5       20.8000    2.4500    5.0000                          1350500201057 
   9.5       21.8000    2.1600    5.0000                          1350500201058 
   9.5       25.7000    1.3600    5.0000                          1350500201059 
   9.5       25.8000    1.3700    5.0000                          1350500201060 
   9.5       26.7000    1.2300    5.0000                          1350500201061 
   9.5       27.6000    1.1500    5.0000                          1350500201062 
   9.5       28.6000    0.8520    5.0000                          1350500201063 
   9.5       28.7000    0.8560    5.0000                          1350500201064 
   9.5       28.7000    0.8870    5.0000                          1350500201065 
   9.5       29.7000    0.7980    5.0000                          1350500201066 
   9.5       30.9000    0.6950    5.0000                          1350500201067 
   9.5       32.0000    0.5620    5.4600                          1350500201068 
   9.5       35.6000    0.2510    5.0000                          1350500201069 
   9.5       36.7000    0.1820    6.8200                          1350500201070 
   9.5       38.6000    0.1150    5.0000                          1350500201071 
   9.5       39.6000    0.0960    7.4300                          1350500201072 
   9.5       44.6000    0.0392   10.0000                          1350500201073 
   9.5       46.6000    0.0448    5.0000                          1350500201074 
   9.5       47.6000    0.0483    9.6500                          1350500201075 
   9.5       51.5000    0.0902    5.0000                          1350500201076 
   9.5       51.6000    0.0804    5.0000                          1350500201077 
   9.5       52.6000    0.0839    5.0000                          1350500201078 
   9.5       54.5000    0.1140    5.0000                          1350500201079 
   9.5       54.6000    0.1010    5.0000                          1350500201080 
   9.5       55.6000    0.1110    5.0000                          1350500201081 
   9.5       59.0000    0.1200    5.0000                          1350500201082 
   9.5       59.1000    0.1210    5.0000                          1350500201083 
   9.5       60.1000    0.1240    5.0000                          1350500201084 
   9.5       62.0000    0.1230    5.0000                          1350500201085 
   9.5       62.1000    0.1190    5.0000                          1350500201086 
   9.5       63.1000    0.1250    5.0000                          1350500201087 
   9.5       67.0000    0.1090    5.0000                          1350500201088 
   9.5       67.1000    0.0991    5.0000                          1350500201089 
   9.5       68.0000    0.0976    5.0000                          1350500201090 
   9.5       69.9000    0.0861    5.0000                          1350500201091 
   9.5       70.0000    0.0829    5.0000                          1350500201092 
   9.5       71.0000    0.0831    5.0000                          1350500201093 
   9.5       74.5000    0.0671    5.0000                          1350500201094 
   9.5       74.6000    0.0547    5.0000                          1350500201095 
   9.5       75.5000    0.0497    5.0000                          1350500201096 
   9.5       77.4000    0.0470    5.0000                          1350500201097 
   9.5       77.5000    0.0406    5.0000                          1350500201098 
   9.5       78.5000    0.0358    5.8400                          1350500201099 
   9.5       82.6000    0.0295    6.7800                          1350500201100 
   9.5       83.5000    0.0237    8.4400                          1350500201101 
   9.5       85.4000    0.0217    9.2200                          1350500201102 
   9.5       86.5000    0.0186   10.8000                          1350500201103 
   9.5       89.9000    0.0124   16.1000                          1350500201104 
   9.5       90.0000    0.0107   18.7000                          1350500201105 
   9.5       91.0000    0.0112   17.9000                          1350500201106 
   9.5       92.9000    0.0099   20.3000                          1350500201107 
   9.5       93.0000    0.0089   22.5000                          1350500201108 
   9.5       94.0000    0.0083   24.0000                          1350500201109 
   9.5       97.9000    0.0067   29.9000                          1350500201110 
   9.5       98.0000    0.0085   23.6000                          1350500201111 
   9.5       99.0000    0.0066   30.4000                          1350500201112 
   9.5      101.0000    0.0081   24.8000                          1350500201113 
   9.5      102.0000    0.0086   23.3000                          1350500201114 
   9.5      102.0000    0.0076   26.3000                          1350500201115 
   9.5      105.0000    0.0108   18.5000                          1350500201116 
   9.5      106.0000    0.0121   16.5000                          1350500201117 
   9.5      106.0000    0.0115   17.4000                          1350500201118 
   9.5      108.0000    0.0116   17.2000                          1350500201119 
   9.5      109.0000    0.0120   16.7000                          1350500201120 
   9.5      110.0000    0.0153   13.1000                          1350500201121 
   9.5      113.0000    0.0165   12.1000                          1350500201122 
   9.5      113.0000    0.0147   13.6000                          1350500201123 
   9.5      114.0000    0.0169   11.8000                          1350500201124 
   9.5      116.0000    0.0206    9.7100                          1350500201125 
   9.5      116.0000    0.0210    9.5200                          1350500201126 
   9.5      117.0000    0.0211    9.4800                          1350500201127 
   9.5      120.0000    0.0226    8.8500                          1350500201128 
   9.5      121.0000    0.0220    9.0900                          1350500201129 
   9.5      122.0000    0.0233    8.5800                          1350500201130 
   9.5      123.0000    0.0238    8.4000                          1350500201131 
   9.5      124.0000    0.0229    8.7300                          1350500201132 
   9.5      125.0000    0.0246    8.1300                          1350500201133 
   9.5      129.0000    0.0205    9.7600                          1350500201134 
   9.5      129.0000    0.0244    8.2000                          1350500201135 
   9.5      130.0000    0.0234    8.5500                          1350500201136 
   9.5      132.0000    0.0192   10.4000                          1350500201137 
   9.5      132.0000    0.0215    9.3000                          1350500201138 
   9.5      133.0000    0.0231    8.6600                          1350500201139 
   9.5      136.0000    0.0164   12.2000                          1350500201140 
   9.5      137.0000    0.0183   10.9000                          1350500201141 
   9.5      137.0000    0.0165   12.1000                          1350500201142 
   9.5      139.0000    0.0173   11.6000                          1350500201143 
   9.5      139.0000    0.0146   13.7000                          1350500201144 
   9.5      140.0000    0.0141   14.2000                          1350500201145 
   9.5      144.0000    0.0114   17.5000                          1350500201146 
   9.5      144.0000    0.0112   17.9000                          1350500201147 
   9.5      145.0000    0.0100   20.0000                          1350500201148 
   9.5      147.0000    0.0087   22.9000                          1350500201149 
   9.5      147.0000    0.0103   19.4000                          1350500201150 
   9.5      149.0000    0.0116   17.2000                          1350500201151 
   9.5      150.0000    0.0087   22.9000                          1350500201152 
   9.5      154.0000    0.0140   14.3000                          1350500201153 
   9.5      155.0000    0.0157   12.7000                          1350500201154 
   9.5      157.0000    0.0215    9.3000                          1350500201155 
   9.5      157.0000    0.0243    8.2300                          1350500201156 
   9.5      158.0000    0.0221    9.0500                          1350500201157 
   9.9990    17.9000    3.6500    5.0000                          1350500201158 
   9.9990    18.9000    3.3500    5.0000                          1350500201159 
   9.9990    20.7000    2.7400    5.0000                          1350500201160 
   9.9990    20.8000    2.7400    5.0000                          1350500201161 
   9.9990    21.8000    2.5900    5.0000                          1350500201162 
   9.9990    25.7000    1.4600    5.0000                          1350500201163 
   9.9990    25.8000    1.5000    5.0000                          1350500201164 
   9.9990    27.7000    0.9860    5.0000                          1350500201165 
   9.9990    28.3000    0.9660    5.0000                          1350500201166 
   9.9990    28.6000    0.8140    5.0000                          1350500201167 
   9.9990    28.7000    0.8540    5.0000                          1350500201168 
   9.9990    28.7000    0.8510    5.0000                          1350500201169 
   9.9990    29.0000    0.8280    5.0000                          1350500201170 
   9.9990    29.7000    0.7790    5.0000                          1350500201171 
   9.9990    31.0000    0.5660    5.0000                          1350500201172 
   9.9990    31.3000    0.5020    5.0000                          1350500201173 
   9.9990    32.0000    0.5050    5.4500                          1350500201174 
   9.9990    35.7000    0.1830    5.0000                          1350500201175 
   9.9990    36.0000    0.1780    5.0000                          1350500201176 
   9.9990    36.7000    0.1620    7.1800                          1350500201177 
   9.9990    38.7000    0.0664    5.0000                          1350500201178 
   9.9990    39.0000    0.0784    5.0000                          1350500201179 
   9.9990    39.6000    0.0591    7.0600                          1350500201180 
   9.9990    43.9000    0.0396    5.0500                          1350500201181 
   9.9990    44.6000    0.0410    5.0000                          1350500201182 
   9.9990    46.6000    0.0433    5.0000                          1350500201183 
   9.9990    46.9000    0.0497    5.0000                          1350500201184 
   9.9990    47.6000    0.0539    5.0000                          1350500201185 
   9.9990    51.6000    0.0812    5.0000                          1350500201186 
   9.9990    51.9000    0.0780    5.0000                          1350500201187 
   9.9990    52.6000    0.0989    5.0000                          1350500201188 
   9.9990    54.5000    0.1110    5.0000                          1350500201189 
   9.9990    54.6000    0.1010    5.0000                          1350500201190 
   9.9990    54.9000    0.0988    5.0000                          1350500201191 
   9.9990    55.6000    0.1080    5.0000                          1350500201192 
   9.9990    59.1000    0.1180    5.0000                          1350500201193 
   9.9990    59.4000    0.1120    5.0000                          1350500201194 
   9.9990    59.7000    0.1110    5.0000                          1350500201195 
   9.9990    60.1000    0.1040    5.0000                          1350500201196 
   9.9990    62.0000    0.1220    5.0000                          1350500201197 
   9.9990    62.1000    0.1160    5.0000                          1350500201198 
   9.9990    62.4000    0.1050    5.0000                          1350500201199 
   9.9990    63.1000    0.1030    5.0000                          1350500201200 
   9.9990    67.0000    0.1010    5.0000                          1350500201201 
   9.9990    67.1000    0.0938    5.0000                          1350500201202 
   9.9990    67.4000    0.0936    5.0000                          1350500201203 
   9.9990    68.0000    0.0885    5.0000                          1350500201204 
   9.9990    69.9000    0.0723    5.0000                          1350500201205 
   9.9990    70.0000    0.0720    5.0000                          1350500201206 
   9.9990    70.3000    0.0754    5.0000                          1350500201207 
   9.9990    71.0000    0.0641    5.0000                          1350500201208 
   9.9990    74.6000    0.0499    5.0000                          1350500201209 
   9.9990    74.9000    0.0493    5.0000                          1350500201210 
   9.9990    75.2000    0.0502    5.0000                          1350500201211 
   9.9990    75.5000    0.0452    5.0000                          1350500201212 
   9.9990    77.5000    0.0350    5.7100                          1350500201213 
   9.9990    77.8000    0.0387    5.1700                          1350500201214 
   9.9990    78.5000    0.0329    6.0800                          1350500201215 
   9.9990    82.7000    0.0185   10.8000                          1350500201216 
   9.9990    83.5000    0.0193   10.4000                          1350500201217 
   9.9990    85.4000    0.0164   12.2000                          1350500201218 
   9.9990    85.5000    0.0133   15.0000                          1350500201219 
   9.9990    86.5000    0.0127   15.7000                          1350500201220 
   9.9990    90.0000    0.0111   18.0000                          1350500201221 
   9.9990    90.3000    0.0114   17.5000                          1350500201222 
   9.9990    91.0000    0.0107   18.7000                          1350500201223 
   9.9990    92.9000    0.0087   22.9000                          1350500201224 
   9.9990    93.0000    0.0085   23.5000                          1350500201225 
   9.9990    93.3000    0.0090   22.3000                          1350500201226 
   9.9990    94.0000    0.0102   19.6000                          1350500201227 
   9.9990    98.0000    0.0094   21.2000                          1350500201228 
   9.9990    98.3000    0.0087   23.0000                          1350500201229 
   9.9990    99.0000    0.0103   19.4000                          1350500201230 
   9.9990   101.0000    0.0090   22.2000                          1350500201231 
   9.9990   101.0000    0.0087   23.0000                          1350500201232 
   9.9990   102.0000    0.0091   21.9000                          1350500201233 
   9.9990   102.0000    0.0099   20.2000                          1350500201234 
   9.9990   106.0000    0.0099   20.3000                          1350500201235 
   9.9990   106.0000    0.0102   19.6000                          1350500201236 
   9.9990   106.0000    0.0104   19.2000                          1350500201237 
   9.9990   106.0000    0.0098   20.5000                          1350500201238 
   9.9990   108.0000    0.0107   18.7000                          1350500201239 
   9.9990   109.0000    0.0121   16.5000                          1350500201240 
   9.9990   109.0000    0.0126   15.9000                          1350500201241 
   9.9990   110.0000    0.0111   18.0000                          1350500201242 
   9.9990   113.0000    0.0159   12.6000                          1350500201243 
   9.9990   113.0000    0.0158   12.7000                          1350500201244 
   9.9990   114.0000    0.0148   13.5000                          1350500201245 
   9.9990   114.0000    0.0140   14.3000                          1350500201246 
   9.9990   116.0000    0.0191   10.5000                          1350500201247 
   9.9990   116.0000    0.0147   13.6000                          1350500201248 
   9.9990   117.0000    0.0155   12.9000                          1350500201249 
   9.9990   117.0000    0.0167   12.0000                          1350500201250 
   9.9990   120.0000    0.0189   10.6000                          1350500201251 
   9.9990   121.0000    0.0193   10.4000                          1350500201252 
   9.9990   122.0000    0.0170   11.8000                          1350500201253 
   9.9990   123.0000    0.0215    9.3000                          1350500201254 
   9.9990   124.0000    0.0214    9.3500                          1350500201255 
   9.9990   124.0000    0.0200   10.0000                          1350500201256 
   9.9990   125.0000    0.0192   10.4000                          1350500201257 
   9.9990   129.0000    0.0203    9.8500                          1350500201258 
   9.9990   129.0000    0.0212    9.4300                          1350500201259 
   9.9990   129.0000    0.0193   10.4000                          1350500201260 
   9.9990   130.0000    0.0165   12.1000                          1350500201261 
   9.9990   132.0000    0.0158   12.7000                          1350500201262 
   9.9990   133.0000    0.0151   13.2000                          1350500201263 
   9.9990   137.0000    0.0097   20.6000                          1350500201264 
   9.9990   137.0000    0.0124   16.1000                          1350500201265 
   9.9990   139.0000    0.0091   22.1000                          1350500201266 
   9.9990   139.0000    0.0098   20.3000                          1350500201267 
   9.9990   140.0000    0.0079   25.2000                          1350500201268 
   9.9990   144.0000    0.0085   23.6000                          1350500201269 
   9.9990   144.0000    0.0076   26.2000                          1350500201270 
   9.9990   145.0000    0.0077   26.1000                          1350500201271 
   9.9990   145.0000    0.0091   22.1000                          1350500201272 
   9.9990   147.0000    0.0082   24.4000                          1350500201273 
   9.9990   147.0000    0.0091   22.0000                          1350500201274 
   9.9990   147.0000    0.0082   24.4000                          1350500201275 
   9.9990   147.0000    0.0070   28.8000                          1350500201276 
   9.9990   147.0000    0.0076   26.4000                          1350500201277 
   9.9990   148.0000    0.0098   20.3000                          1350500201278 
   9.9990   148.0000    0.0095   21.1000                          1350500201279 
   9.9990   149.0000    0.0111   18.0000                          1350500201280 
   9.9990   149.0000    0.0133   15.0000                          1350500201281 
   9.9990   150.0000    0.0111   18.0000                          1350500201282 
   9.9990   150.0000    0.0120   16.7000                          1350500201283 
   9.9990   155.0000    0.0211    9.4800                          1350500201284 
   9.9990   157.0000    0.0290    6.9000                          1350500201285 
   9.9990   157.0000    0.0218    9.1700                          1350500201286 
   9.9990   157.0000    0.0246    8.1300                          1350500201287 
   9.9990   158.0000    0.0233    8.5800                          1350500201288 
ENDDATA           1281          0                                 1350500201289 
ENDSUBENT         1288          0                                 1350500299999 
ENDENTRY             2          0                                 1350599999999 
