ENTRY            13594   19941128                             00001359400000001 
SUBENT        13594001   19941128                             00001359400100001 
BIB                 12         22                                 1359400100002 
INSTITUTE  (1USAKTY)                                              1359400100003 
REFERENCE  (T,KLEPPINGER,84)                                      1359400100004 
AUTHOR     (E.W.KLEPPINGER)                                       1359400100005 
TITLE      Investigation of the supersymmetry in shape-           1359400100006 
            transitional nuclei: a study of osmium-190,192 and    1359400100007 
            iridium-191,193 by the (neutron,neutron' gamma)       1359400100008 
FACILITY   (VDG)                                                  1359400100009 
INC-SOURCE (P-T)                                                  1359400100010 
DETECTOR   (GELI)                                                 1359400100011 
MONITOR    (26-FE-56(N,INL)26-FE-56,PAR,SIG,G)                    1359400100012 
CORRECTION Corrected for:                                         1359400100013 
           . background,                                          1359400100014 
           . detector efficiency,                                 1359400100015 
           . neutron attenuation and multiple scattering in sample1359400100016 
           . self-absorption of emitted radiation                 1359400100017 
ERR-ANALYS Cross sections for first few levels may be somewhat    1359400100018 
            large due to additional unidentified transitions.     1359400100019 
           Peak areas for gamma rays below 100 keV have very large1359400100020 
            uncertainties.                                        1359400100021 
STATUS     Data taken from thesis                                 1359400100022 
           No reply to author proof                               1359400100023 
HISTORY    (940214C)                                              1359400100024 
ENDBIB              22          0                                 1359400100025 
COMMON               1          3                                 1359400100026 
E-NRM                                                             1359400100027 
KEV                                                               1359400100028 
 847.                                                             1359400100029 
ENDCOMMON            3          0                                 1359400100030 
ENDSUBENT           29          0                                 1359400199999 
SUBENT        13594002   19940323                             00001359400200001 
BIB                  2          2                                 1359400200002 
REACTION   (76-OS-190(N,INL)76-OS-190,PAR,SIG,G)                  1359400200003 
SAMPLE     Metallic sample, enriched to 97.8% 190Os.              1359400200004 
ENDBIB               2          0                                 1359400200005 
COMMON               1          3                                 1359400200006 
EN                                                                1359400200007 
MEV                                                               1359400200008 
 2.5                                                              1359400200009 
ENDCOMMON            3          0                                 1359400200010 
DATA                 3         51                                 1359400200011 
E-LVL      E-ERR      DATA                                        1359400200012 
KEV        KEV        MB                                          1359400200013 
 186.718      0.002   384.                                        1359400200014 
 547.857      0.009    94.                                        1359400200015 
 557.973      0.006   182.                                        1359400200016 
 756.01       0.002    71.                                        1359400200017 
 911.80       0.007    27.                                        1359400200018 
 955.36       0.009   124.                                        1359400200019 
1050.2        0.003    15.                                        1359400200020 
1114.71       0.014    58.                                        1359400200021 
1163.19       0.010    67.                                        1359400200022 
1203.80       0.010    30.                                        1359400200023 
1382.3        0.003    16.                                        1359400200024 
1386.93       0.007   142.                                        1359400200025 
1436.06       0.008    58.                                        1359400200026 
1446.16       0.008    34.                                        1359400200027 
1544.9        0.003    16.0                                       1359400200028 
1569.2        0.002    23.                                        1359400200029 
1570.3        0.003    17.                                        1359400200030 
1583.90       0.009    19.                                        1359400200031 
1615.8        0.002    65.                                        1359400200032 
1675.57       0.013    53.                                        1359400200033 
1679.5        0.003    13.                                        1359400200034 
1680.6        0.003    47.                                        1359400200035 
1681.57       0.014    34.                                        1359400200036 
1688.92       0.014    14.                                        1359400200037 
1689.21       0.017    16.                                        1359400200038 
1708.1        0.002    15.                                        1359400200039 
1732.88       0.016    58.                                        1359400200040 
1802.6        0.004    27.                                        1359400200041 
1813.5        0.002    26.                                        1359400200042 
1823.6        0.002    35.                                        1359400200043 
1859.03       0.016    38.                                        1359400200044 
1872.46       0.009     9.3                                       1359400200045 
1884.4        0.002    15.                                        1359400200046 
1902.1        0.004    24.                                        1359400200047 
1902.9        0.002     8.4                                       1359400200048 
1903.3        0.002    10.                                        1359400200049 
1910.66       0.017    41.                                        1359400200050 
1918.3        0.004     9.2                                       1359400200051 
1935.33       0.019    22.                                        1359400200052 
1943.6        0.004    14.                                        1359400200053 
1958.1        0.003    14.                                        1359400200054 
1970.3        0.002    22.                                        1359400200055 
1992.4        0.003    14.                                        1359400200056 
1994.8        0.003    24.                                        1359400200057 
2025.5        0.003    24.                                        1359400200058 
2070.2        0.002    33.                                        1359400200059 
2112.1        0.007     5.6                                       1359400200060 
2118.50       0.019    21.                                        1359400200061 
2124.65       0.017    16.                                        1359400200062 
2135.5        0.003    11.                                        1359400200063 
2175.5        0.010     6.0                                       1359400200064 
ENDDATA             53          0                                 1359400200065 
ENDSUBENT           64          0                                 1359400299999 
SUBENT        13594003   19940323                             00001359400300001 
BIB                  2          2                                 1359400300002 
REACTION   (77-IR-191(N,INL)77-IR-191,PAR,SIG,G)                  1359400300003 
SAMPLE     Metallic sample, enriched to 98.1% 191Ir.              1359400300004 
ENDBIB               2          0                                 1359400300005 
COMMON               1          3                                 1359400300006 
EN                                                                1359400300007 
MEV                                                               1359400300008 
 1.5                                                              1359400300009 
ENDCOMMON            3          0                                 1359400300010 
DATA                 4         57                                 1359400300011 
E-LVL      E-ERR      DATA       DATA-MAX                         1359400300012 
KEV        KEV        MB         MB                               1359400300013 
 129.400      0.011    77.                                        1359400300014 
 179.01       0.011     4.                                        1359400300015 
 343.22       0.004    69.                                        1359400300016 
 351.17       0.003    68.                                        1359400300017 
 390.94       0.005    48.                                        1359400300018 
 502.57       0.008    42.                                        1359400300019 
 504.09       0.005    76.                                        1359400300020 
 538.86       0.004    74.                                        1359400300021 
 556.90       0.015    13.                                        1359400300022 
 588.10       0.005    43.                                        1359400300023 
 591.13       0.018     6.                                        1359400300024 
 624.10       0.009    25.                                        1359400300025 
 654.00       0.011    33.                                        1359400300026 
 659.09       0.012    65.                                        1359400300027 
 686.21       0.016    55.                                        1359400300028 
 747.91       0.003    48.                                        1359400300029 
 762.61       0.008    32.                                        1359400300030 
 800.5        0.002    54.                                        1359400300031 
 812.02       0.005    29.                                        1359400300032 
 816.94       0.011    26.                                        1359400300033 
 825.36       0.017    20.                                        1359400300034 
 831.98       0.016    10.                                        1359400300035 
 878.17       0.006    18.                                        1359400300036 
 918.59       0.012    12.                                        1359400300037 
 927.37       0.014    36.                                        1359400300038 
 935.50       0.017    37.                                        1359400300039 
 944.98       0.013     9.                                        1359400300040 
 946.59       0.016    14.                                        1359400300041 
 972.22       0.015    22.                                        1359400300042 
 972.85       0.013    22.                                        1359400300043 
 977.84       0.018    18.                                        1359400300044 
 990.35       0.019    12.                                        1359400300045 
1003.9        0.002     2.                                        1359400300046 
1013.87       0.012     2.                                        1359400300047 
1022.1        0.003    14.                                        1359400300048 
1035.05       0.016    27.                                        1359400300049 
1052.71       0.011    10.                                        1359400300050 
1091.98       0.013               0.1                             1359400300051 
1094.98       0.013    15.                                        1359400300052 
1129.60       0.013    21.                                        1359400300053 
1133.48       0.011    17.                                        1359400300054 
1136.45       0.013     0.2                                       1359400300055 
1162.28       0.011    18.                                        1359400300056 
1176.8        0.002     8.                                        1359400300057 
1191.5        0.003    12.                                        1359400300058 
1206.67       0.019     3.                                        1359400300059 
1210.25       0.013              11.                              1359400300060 
1241.28       0.017    10.                                        1359400300061 
1243.00       0.019               6.                              1359400300062 
1244.57       0.015    11.                                        1359400300063 
1248.5        0.003    13.                                        1359400300064 
1252.82       0.016     1.                                        1359400300065 
1277.9        0.002    20.                                        1359400300066 
1352.42       0.016     9.                                        1359400300067 
1355.44       0.017    10.                                        1359400300068 
1401.2        0.002    12.                                        1359400300069 
1429.2        0.002     2.                                        1359400300070 
ENDDATA             59          0                                 1359400300071 
ENDSUBENT           70          0                                 1359400399999 
ENDENTRY             3          0                                 1359499999999 
