ENTRY            13638   19961212                             00001363800000001 
SUBENT        13638001   19961212                             00001363800100001 
BIB                 14         19                                 1363800100002 
INSTITUTE  (1USAANL,1USAUAZ)                                      1363800100003 
REFERENCE  (R,ANL-NDM-137,9607)                                   1363800100004 
AUTHOR     (A.B.SMITH)                                            1363800100005 
TITLE      Neutron scattering and models: -silver                 1363800100006 
FACILITY   (DYNAM,1USAANL) Tandem dynamitron.                     1363800100007 
INC-SOURCE (D-D)                                                  1363800100008 
SAMPLE     Metallic cylinder of high purity elemental silver.     1363800100009 
METHOD     (TOF)                                                  1363800100010 
DETECTOR   (SCIN) Hydrogenous scintillators, calibrated using     1363800100011 
            252Cf spontaneous fission source.                     1363800100012 
MONITOR    (1-H-1(N,EL)1-H-1,,SIG)                                1363800100013 
CORRECTION Corrected for multiple-events, beam attenuation, and   1363800100014 
            angular resolution effects.                           1363800100015 
ERR-ANALYS (DATA-ERR) Icludes contributions from statistics,      1363800100016 
            angular uncertainties, normailization and correction  1363800100017 
            procedures.                                           1363800100018 
STATUS     Data received on diskette, A. Smith, 96/11/20.         1363800100019 
           (APRVD) Approved by A.B. Smith, 96/12/12.              1363800100020 
HISTORY    (961203C)                                              1363800100021 
ENDBIB              19          0                                 1363800100022 
NOCOMMON             0          0                                 1363800100023 
ENDSUBENT           22          0                                 1363800199999 
SUBENT        13638002   19961203                             00001363800200001 
BIB                  1          2                                 1363800200002 
REACTION   ((47-AG-0(N,EL)47-AG-0,,DA)+                           1363800200003 
           (47-AG-0(N,INL)47-AG-0,PAR,DA))                        1363800200004 
ENDBIB               2          0                                 1363800200005 
COMMON               1          3                                 1363800200006 
E-LVL-MAX                                                         1363800200007 
KEV                                                               1363800200008 
 450.                                                             1363800200009 
ENDCOMMON            3          0                                 1363800200010 
DATA                 4        479                                 1363800200011 
EN         ANG        DATA       DATA-ERR                         1363800200012 
MEV        ADEG       B/SR       PER-CENT                         1363800200013 
 4.5100     0.1737E+02 0.1612E+01 0.3029E+01                      1363800200014 
 4.5100     0.2132E+02 0.1216E+01 0.3032E+01                      1363800200015 
 4.5100     0.2528E+02 0.8490E+00 0.3035E+01                      1363800200016 
 4.5100     0.2727E+02 0.7183E+00 0.3041E+01                      1363800200017 
 4.5100     0.2925E+02 0.5624E+00 0.3050E+01                      1363800200018 
 4.5100     0.3124E+02 0.4466E+00 0.3052E+01                      1363800200019 
 4.5100     0.3522E+02 0.2569E+00 0.3090E+01                      1363800200020 
 4.5100     0.3921E+02 0.1343E+00 0.3131E+01                      1363800200021 
 4.5100     0.4269E+02 0.7935E-01 0.3184E+01                      1363800200022 
 4.5100     0.4668E+02 0.6045E-01 0.3244E+01                      1363800200023 
 4.5100     0.5067E+02 0.7238E-01 0.3208E+01                      1363800200024 
 4.5100     0.5466E+02 0.9382E-01 0.3166E+01                      1363800200025 
 4.5100     0.5815E+02 0.1190E+00 0.3135E+01                      1363800200026 
 4.5100     0.6215E+02 0.1398E+00 0.3105E+01                      1363800200027 
 4.5100     0.6614E+02 0.1565E+00 0.3095E+01                      1363800200028 
 4.5100     0.7013E+02 0.1520E+00 0.3094E+01                      1363800200029 
 4.5100     0.7362E+02 0.1443E+00 0.3098E+01                      1363800200030 
 4.5100     0.7762E+02 0.1257E+00 0.3109E+01                      1363800200031 
 4.5100     0.8161E+02 0.9750E-01 0.3130E+01                      1363800200032 
 4.5100     0.8561E+02 0.6806E-01 0.3190E+01                      1363800200033 
 4.5100     0.8910E+02 0.4801E-01 0.3253E+01                      1363800200034 
 4.5100     0.9309E+02 0.2954E-01 0.4430E+01                      1363800200035 
 4.5100     0.9709E+02 0.1721E-01 0.6537E+01                      1363800200036 
 4.5100     0.1011E+03 0.1173E-01 0.8605E+01                      1363800200037 
 4.5100     0.1051E+03 0.1373E-01 0.7950E+01                      1363800200038 
 4.5100     0.1091E+03 0.2104E-01 0.6115E+01                      1363800200039 
 4.5100     0.1131E+03 0.3173E-01 0.4593E+01                      1363800200040 
 4.5100     0.1171E+03 0.4202E-01 0.3735E+01                      1363800200041 
 4.5100     0.1200E+03 0.5453E-01 0.3281E+01                      1363800200042 
 4.5100     0.1240E+03 0.5926E-01 0.3256E+01                      1363800200043 
 4.5100     0.1280E+03 0.6763E-01 0.3246E+01                      1363800200044 
 4.5100     0.1320E+03 0.6485E-01 0.3258E+01                      1363800200045 
 4.5100     0.1355E+03 0.6188E-01 0.3286E+01                      1363800200046 
 4.5100     0.1395E+03 0.5293E-01 0.3328E+01                      1363800200047 
 4.5100     0.1435E+03 0.4383E-01 0.3695E+01                      1363800200048 
 4.5100     0.1455E+03 0.3911E-01 0.4002E+01                      1363800200049 
 4.5100     0.1475E+03 0.3317E-01 0.4557E+01                      1363800200050 
 4.5100     0.1495E+03 0.2976E-01 0.4961E+01                      1363800200051 
 4.5100     0.1534E+03 0.2367E-01 0.5951E+01                      1363800200052 
 4.5100     0.1574E+03 0.2184E-01 0.6409E+01                      1363800200053 
 5.0100     0.1737E+02 0.1797E+01 0.3028E+01                      1363800200054 
 5.0100     0.2132E+02 0.1385E+01 0.3030E+01                      1363800200055 
 5.0100     0.2528E+02 0.9400E+00 0.3034E+01                      1363800200056 
 5.0100     0.2727E+02 0.7553E+00 0.3041E+01                      1363800200057 
 5.0100     0.2925E+02 0.5856E+00 0.3051E+01                      1363800200058 
 5.0100     0.3124E+02 0.4590E+00 0.3054E+01                      1363800200059 
 5.0100     0.3522E+02 0.2326E+00 0.3103E+01                      1363800200060 
 5.0100     0.3921E+02 0.1086E+00 0.3164E+01                      1363800200061 
 5.0100     0.4269E+02 0.6027E-01 0.3250E+01                      1363800200062 
 5.0100     0.4668E+02 0.4365E-01 0.3716E+01                      1363800200063 
 5.0100     0.5067E+02 0.6990E-01 0.3227E+01                      1363800200064 
 5.0100     0.5466E+02 0.1010E+00 0.3165E+01                      1363800200065 
 5.0100     0.5815E+02 0.1313E+00 0.3130E+01                      1363800200066 
 5.0100     0.6215E+02 0.1594E+00 0.3099E+01                      1363800200067 
 5.0100     0.6614E+02 0.1713E+00 0.3093E+01                      1363800200068 
 5.0100     0.7013E+02 0.1598E+00 0.3093E+01                      1363800200069 
 5.0100     0.7362E+02 0.1499E+00 0.3102E+01                      1363800200070 
 5.0100     0.7762E+02 0.1256E+00 0.3115E+01                      1363800200071 
 5.0100     0.8161E+02 0.9824E-01 0.3137E+01                      1363800200072 
 5.0100     0.8561E+02 0.6963E-01 0.3204E+01                      1363800200073 
 5.0100     0.8910E+02 0.4624E-01 0.4138E+01                      1363800200074 
 5.0100     0.9309E+02 0.2846E-01 0.5982E+01                      1363800200075 
 5.0100     0.9709E+02 0.1655E-01 0.8927E+01                      1363800200076 
 5.0100     0.1011E+03 0.1312E-01 0.1028E+02                      1363800200077 
 5.0100     0.1051E+03 0.1616E-01 0.9043E+01                      1363800200078 
 5.0100     0.1091E+03 0.2222E-01 0.7664E+01                      1363800200079 
 5.0100     0.1131E+03 0.3246E-01 0.5846E+01                      1363800200080 
 5.0100     0.1171E+03 0.4689E-01 0.4404E+01                      1363800200081 
 5.0100     0.1200E+03 0.5771E-01 0.3720E+01                      1363800200082 
 5.0100     0.1240E+03 0.6787E-01 0.3270E+01                      1363800200083 
 5.0100     0.1280E+03 0.7158E-01 0.3244E+01                      1363800200084 
 5.0100     0.1320E+03 0.6818E-01 0.3265E+01                      1363800200085 
 5.0100     0.1355E+03 0.6111E-01 0.3566E+01                      1363800200086 
 5.0100     0.1395E+03 0.5515E-01 0.3886E+01                      1363800200087 
 5.0100     0.1435E+03 0.4130E-01 0.4983E+01                      1363800200088 
 5.0100     0.1455E+03 0.3438E-01 0.5729E+01                      1363800200089 
 5.0100     0.1475E+03 0.2856E-01 0.6669E+01                      1363800200090 
 5.0100     0.1495E+03 0.2462E-01 0.7490E+01                      1363800200091 
 5.0100     0.1534E+03 0.1850E-01 0.9212E+01                      1363800200092 
 5.0100     0.1574E+03 0.1515E-01 0.1103E+02                      1363800200093 
 5.5100     0.1737E+02 0.1879E+01 0.3029E+01                      1363800200094 
 5.5100     0.2132E+02 0.1414E+01 0.3031E+01                      1363800200095 
 5.5100     0.2528E+02 0.9121E+00 0.3036E+01                      1363800200096 
 5.5100     0.2727E+02 0.7399E+00 0.3045E+01                      1363800200097 
 5.5100     0.2925E+02 0.5803E+00 0.3058E+01                      1363800200098 
 5.5100     0.3124E+02 0.4208E+00 0.3061E+01                      1363800200099 
 5.5100     0.3522E+02 0.1873E+00 0.3124E+01                      1363800200100 
 5.5100     0.3921E+02 0.9053E-01 0.3211E+01                      1363800200101 
 5.5100     0.4269E+02 0.4481E-01 0.3315E+01                      1363800200102 
 5.5100     0.4668E+02 0.4599E-01 0.3321E+01                      1363800200103 
 5.5100     0.5067E+02 0.8371E-01 0.3216E+01                      1363800200104 
 5.5100     0.5466E+02 0.1248E+00 0.3155E+01                      1363800200105 
 5.5100     0.5815E+02 0.1495E+00 0.3122E+01                      1363800200106 
 5.5100     0.6215E+02 0.1755E+00 0.3097E+01                      1363800200107 
 5.5100     0.6614E+02 0.1777E+00 0.3093E+01                      1363800200108 
 5.5100     0.7013E+02 0.1652E+00 0.3095E+01                      1363800200109 
 5.5100     0.7362E+02 0.1496E+00 0.3113E+01                      1363800200110 
 5.5100     0.7762E+02 0.1193E+00 0.3132E+01                      1363800200111 
 5.5100     0.8161E+02 0.8497E-01 0.3162E+01                      1363800200112 
 5.5100     0.8561E+02 0.5727E-01 0.3249E+01                      1363800200113 
 5.5100     0.8910E+02 0.3831E-01 0.4192E+01                      1363800200114 
 5.5100     0.9309E+02 0.2368E-01 0.5992E+01                      1363800200115 
 5.5100     0.9709E+02 0.1677E-01 0.7750E+01                      1363800200116 
 5.5100     0.1011E+03 0.1562E-01 0.8231E+01                      1363800200117 
 5.5100     0.1051E+03 0.1918E-01 0.7339E+01                      1363800200118 
 5.5100     0.1091E+03 0.2714E-01 0.5874E+01                      1363800200119 
 5.5100     0.1131E+03 0.3633E-01 0.4712E+01                      1363800200120 
 5.5100     0.1171E+03 0.4847E-01 0.3793E+01                      1363800200121 
 5.5100     0.1200E+03 0.5803E-01 0.3299E+01                      1363800200122 
 5.5100     0.1240E+03 0.6318E-01 0.3283E+01                      1363800200123 
 5.5100     0.1280E+03 0.6457E-01 0.3278E+01                      1363800200124 
 5.5100     0.1320E+03 0.6135E-01 0.3309E+01                      1363800200125 
 5.5100     0.1355E+03 0.5505E-01 0.3425E+01                      1363800200126 
 5.5100     0.1395E+03 0.4551E-01 0.3991E+01                      1363800200127 
 5.5100     0.1435E+03 0.3501E-01 0.5047E+01                      1363800200128 
 5.5100     0.1455E+03 0.3031E-01 0.5591E+01                      1363800200129 
 5.5100     0.1475E+03 0.2485E-01 0.6609E+01                      1363800200130 
 5.5100     0.1495E+03 0.2355E-01 0.6903E+01                      1363800200131 
 5.5100     0.1534E+03 0.1680E-01 0.9078E+01                      1363800200132 
 5.5100     0.1574E+03 0.1516E-01 0.9883E+01                      1363800200133 
 5.9100     0.1737E+02 0.2133E+01 0.3026E+01                      1363800200134 
 5.9100     0.2132E+02 0.1561E+01 0.3029E+01                      1363800200135 
 5.9100     0.2528E+02 0.1019E+01 0.3035E+01                      1363800200136 
 5.9100     0.2727E+02 0.7903E+00 0.3043E+01                      1363800200137 
 5.9100     0.2925E+02 0.5735E+00 0.3058E+01                      1363800200138 
 5.9100     0.3124E+02 0.4373E+00 0.3061E+01                      1363800200139 
 5.9100     0.3522E+02 0.1899E+00 0.3132E+01                      1363800200140 
 5.9100     0.3921E+02 0.7225E-01 0.3233E+01                      1363800200141 
 5.9100     0.4269E+02 0.4094E-01 0.4742E+01                      1363800200142 
 5.9100     0.4668E+02 0.5426E-01 0.4063E+01                      1363800200143 
 5.9100     0.5067E+02 0.9416E-01 0.3194E+01                      1363800200144 
 5.9100     0.5466E+02 0.1475E+00 0.3138E+01                      1363800200145 
 5.9100     0.5815E+02 0.1733E+00 0.3111E+01                      1363800200146 
 5.9100     0.6215E+02 0.1948E+00 0.3092E+01                      1363800200147 
 5.9100     0.6614E+02 0.1876E+00 0.3093E+01                      1363800200148 
 5.9100     0.7013E+02 0.1702E+00 0.3096E+01                      1363800200149 
 5.9100     0.7362E+02 0.1485E+00 0.3117E+01                      1363800200150 
 5.9100     0.7762E+02 0.1137E+00 0.3141E+01                      1363800200151 
 5.9100     0.8161E+02 0.7857E-01 0.3451E+01                      1363800200152 
 5.9100     0.8561E+02 0.5243E-01 0.4891E+01                      1363800200153 
 5.9100     0.8910E+02 0.3663E-01 0.6475E+01                      1363800200154 
 5.9100     0.9309E+02 0.2326E-01 0.9194E+01                      1363800200155 
 5.9100     0.9709E+02 0.1792E-01 0.1126E+02                      1363800200156 
 5.9100     0.1011E+03 0.1938E-01 0.1078E+02                      1363800200157 
 5.9100     0.1051E+03 0.2140E-01 0.1044E+02                      1363800200158 
 5.9100     0.1091E+03 0.2871E-01 0.8475E+01                      1363800200159 
 5.9100     0.1131E+03 0.3975E-01 0.6646E+01                      1363800200160 
 5.9100     0.1171E+03 0.4855E-01 0.5677E+01                      1363800200161 
 5.9100     0.1200E+03 0.5720E-01 0.4917E+01                      1363800200162 
 5.9100     0.1240E+03 0.6526E-01 0.4402E+01                      1363800200163 
 5.9100     0.1280E+03 0.6172E-01 0.4619E+01                      1363800200164 
 5.9100     0.1320E+03 0.5965E-01 0.4754E+01                      1363800200165 
 5.9100     0.1355E+03 0.5254E-01 0.5326E+01                      1363800200166 
 5.9100     0.1395E+03 0.4436E-01 0.6096E+01                      1363800200167 
 5.9100     0.1435E+03 0.3201E-01 0.8094E+01                      1363800200168 
 5.9100     0.1455E+03 0.2717E-01 0.9151E+01                      1363800200169 
 5.9100     0.1475E+03 0.2310E-01 0.1038E+02                      1363800200170 
 5.9100     0.1495E+03 0.2144E-01 0.1092E+02                      1363800200171 
 5.9100     0.1534E+03 0.1578E-01 0.1433E+02                      1363800200172 
 5.9100     0.1574E+03 0.1540E-01 0.1491E+02                      1363800200173 
 6.5100     0.1737E+02 0.2459E+01 0.3025E+01                      1363800200174 
 6.5100     0.2132E+02 0.1691E+01 0.3028E+01                      1363800200175 
 6.5100     0.2528E+02 0.1089E+01 0.3035E+01                      1363800200176 
 6.5100     0.2727E+02 0.8310E+00 0.3044E+01                      1363800200177 
 6.5100     0.2925E+02 0.5671E+00 0.3061E+01                      1363800200178 
 6.5100     0.3124E+02 0.4065E+00 0.3065E+01                      1363800200179 
 6.5100     0.3522E+02 0.1686E+00 0.3150E+01                      1363800200180 
 6.5100     0.3921E+02 0.6226E-01 0.3269E+01                      1363800200181 
 6.5100     0.4269E+02 0.4470E-01 0.3343E+01                      1363800200182 
 6.5100     0.4668E+02 0.7269E-01 0.3253E+01                      1363800200183 
 6.5100     0.5067E+02 0.1236E+00 0.3166E+01                      1363800200184 
 6.5100     0.5466E+02 0.1741E+00 0.3126E+01                      1363800200185 
 6.5100     0.5815E+02 0.2003E+00 0.3106E+01                      1363800200186 
 6.5100     0.6215E+02 0.2089E+00 0.3093E+01                      1363800200187 
 6.5100     0.6614E+02 0.1914E+00 0.3097E+01                      1363800200188 
 6.5100     0.7013E+02 0.1608E+00 0.3106E+01                      1363800200189 
 6.5100     0.7362E+02 0.1377E+00 0.3136E+01                      1363800200190 
 6.5100     0.7762E+02 0.9595E-01 0.3169E+01                      1363800200191 
 6.5100     0.8161E+02 0.6619E-01 0.3220E+01                      1363800200192 
 6.5100     0.8561E+02 0.3939E-01 0.4472E+01                      1363800200193 
 6.5100     0.8910E+02 0.2940E-01 0.5513E+01                      1363800200194 
 6.5100     0.9309E+02 0.2136E-01 0.7206E+01                      1363800200195 
 6.5100     0.9709E+02 0.2071E-01 0.7461E+01                      1363800200196 
 6.5100     0.1011E+03 0.2373E-01 0.6953E+01                      1363800200197 
 6.5100     0.1051E+03 0.2912E-01 0.6146E+01                      1363800200198 
 6.5100     0.1091E+03 0.3488E-01 0.5461E+01                      1363800200199 
 6.5100     0.1131E+03 0.3944E-01 0.4979E+01                      1363800200200 
 6.5100     0.1171E+03 0.4508E-01 0.4453E+01                      1363800200201 
 6.5100     0.1200E+03 0.4803E-01 0.4217E+01                      1363800200202 
 6.5100     0.1240E+03 0.4882E-01 0.4182E+01                      1363800200203 
 6.5100     0.1280E+03 0.4671E-01 0.4307E+01                      1363800200204 
 6.5100     0.1320E+03 0.4400E-01 0.4595E+01                      1363800200205 
 6.5100     0.1355E+03 0.4088E-01 0.4885E+01                      1363800200206 
 6.5100     0.1395E+03 0.3239E-01 0.5947E+01                      1363800200207 
 6.5100     0.1435E+03 0.2542E-01 0.7363E+01                      1363800200208 
 6.5100     0.1455E+03 0.2297E-01 0.7878E+01                      1363800200209 
 6.5100     0.1475E+03 0.1774E-01 0.9592E+01                      1363800200210 
 6.5100     0.1495E+03 0.1720E-01 0.9444E+01                      1363800200211 
 6.5100     0.1534E+03 0.1439E-01 0.1085E+02                      1363800200212 
 6.5100     0.1574E+03 0.1777E-01 0.9700E+01                      1363800200213 
 7.1400     0.1737E+02 0.2802E+01 0.3023E+01                      1363800200214 
 7.1400     0.2132E+02 0.1992E+01 0.3026E+01                      1363800200215 
 7.1400     0.2528E+02 0.1195E+01 0.3032E+01                      1363800200216 
 7.1400     0.2727E+02 0.9030E+00 0.3042E+01                      1363800200217 
 7.1400     0.2925E+02 0.6698E+00 0.3058E+01                      1363800200218 
 7.1400     0.3124E+02 0.4533E+00 0.3062E+01                      1363800200219 
 7.1400     0.3522E+02 0.1694E+00 0.3146E+01                      1363800200220 
 7.1400     0.3921E+02 0.6373E-01 0.3267E+01                      1363800200221 
 7.1400     0.4269E+02 0.4846E-01 0.3744E+01                      1363800200222 
 7.1400     0.4668E+02 0.8793E-01 0.3231E+01                      1363800200223 
 7.1400     0.5067E+02 0.1490E+00 0.3149E+01                      1363800200224 
 7.1400     0.5466E+02 0.2027E+00 0.3114E+01                      1363800200225 
 7.1400     0.5815E+02 0.2202E+00 0.3100E+01                      1363800200226 
 7.1400     0.6215E+02 0.2193E+00 0.3094E+01                      1363800200227 
 7.1400     0.6614E+02 0.1905E+00 0.3101E+01                      1363800200228 
 7.1400     0.7013E+02 0.1544E+00 0.3115E+01                      1363800200229 
 7.1400     0.7362E+02 0.1210E+00 0.3162E+01                      1363800200230 
 7.1400     0.7762E+02 0.7967E-01 0.3209E+01                      1363800200231 
 7.1400     0.8161E+02 0.5171E-01 0.4460E+01                      1363800200232 
 7.1400     0.8561E+02 0.3330E-01 0.6384E+01                      1363800200233 
 7.1400     0.8910E+02 0.2552E-01 0.8046E+01                      1363800200234 
 7.1400     0.9309E+02 0.2284E-01 0.9038E+01                      1363800200235 
 7.1400     0.9709E+02 0.2462E-01 0.8586E+01                      1363800200236 
 7.1400     0.1011E+03 0.2875E-01 0.7997E+01                      1363800200237 
 7.1400     0.1051E+03 0.3250E-01 0.7363E+01                      1363800200238 
 7.1400     0.1091E+03 0.3646E-01 0.6729E+01                      1363800200239 
 7.1400     0.1131E+03 0.3863E-01 0.6514E+01                      1363800200240 
 7.1400     0.1171E+03 0.4120E-01 0.6203E+01                      1363800200241 
 7.1400     0.1200E+03 0.4167E-01 0.6127E+01                      1363800200242 
 7.1400     0.1240E+03 0.4063E-01 0.6230E+01                      1363800200243 
 7.1400     0.1280E+03 0.3884E-01 0.6480E+01                      1363800200244 
 7.1400     0.1320E+03 0.3354E-01 0.7420E+01                      1363800200245 
 7.1400     0.1355E+03 0.2948E-01 0.8297E+01                      1363800200246 
 7.1400     0.1395E+03 0.2466E-01 0.9712E+01                      1363800200247 
 7.1400     0.1435E+03 0.1841E-01 0.1227E+02                      1363800200248 
 7.1400     0.1455E+03 0.1786E-01 0.1244E+02                      1363800200249 
 7.1400     0.1475E+03 0.1641E-01 0.1340E+02                      1363800200250 
 7.1400     0.1495E+03 0.1581E-01 0.1383E+02                      1363800200251 
 7.1400     0.1534E+03 0.1666E-01 0.1324E+02                      1363800200252 
 7.1400     0.1574E+03 0.2125E-01 0.1122E+02                      1363800200253 
 7.5100     0.1737E+02 0.3019E+01 0.3021E+01                      1363800200254 
 7.5100     0.2132E+02 0.2084E+01 0.3024E+01                      1363800200255 
 7.5100     0.2528E+02 0.1305E+01 0.3031E+01                      1363800200256 
 7.5100     0.2727E+02 0.9203E+00 0.3040E+01                      1363800200257 
 7.5100     0.2925E+02 0.6739E+00 0.3055E+01                      1363800200258 
 7.5100     0.3124E+02 0.4400E+00 0.3061E+01                      1363800200259 
 7.5100     0.3522E+02 0.1768E+00 0.3143E+01                      1363800200260 
 7.5100     0.3921E+02 0.6658E-01 0.3256E+01                      1363800200261 
 7.5100     0.4269E+02 0.5523E-01 0.3292E+01                      1363800200262 
 7.5100     0.4668E+02 0.9874E-01 0.3205E+01                      1363800200263 
 7.5100     0.5067E+02 0.1615E+00 0.3136E+01                      1363800200264 
 7.5100     0.5466E+02 0.2126E+00 0.3107E+01                      1363800200265 
 7.5100     0.5815E+02 0.2286E+00 0.3097E+01                      1363800200266 
 7.5100     0.6215E+02 0.2174E+00 0.3095E+01                      1363800200267 
 7.5100     0.6614E+02 0.1888E+00 0.3103E+01                      1363800200268 
 7.5100     0.7013E+02 0.1439E+00 0.3120E+01                      1363800200269 
 7.5100     0.7362E+02 0.1118E+00 0.3173E+01                      1363800200270 
 7.5100     0.7762E+02 0.7050E-01 0.3233E+01                      1363800200271 
 7.5100     0.8161E+02 0.4478E-01 0.4057E+01                      1363800200272 
 7.5100     0.8561E+02 0.2737E-01 0.6002E+01                      1363800200273 
 7.5100     0.8910E+02 0.2317E-01 0.6934E+01                      1363800200274 
 7.5100     0.9309E+02 0.2181E-01 0.7450E+01                      1363800200275 
 7.5100     0.9709E+02 0.2619E-01 0.6842E+01                      1363800200276 
 7.5100     0.1011E+03 0.3007E-01 0.6202E+01                      1363800200277 
 7.5100     0.1051E+03 0.3488E-01 0.5658E+01                      1363800200278 
 7.5100     0.1091E+03 0.3513E-01 0.5686E+01                      1363800200279 
 7.5100     0.1131E+03 0.3823E-01 0.5366E+01                      1363800200280 
 7.5100     0.1171E+03 0.3700E-01 0.5451E+01                      1363800200281 
 7.5100     0.1200E+03 0.3510E-01 0.5713E+01                      1363800200282 
 7.5100     0.1240E+03 0.3301E-01 0.6124E+01                      1363800200283 
 7.5100     0.1280E+03 0.3249E-01 0.6262E+01                      1363800200284 
 7.5100     0.1320E+03 0.2612E-01 0.7456E+01                      1363800200285 
 7.5100     0.1355E+03 0.2440E-01 0.7972E+01                      1363800200286 
 7.5100     0.1395E+03 0.2009E-01 0.9353E+01                      1363800200287 
 7.5100     0.1435E+03 0.1628E-01 0.1107E+02                      1363800200288 
 7.5100     0.1455E+03 0.1566E-01 0.1128E+02                      1363800200289 
 7.5100     0.1475E+03 0.1405E-01 0.1243E+02                      1363800200290 
 7.5100     0.1495E+03 0.1538E-01 0.1154E+02                      1363800200291 
 7.5100     0.1534E+03 0.1727E-01 0.1071E+02                      1363800200292 
 7.5100     0.1574E+03 0.2290E-01 0.8750E+01                      1363800200293 
 8.0300     0.1737E+02 0.3169E+01 0.3020E+01                      1363800200294 
 8.0300     0.2132E+02 0.2235E+01 0.3023E+01                      1363800200295 
 8.0300     0.2528E+02 0.1365E+01 0.3029E+01                      1363800200296 
 8.0300     0.2727E+02 0.9294E+00 0.3039E+01                      1363800200297 
 8.0300     0.2925E+02 0.6485E+00 0.3055E+01                      1363800200298 
 8.0300     0.3124E+02 0.4545E+00 0.3061E+01                      1363800200299 
 8.0300     0.3522E+02 0.1724E+00 0.3145E+01                      1363800200300 
 8.0300     0.3921E+02 0.6425E-01 0.3261E+01                      1363800200301 
 8.0300     0.4269E+02 0.6057E-01 0.3284E+01                      1363800200302 
 8.0300     0.4668E+02 0.1078E+00 0.3194E+01                      1363800200303 
 8.0300     0.5067E+02 0.1765E+00 0.3129E+01                      1363800200304 
 8.0300     0.5466E+02 0.2181E+00 0.3104E+01                      1363800200305 
 8.0300     0.5815E+02 0.2225E+00 0.3095E+01                      1363800200306 
 8.0300     0.6215E+02 0.2138E+00 0.3097E+01                      1363800200307 
 8.0300     0.6614E+02 0.1726E+00 0.3112E+01                      1363800200308 
 8.0300     0.7013E+02 0.1265E+00 0.3136E+01                      1363800200309 
 8.0300     0.7362E+02 0.9236E-01 0.3207E+01                      1363800200310 
 8.0300     0.7762E+02 0.5809E-01 0.3949E+01                      1363800200311 
 8.0300     0.8161E+02 0.3419E-01 0.6054E+01                      1363800200312 
 8.0300     0.8561E+02 0.2150E-01 0.8946E+01                      1363800200313 
 8.0300     0.8910E+02 0.1915E-01 0.1006E+02                      1363800200314 
 8.0300     0.9309E+02 0.2094E-01 0.9764E+01                      1363800200315 
 8.0300     0.9709E+02 0.2800E-01 0.8019E+01                      1363800200316 
 8.0300     0.1011E+03 0.3131E-01 0.7605E+01                      1363800200317 
 8.0300     0.1051E+03 0.3482E-01 0.7025E+01                      1363800200318 
 8.0300     0.1091E+03 0.3698E-01 0.6718E+01                      1363800200319 
 8.0300     0.1131E+03 0.3560E-01 0.7019E+01                      1363800200320 
 8.0300     0.1171E+03 0.3117E-01 0.7923E+01                      1363800200321 
 8.0300     0.1200E+03 0.3133E-01 0.7942E+01                      1363800200322 
 8.0300     0.1240E+03 0.2915E-01 0.8317E+01                      1363800200323 
 8.0300     0.1280E+03 0.2764E-01 0.8612E+01                      1363800200324 
 8.0300     0.1320E+03 0.2331E-01 0.1006E+02                      1363800200325 
 8.0300     0.1355E+03 0.1957E-01 0.1187E+02                      1363800200326 
 8.0300     0.1395E+03 0.1653E-01 0.1371E+02                      1363800200327 
 8.0300     0.1435E+03 0.1461E-01 0.1540E+02                      1363800200328 
 8.0300     0.1455E+03 0.1387E-01 0.1563E+02                      1363800200329 
 8.0300     0.1475E+03 0.1291E-01 0.1677E+02                      1363800200330 
 8.0300     0.1495E+03 0.1523E-01 0.1453E+02                      1363800200331 
 8.0300     0.1534E+03 0.1770E-01 0.1283E+02                      1363800200332 
 8.0300     0.1574E+03 0.2334E-01 0.1049E+02                      1363800200333 
 8.4100     0.1737E+02 0.3723E+01 0.4000E+01                      1363800200334 
 8.4100     0.2132E+02 0.2144E+01 0.3022E+01                      1363800200335 
 8.4100     0.2528E+02 0.1184E+01 0.3029E+01                      1363800200336 
 8.4100     0.2727E+02 0.9898E+00 0.3040E+01                      1363800200337 
 8.4100     0.2925E+02 0.5782E+00 0.3060E+01                      1363800200338 
 8.4100     0.3124E+02 0.3875E+00 0.3069E+01                      1363800200339 
 8.4100     0.3522E+02 0.1294E+00 0.3160E+01                      1363800200340 
 8.4100     0.3921E+02 0.6219E-01 0.3242E+01                      1363800200341 
 8.4100     0.4269E+02 0.8988E-01 0.3221E+01                      1363800200342 
 8.4100     0.4668E+02 0.1254E+00 0.3161E+01                      1363800200343 
 8.4100     0.5067E+02 0.1834E+00 0.3122E+01                      1363800200344 
 8.4100     0.5466E+02 0.2147E+00 0.3106E+01                      1363800200345 
 8.4100     0.5815E+02 0.2182E+00 0.3101E+01                      1363800200346 
 8.4100     0.6215E+02 0.1960E+00 0.3106E+01                      1363800200347 
 8.4100     0.6614E+02 0.1526E+00 0.3121E+01                      1363800200348 
 8.4100     0.7013E+02 0.1086E+00 0.3149E+01                      1363800200349 
 8.4100     0.7362E+02 0.8128E-01 0.3227E+01                      1363800200350 
 8.4100     0.7762E+02 0.4810E-01 0.3696E+01                      1363800200351 
 8.4100     0.8161E+02 0.2506E-01 0.5920E+01                      1363800200352 
 8.4100     0.8561E+02 0.1759E-01 0.8039E+01                      1363800200353 
 8.4100     0.8910E+02 0.1848E-01 0.8046E+01                      1363800200354 
 8.4100     0.9309E+02 0.2340E-01 0.7328E+01                      1363800200355 
 8.4100     0.9709E+02 0.2916E-01 0.6477E+01                      1363800200356 
 8.4100     0.1011E+03 0.3345E-01 0.5827E+01                      1363800200357 
 8.4100     0.1051E+03 0.3505E-01 0.5760E+01                      1363800200358 
 8.4100     0.1091E+03 0.3438E-01 0.5768E+01                      1363800200359 
 8.4100     0.1131E+03 0.3195E-01 0.6157E+01                      1363800200360 
 8.4100     0.1171E+03 0.2899E-01 0.6739E+01                      1363800200361 
 8.4100     0.1200E+03 0.2982E-01 0.6619E+01                      1363800200362 
 8.4100     0.1240E+03 0.2587E-01 0.7542E+01                      1363800200363 
 8.4100     0.1280E+03 0.2257E-01 0.8588E+01                      1363800200364 
 8.4100     0.1320E+03 0.1753E-01 0.1038E+02                      1363800200365 
 8.4100     0.1355E+03 0.1685E-01 0.1057E+02                      1363800200366 
 8.4100     0.1395E+03 0.1388E-01 0.1241E+02                      1363800200367 
 8.4100     0.1435E+03 0.1286E-01 0.1357E+02                      1363800200368 
 8.4100     0.1455E+03 0.1440E-01 0.1230E+02                      1363800200369 
 8.4100     0.1475E+03 0.1372E-01 0.1304E+02                      1363800200370 
 8.4100     0.1495E+03 0.1511E-01 0.1200E+02                      1363800200371 
 8.4100     0.1534E+03 0.1740E-01 0.1048E+02                      1363800200372 
 8.4100     0.1574E+03 0.2197E-01 0.8960E+01                      1363800200373 
 9.0600     0.1737E+02 0.3411E+01 0.3019E+01                      1363800200374 
 9.0600     0.2132E+02 0.2218E+01 0.3022E+01                      1363800200375 
 9.0600     0.2528E+02 0.1367E+01 0.3029E+01                      1363800200376 
 9.0600     0.2727E+02 0.9424E+00 0.3039E+01                      1363800200377 
 9.0600     0.2925E+02 0.6908E+00 0.3055E+01                      1363800200378 
 9.0600     0.3124E+02 0.4186E+00 0.3061E+01                      1363800200379 
 9.0600     0.3522E+02 0.1655E+00 0.3142E+01                      1363800200380 
 9.0600     0.3921E+02 0.7226E-01 0.3235E+01                      1363800200381 
 9.0600     0.4269E+02 0.7348E-01 0.3243E+01                      1363800200382 
 9.0600     0.4668E+02 0.1204E+00 0.3180E+01                      1363800200383 
 9.0600     0.5067E+02 0.1736E+00 0.3132E+01                      1363800200384 
 9.0600     0.5466E+02 0.2037E+00 0.3113E+01                      1363800200385 
 9.0600     0.5815E+02 0.1952E+00 0.3108E+01                      1363800200386 
 9.0600     0.6215E+02 0.1697E+00 0.3121E+01                      1363800200387 
 9.0600     0.6614E+02 0.1315E+00 0.3143E+01                      1363800200388 
 9.0600     0.7013E+02 0.9423E-01 0.3183E+01                      1363800200389 
 9.0600     0.7362E+02 0.6022E-01 0.3914E+01                      1363800200390 
 9.0600     0.7762E+02 0.3375E-01 0.6061E+01                      1363800200391 
 9.0600     0.8161E+02 0.2098E-01 0.8916E+01                      1363800200392 
 9.0600     0.8561E+02 0.1480E-01 0.1182E+02                      1363800200393 
 9.0600     0.8910E+02 0.1665E-01 0.1175E+02                      1363800200394 
 9.0600     0.9309E+02 0.2172E-01 0.1000E+02                      1363800200395 
 9.0600     0.9709E+02 0.2659E-01 0.8866E+01                      1363800200396 
 9.0600     0.1011E+03 0.3170E-01 0.7777E+01                      1363800200397 
 9.0600     0.1051E+03 0.3276E-01 0.7652E+01                      1363800200398 
 9.0600     0.1091E+03 0.3117E-01 0.8006E+01                      1363800200399 
 9.0600     0.1131E+03 0.2907E-01 0.8536E+01                      1363800200400 
 9.0600     0.1171E+03 0.2517E-01 0.9742E+01                      1363800200401 
 9.0600     0.1200E+03 0.2536E-01 0.9636E+01                      1363800200402 
 9.0600     0.1240E+03 0.2061E-01 0.1169E+02                      1363800200403 
 9.0600     0.1280E+03 0.1956E-01 0.1200E+02                      1363800200404 
 9.0600     0.1320E+03 0.1753E-01 0.1322E+02                      1363800200405 
 9.0600     0.1355E+03 0.1459E-01 0.1557E+02                      1363800200406 
 9.0600     0.1395E+03 0.1136E-01 0.1920E+02                      1363800200407 
 9.0600     0.1435E+03 0.1074E-01 0.1955E+02                      1363800200408 
 9.0600     0.1455E+03 0.1150E-01 0.1881E+02                      1363800200409 
 9.0600     0.1475E+03 0.1253E-01 0.1760E+02                      1363800200410 
 9.0600     0.1495E+03 0.1398E-01 0.1611E+02                      1363800200411 
 9.0600     0.1534E+03 0.1746E-01 0.1377E+02                      1363800200412 
 9.0600     0.1574E+03 0.2334E-01 0.1083E+02                      1363800200413 
 9.5100     0.1737E+02 0.3361E+01 0.4000E+01                      1363800200414 
 9.5100     0.2132E+02 0.2274E+01 0.3023E+01                      1363800200415 
 9.5100     0.2528E+02 0.1278E+01 0.3030E+01                      1363800200416 
 9.5100     0.2727E+02 0.8558E+00 0.3041E+01                      1363800200417 
 9.5100     0.2925E+02 0.5999E+00 0.3059E+01                      1363800200418 
 9.5100     0.3124E+02 0.3962E+00 0.3068E+01                      1363800200419 
 9.5100     0.3522E+02 0.1437E+00 0.3157E+01                      1363800200420 
 9.5100     0.3921E+02 0.7030E-01 0.3240E+01                      1363800200421 
 9.5100     0.4269E+02 0.8355E-01 0.3230E+01                      1363800200422 
 9.5100     0.4668E+02 0.1345E+00 0.3164E+01                      1363800200423 
 9.5100     0.5067E+02 0.1836E+00 0.3128E+01                      1363800200424 
 9.5100     0.5466E+02 0.2038E+00 0.3113E+01                      1363800200425 
 9.5100     0.5815E+02 0.1792E+00 0.3115E+01                      1363800200426 
 9.5100     0.6215E+02 0.1544E+00 0.3134E+01                      1363800200427 
 9.5100     0.6614E+02 0.1124E+00 0.3166E+01                      1363800200428 
 9.5100     0.7013E+02 0.7283E-01 0.3219E+01                      1363800200429 
 9.5100     0.7362E+02 0.4763E-01 0.3865E+01                      1363800200430 
 9.5100     0.7762E+02 0.2784E-01 0.5841E+01                      1363800200431 
 9.5100     0.8161E+02 0.1826E-01 0.8126E+01                      1363800200432 
 9.5100     0.8561E+02 0.1497E-01 0.1013E+02                      1363800200433 
 9.5100     0.8910E+02 0.1754E-01 0.9536E+01                      1363800200434 
 9.5100     0.9309E+02 0.2331E-01 0.8157E+01                      1363800200435 
 9.5100     0.9709E+02 0.2782E-01 0.7022E+01                      1363800200436 
 9.5100     0.1011E+03 0.3062E-01 0.6606E+01                      1363800200437 
 9.5100     0.1051E+03 0.3119E-01 0.6525E+01                      1363800200438 
 9.5100     0.1091E+03 0.2923E-01 0.6899E+01                      1363800200439 
 9.5100     0.1131E+03 0.2740E-01 0.7364E+01                      1363800200440 
 9.5100     0.1171E+03 0.2411E-01 0.8370E+01                      1363800200441 
 9.5100     0.1200E+03 0.2199E-01 0.9001E+01                      1363800200442 
 9.5100     0.1240E+03 0.1909E-01 0.9995E+01                      1363800200443 
 9.5100     0.1280E+03 0.1709E-01 0.1096E+02                      1363800200444 
 9.5100     0.1320E+03 0.1492E-01 0.1239E+02                      1363800200445 
 9.5100     0.1355E+03 0.1283E-01 0.1404E+02                      1363800200446 
 9.5100     0.1395E+03 0.1191E-01 0.1492E+02                      1363800200447 
 9.5100     0.1435E+03 0.1149E-01 0.1525E+02                      1363800200448 
 9.5100     0.1475E+03 0.1210E-01 0.1494E+02                      1363800200449 
 9.5100     0.1495E+03 0.1520E-01 0.1219E+02                      1363800200450 
 9.5100     0.1534E+03 0.1764E-01 0.1081E+02                      1363800200451 
 9.5100     0.1574E+03 0.2362E-01 0.8677E+01                      1363800200452 
 9.9900     0.1777E+02 0.3481E+01 0.3018E+01                      1363800200453 
 9.9900     0.2172E+02 0.2176E+01 0.3022E+01                      1363800200454 
 9.9900     0.2568E+02 0.1245E+01 0.3037E+01                      1363800200455 
 9.9900     0.2767E+02 0.8495E+00 0.3040E+01                      1363800200456 
 9.9900     0.2965E+02 0.5657E+00 0.3060E+01                      1363800200457 
 9.9900     0.3164E+02 0.3502E+00 0.3089E+01                      1363800200458 
 9.9900     0.3562E+02 0.1357E+00 0.3159E+01                      1363800200459 
 9.9900     0.3961E+02 0.7235E-01 0.3235E+01                      1363800200460 
 9.9900     0.4309E+02 0.8128E-01 0.3218E+01                      1363800200461 
 9.9900     0.4708E+02 0.1329E+00 0.3173E+01                      1363800200462 
 9.9900     0.5107E+02 0.1719E+00 0.3138E+01                      1363800200463 
 9.9900     0.5506E+02 0.1850E+00 0.3127E+01                      1363800200464 
 9.9900     0.5855E+02 0.1593E+00 0.3132E+01                      1363800200465 
 9.9900     0.6255E+02 0.1310E+00 0.3148E+01                      1363800200466 
 9.9900     0.6654E+02 0.9961E-01 0.3182E+01                      1363800200467 
 9.9900     0.7053E+02 0.6382E-01 0.3279E+01                      1363800200468 
 9.9900     0.7402E+02 0.4152E-01 0.4298E+01                      1363800200469 
 9.9900     0.7802E+02 0.2246E-01 0.6918E+01                      1363800200470 
 9.9900     0.8201E+02 0.1402E-01 0.9607E+01                      1363800200471 
 9.9900     0.8601E+02 0.1163E-01 0.1210E+02                      1363800200472 
 9.9900     0.8950E+02 0.1456E-01 0.1110E+02                      1363800200473 
 9.9900     0.9349E+02 0.2047E-01 0.8996E+01                      1363800200474 
 9.9900     0.9749E+02 0.2748E-01 0.7274E+01                      1363800200475 
 9.9900     0.1015E+03 0.3016E-01 0.6735E+01                      1363800200476 
 9.9900     0.1055E+03 0.2998E-01 0.6825E+01                      1363800200477 
 9.9900     0.1095E+03 0.2731E-01 0.7405E+01                      1363800200478 
 9.9900     0.1135E+03 0.2516E-01 0.7927E+01                      1363800200479 
 9.9900     0.1175E+03 0.2120E-01 0.9324E+01                      1363800200480 
 9.9900     0.1204E+03 0.2084E-01 0.9455E+01                      1363800200481 
 9.9900     0.1244E+03 0.1706E-01 0.1125E+02                      1363800200482 
 9.9900     0.1284E+03 0.1612E-01 0.1159E+02                      1363800200483 
 9.9900     0.1324E+03 0.1489E-01 0.1230E+02                      1363800200484 
 9.9900     0.1359E+03 0.1164E-01 0.1531E+02                      1363800200485 
 9.9900     0.1399E+03 0.1198E-01 0.1517E+02                      1363800200486 
 9.9900     0.1439E+03 0.1144E-01 0.1545E+02                      1363800200487 
 9.9900     0.1459E+03 0.1148E-01 0.1505E+02                      1363800200488 
 9.9900     0.1479E+03 0.1223E-01 0.1423E+02                      1363800200489 
 9.9900     0.1499E+03 0.1317E-01 0.1341E+02                      1363800200490 
 9.9900     0.1538E+03 0.1765E-01 0.1062E+02                      1363800200491 
 9.9900     0.1578E+03 0.2206E-01 0.8975E+01                      1363800200492 
ENDDATA            481          0                                 1363800200493 
ENDSUBENT          492          0                                 1363800299999 
ENDENTRY             2          0                                 1363899999999 
