ENTRY            13640   20211005                             149313640  0    1 
SUBENT        13640001   20211005                             149313640  1    1 
BIB                  8         13                                 13640  1    2 
TITLE      Neutron resonances in 166Ho                            13640  1    3 
AUTHOR     (P.R.Huffman,C.M.Frankle,C.R.Gould,D.G.Haase,          13640  1    4 
           J.A.Harvey,N.R.Roberson,L.W.Weston)                    13640  1    5 
REFERENCE  (J,PR/C,54,2051,1996)                                  13640  1    6 
           #doi:10.1103/PhysRevC.54.2051                          13640  1    7 
INSTITUTE  (1USAORL,1USADKE,1USANCA,1USATNL,1USALAS)              13640  1    8 
FACILITY   (LINAC,1USAORL) ORELA.                                 13640  1    9 
INC-SOURCE (PHOTO) Electrons on water-cooled tantalum target.     13640  1   10 
COMMENT    Compiler's comment: Authors discuss neutron capture    13640  1   11 
           measurement without giving any plots or numerical data.13640  1   12 
HISTORY    (19961226C)                                            13640  1   13 
           (20211005A) BP: Updated entry, added doi,              13640  1   14 
                       digitized data.                            13640  1   15 
ENDBIB              13          0                                 13640  1   16 
NOCOMMON             0          0                                 13640  1   17 
ENDSUBENT           16          0                                 13640  199999 
SUBENT        13640002   20211005                             149313640  2    1 
BIB                  8         16                                 13640  2    2 
REACTION   (67-HO-165(N,TOT),,TRN)                                13640  2    3 
SAMPLE     The 165Ho samples were obtained in the form of solid   13640  2    4 
           metal. The transmission sample had a thickness of      13640  2    5 
           0.10 atoms/b and mass of 560 g. A chemical assay was   13640  2    6 
           provided for the 165Ho and indicated that the only     13640  2    7 
           significant impurity was 0.03% of 181Ta.               13640  2    8 
DETECTOR   (GLASD,FISCH) Neutrons were detected with a 12.7-mm    13640  2    9 
           thick, 12.7-cm-diam NE912 6Li loaded glass             13640  2   10 
           scintillator. The beam intensity was monitored by a    13640  2   11 
           235U fission chamber located in the neutron            13640  2   12 
           production target room.                                13640  2   13 
METHOD     (TOF) 79.710-m flight path.                            13640  2   14 
MONITOR    Beam intensity monitored by 235U fission chamber.      13640  2   15 
CORRECTION Corrected for background and dead-time losses.         13640  2   16 
STATUS     (CURVE) Fig. 1, page 2052.                             13640  2   17 
HISTORY    (20211005A) BP: corrected REACTION, digitized data.    13640  2   18 
ENDBIB              16          0                                 13640  2   19 
COMMON               1          3                                 13640  2   20 
THICKNESS                                                         13640  2   21 
ATOMS/B                                                           13640  2   22 
       0.10                                                       13640  2   23 
ENDCOMMON            3          0                                 13640  2   24 
DATA                 2       1142                                 13640  2   25 
EN         DATA                                                   13640  2   26 
EV         NO-DIM                                                 13640  2   27 
      8.076      0.015                                            13640  2   28 
      8.754      0.231                                            13640  2   29 
      8.947      0.252                                            13640  2   30 
      9.722      0.248                                            13640  2   31 
     10.110      0.224                                            13640  2   32 
     10.110      0.073                                            13640  2   33 
     10.400      0.180                                            13640  2   34 
     10.788      0.152                                            13640  2   35 
     11.078      0.111                                            13640  2   36 
     11.078      0.073                                            13640  2   37 
     11.563      0.032                                            13640  2   38 
     11.853      0.014                                            13640  2   39 
     13.791      0.011                                            13640  2   40 
     14.178      0.045                                            13640  2   41 
     14.372      0.073                                            13640  2   42 
     14.565      0.097                                            13640  2   43 
     14.856      0.124                                            13640  2   44 
     15.147      0.148                                            13640  2   45 
     15.631      0.172                                            13640  2   46 
     15.922      0.203                                            13640  2   47 
     16.406      0.220                                            13640  2   48 
     16.890      0.230                                            13640  2   49 
     17.181      0.217                                            13640  2   50 
     17.665      0.141                                            13640  2   51 
     17.762      0.028                                            13640  2   52 
     18.440      0.017                                            13640  2   53 
     18.634      0.100                                            13640  2   54 
     18.634      0.199                                            13640  2   55 
     19.118      0.247                                            13640  2   56 
     19.409      0.271                                            13640  2   57 
     19.990      0.278                                            13640  2   58 
     20.184      0.254                                            13640  2   59 
     20.377      0.240                                            13640  2   60 
     20.474      0.196                                            13640  2   61 
     20.958      0.013                                            13640  2   62 
     21.540      0.216                                            13640  2   63 
     21.637      0.268                                            13640  2   64 
     22.024      0.292                                            13640  2   65 
     22.411      0.312                                            13640  2   66 
     22.799      0.329                                            13640  2   67 
     23.380      0.340                                            13640  2   68 
     23.671      0.178                                            13640  2   69 
     23.961      0.333                                            13640  2   70 
     24.155      0.357                                            13640  2   71 
     24.542      0.339                                            13640  2   72 
     24.736      0.226                                            13640  2   73 
     25.027      0.343                                            13640  2   74 
     25.124      0.360                                            13640  2   75 
     25.899      0.367                                            13640  2   76 
     26.092      0.346                                            13640  2   77 
     26.577      0.380                                            13640  2   78 
     27.255      0.387                                            13640  2   79 
     27.836      0.387                                            13640  2   80 
     28.417      0.391                                            13640  2   81 
     28.901      0.387                                            13640  2   82 
     29.192      0.404                                            13640  2   83 
     29.773      0.397                                            13640  2   84 
     30.257      0.411                                            13640  2   85 
     30.839      0.418                                            13640  2   86 
     31.710      0.421                                            13640  2   87 
     32.195      0.428                                            13640  2   88 
     32.873      0.418                                            13640  2   89 
     33.260      0.411                                            13640  2   90 
     33.745      0.397                                            13640  2   91 
     34.035      0.345                                            13640  2   92 
     34.035      0.380                                            13640  2   93 
     34.326      0.325                                            13640  2   94 
     34.519      0.273                                            13640  2   95 
     34.810      0.170                                            13640  2   96 
     34.810      0.026                                            13640  2   97 
     35.876      0.053                                            13640  2   98 
     36.263      0.166                                            13640  2   99 
     36.360      0.218                                            13640  2  100 
     36.747      0.238                                            13640  2  101 
     36.844      0.204                                            13640  2  102 
     37.038      0.029                                            13640  2  103 
     37.425      0.029                                            13640  2  104 
     37.716      0.245                                            13640  2  105 
     37.910      0.231                                            13640  2  106 
     38.103      0.221                                            13640  2  107 
     38.394      0.197                                            13640  2  108 
     38.394      0.173                                            13640  2  109 
     38.394      0.094                                            13640  2  110 
     38.975      0.015                                            13640  2  111 
     39.847      0.056                                            13640  2  112 
     40.331      0.018                                            13640  2  113 
     41.397      0.166                                            13640  2  114 
     41.784      0.224                                            13640  2  115 
     42.850      0.293                                            13640  2  116 
     43.140      0.313                                            13640  2  117 
     43.625      0.327                                            13640  2  118 
     44.206      0.334                                            13640  2  119 
     44.690      0.327                                            13640  2  120 
     45.078      0.320                                            13640  2  121 
     45.368      0.310                                            13640  2  122 
     45.562      0.286                                            13640  2  123 
     45.949      0.237                                            13640  2  124 
     46.240      0.193                                            13640  2  125 
     46.434      0.138                                            13640  2  126 
     46.531      0.059                                            13640  2  127 
     46.821      0.017                                            13640  2  128 
     48.274      0.010                                            13640  2  129 
     48.565      0.048                                            13640  2  130 
     48.952      0.089                                            13640  2  131 
     49.243      0.124                                            13640  2  132 
     49.437      0.144                                            13640  2  133 
     49.727      0.127                                            13640  2  134 
     50.211      0.086                                            13640  2  135 
     50.502      0.027                                            13640  2  136 
     52.633      0.010                                            13640  2  137 
     53.602      0.044                                            13640  2  138 
     53.989      0.013                                            13640  2  139 
     54.764      0.020                                            13640  2  140 
     54.958      0.109                                            13640  2  141 
     55.830      0.185                                            13640  2  142 
     56.314      0.202                                            13640  2  143 
     56.798      0.226                                            13640  2  144 
     57.186      0.250                                            13640  2  145 
     57.961      0.274                                            13640  2  146 
     58.832      0.291                                            13640  2  147 
     59.704      0.308                                            13640  2  148 
     60.382      0.325                                            13640  2  149 
     61.060      0.346                                            13640  2  150 
     61.932      0.352                                            13640  2  151 
     62.513      0.328                                            13640  2  152 
     62.998      0.294                                            13640  2  153 
     63.385      0.308                                            13640  2  154 
     63.579      0.280                                            13640  2  155 
     63.676      0.249                                            13640  2  156 
     63.869      0.132                                            13640  2  157 
     63.966      0.198                                            13640  2  158 
     64.257      0.029                                            13640  2  159 
     65.807      0.039                                            13640  2  160 
     66.000      0.098                                            13640  2  161 
     66.485      0.139                                            13640  2  162 
     66.775      0.170                                            13640  2  163 
     66.969      0.214                                            13640  2  164 
     67.260      0.252                                            13640  2  165 
     67.647      0.269                                            13640  2  166 
     67.841      0.290                                            13640  2  167 
     68.325      0.238                                            13640  2  168 
     68.325      0.063                                            13640  2  169 
     68.519      0.008                                            13640  2  170 
     69.100      0.159                                            13640  2  171 
     69.294      0.269                                            13640  2  172 
     69.584      0.293                                            13640  2  173 
     70.262      0.293                                            13640  2  174 
     70.553      0.245                                            13640  2  175 
     70.650      0.272                                            13640  2  176 
     71.037      0.173                                            13640  2  177 
     71.037      0.073                                            13640  2  178 
     71.425      0.004                                            13640  2  179 
     72.393      0.014                                            13640  2  180 
     73.071      0.083                                            13640  2  181 
     73.459      0.138                                            13640  2  182 
     73.846      0.186                                            13640  2  183 
     74.524      0.241                                            13640  2  184 
     74.815      0.227                                            13640  2  185 
     74.912      0.172                                            13640  2  186 
     75.299      0.251                                            13640  2  187 
     75.299      0.299                                            13640  2  188 
     75.687      0.323                                            13640  2  189 
     76.365      0.334                                            13640  2  190 
     76.655      0.310                                            13640  2  191 
     76.655      0.292                                            13640  2  192 
     77.237      0.347                                            13640  2  193 
     77.527      0.337                                            13640  2  194 
     77.915      0.378                                            13640  2  195 
     78.496      0.385                                            13640  2  196 
     78.593      0.361                                            13640  2  197 
     79.174      0.385                                            13640  2  198 
     79.368      0.364                                            13640  2  199 
     80.046      0.010                                            13640  2  200 
     80.336      0.165                                            13640  2  201 
     80.627      0.007                                            13640  2  202 
     80.627      0.337                                            13640  2  203 
     80.821      0.361                                            13640  2  204 
     80.917      0.378                                            13640  2  205 
     81.208      0.402                                            13640  2  206 
     81.499      0.412                                            13640  2  207 
     82.080      0.405                                            13640  2  208 
     82.564      0.391                                            13640  2  209 
     82.661      0.350                                            13640  2  210 
     82.758      0.288                                            13640  2  211 
     83.048      0.223                                            13640  2  212 
     83.242      0.116                                            13640  2  213 
     83.436      0.003                                            13640  2  214 
     86.632      0.009                                            13640  2  215 
     87.988      0.126                                            13640  2  216 
     88.376      0.143                                            13640  2  217 
     88.570      0.164                                            13640  2  218 
     88.860      0.181                                            13640  2  219 
     89.248      0.202                                            13640  2  220 
     89.732      0.202                                            13640  2  221 
     90.313      0.236                                            13640  2  222 
     90.894      0.229                                            13640  2  223 
     90.991      0.219                                            13640  2  224 
     91.088      0.208                                            13640  2  225 
     91.282      0.198                                            13640  2  226 
     91.572      0.177                                            13640  2  227 
     91.669      0.153                                            13640  2  228 
     92.541      0.002                                            13640  2  229 
     94.963      0.005                                            13640  2  230 
     95.931      0.043                                            13640  2  231 
     97.481      0.153                                            13640  2  232 
     98.256      0.166                                            13640  2  233 
     98.450      0.183                                            13640  2  234 
     98.837      0.163                                            13640  2  235 
     98.934      0.125                                            13640  2  236 
     99.322      0.066                                            13640  2  237 
     99.612      0.156                                            13640  2  238 
     99.709      0.218                                            13640  2  239 
    100.110      0.243                                            13640  2  240 
    100.499      0.264                                            13640  2  241 
    100.788      0.239                                            13640  2  242 
    100.980      0.212                                            13640  2  243 
    101.173      0.188                                            13640  2  244 
    101.265      0.104                                            13640  2  245 
    101.357      0.011                                            13640  2  246 
    102.714      0.021                                            13640  2  247 
    103.399      0.143                                            13640  2  248 
    103.594      0.157                                            13640  2  249 
    103.885      0.174                                            13640  2  250 
    103.984      0.202                                            13640  2  251 
    104.275      0.216                                            13640  2  252 
    104.664      0.240                                            13640  2  253 
    105.051      0.220                                            13640  2  254 
    105.146      0.199                                            13640  2  255 
    105.242      0.168                                            13640  2  256 
    105.725      0.154                                            13640  2  257 
    105.816      0.032                                            13640  2  258 
    106.784      0.022                                            13640  2  259 
    106.788      0.099                                            13640  2  260 
    107.179      0.161                                            13640  2  261 
    107.666      0.199                                            13640  2  262 
    107.764      0.224                                            13640  2  263 
    108.055      0.238                                            13640  2  264 
    108.444      0.248                                            13640  2  265 
    108.638      0.258                                            13640  2  266 
    109.124      0.286                                            13640  2  267 
    109.900      0.300                                            13640  2  268 
    110.579      0.314                                            13640  2  269 
    111.064      0.328                                            13640  2  270 
    111.937      0.342                                            13640  2  271 
    112.519      0.346                                            13640  2  272 
    113.295      0.363                                            13640  2  273 
    113.780      0.377                                            13640  2  274 
    114.265      0.391                                            13640  2  275 
    114.650      0.336                                            13640  2  276 
    114.651      0.367                                            13640  2  277 
    115.033      0.256                                            13640  2  278 
    115.425      0.340                                            13640  2  279 
    115.621      0.378                                            13640  2  280 
    116.106      0.388                                            13640  2  281 
    116.493      0.371                                            13640  2  282 
    116.686      0.354                                            13640  2  283 
    117.161      0.191                                            13640  2  284 
    117.346      0.031                                            13640  2  285 
    118.218      0.032                                            13640  2  286 
    118.415      0.084                                            13640  2  287 
    118.615      0.188                                            13640  2  288 
    118.811      0.236                                            13640  2  289 
    119.103      0.264                                            13640  2  290 
    119.393      0.240                                            13640  2  291 
    119.486      0.184                                            13640  2  292 
    119.578      0.084                                            13640  2  293 
    119.867      0.060                                            13640  2  294 
    120.061      0.049                                            13640  2  295 
    120.350      0.025                                            13640  2  296 
    121.126      0.036                                            13640  2  297 
    121.233      0.230                                            13640  2  298 
    121.334      0.299                                            13640  2  299 
    121.626      0.324                                            13640  2  300 
    121.821      0.351                                            13640  2  301 
    122.210      0.372                                            13640  2  302 
    122.502      0.393                                            13640  2  303 
    122.792      0.379                                            13640  2  304 
    123.178      0.362                                            13640  2  305 
    123.369      0.314                                            13640  2  306 
    123.371      0.338                                            13640  2  307 
    123.560      0.248                                            13640  2  308 
    123.844      0.140                                            13640  2  309 
    124.032      0.029                                            13640  2  310 
    125.873      0.023                                            13640  2  311 
    127.617      0.030                                            13640  2  312 
    128.877      0.023                                            13640  2  313 
    129.754      0.117                                            13640  2  314 
    130.046      0.138                                            13640  2  315 
    130.338      0.162                                            13640  2  316 
    130.823      0.180                                            13640  2  317 
    131.212      0.201                                            13640  2  318 
    131.600      0.211                                            13640  2  319 
    132.086      0.236                                            13640  2  320 
    132.571      0.243                                            13640  2  321 
    133.153      0.260                                            13640  2  322 
    133.832      0.278                                            13640  2  323 
    134.511      0.281                                            13640  2  324 
    135.287      0.299                                            13640  2  325 
    135.772      0.306                                            13640  2  326 
    136.157      0.264                                            13640  2  327 
    136.838      0.316                                            13640  2  328 
    137.324      0.334                                            13640  2  329 
    138.001      0.313                                            13640  2  330 
    138.290      0.292                                            13640  2  331 
    138.386      0.265                                            13640  2  332 
    138.769      0.185                                            13640  2  333 
    139.452      0.279                                            13640  2  334 
    139.553      0.348                                            13640  2  335 
    140.135      0.348                                            13640  2  336 
    140.522      0.338                                            13640  2  337 
    140.810      0.296                                            13640  2  338 
    140.998      0.189                                            13640  2  339 
    141.183      0.033                                            13640  2  340 
    141.574      0.095                                            13640  2  341 
    141.681      0.269                                            13640  2  342 
    142.364      0.356                                            13640  2  343 
    143.043      0.370                                            13640  2  344 
    143.818      0.377                                            13640  2  345 
    144.594      0.380                                            13640  2  346 
    145.176      0.405                                            13640  2  347 
    146.048      0.405                                            13640  2  348 
    146.727      0.405                                            13640  2  349 
    147.016      0.381                                            13640  2  350 
    147.599      0.405                                            13640  2  351 
    147.889      0.388                                            13640  2  352 
    148.372      0.371                                            13640  2  353 
    148.564      0.343                                            13640  2  354 
    148.747      0.142                                            13640  2  355 
    149.226      0.031                                            13640  2  356 
    149.522      0.142                                            13640  2  357 
    149.914      0.222                                            13640  2  358 
    150.298      0.146                                            13640  2  359 
    150.389      0.042                                            13640  2  360 
    152.036      0.028                                            13640  2  361 
    153.401      0.198                                            13640  2  362 
    153.791      0.226                                            13640  2  363 
    153.889      0.257                                            13640  2  364 
    154.278      0.282                                            13640  2  365 
    155.152      0.310                                            13640  2  366 
    155.928      0.327                                            13640  2  367 
    156.510      0.352                                            13640  2  368 
    157.189      0.366                                            13640  2  369 
    157.771      0.376                                            13640  2  370 
    158.547      0.387                                            13640  2  371 
    159.226      0.397                                            13640  2  372 
    159.614      0.411                                            13640  2  373 
    160.487      0.422                                            13640  2  374 
    161.359      0.412                                            13640  2  375 
    161.649      0.412                                            13640  2  376 
    162.327      0.394                                            13640  2  377 
    162.610      0.266                                            13640  2  378 
    162.616      0.363                                            13640  2  379 
    162.695      0.048                                            13640  2  380 
    163.665      0.051                                            13640  2  381 
    164.730      0.041                                            13640  2  382 
    165.810      0.295                                            13640  2  383 
    166.101      0.315                                            13640  2  384 
    166.490      0.340                                            13640  2  385 
    166.879      0.368                                            13640  2  386 
    167.074      0.385                                            13640  2  387 
    167.462      0.395                                            13640  2  388 
    168.141      0.403                                            13640  2  389 
    168.528      0.392                                            13640  2  390 
    168.624      0.371                                            13640  2  391 
    168.803      0.108                                            13640  2  392 
    168.814      0.309                                            13640  2  393 
    170.059      0.039                                            13640  2  394 
    170.940      0.205                                            13640  2  395 
    171.135      0.223                                            13640  2  396 
    171.234      0.254                                            13640  2  397 
    171.429      0.275                                            13640  2  398 
    171.818      0.306                                            13640  2  399 
    172.110      0.331                                            13640  2  400 
    172.692      0.351                                            13640  2  401 
    173.081      0.362                                            13640  2  402 
    173.372      0.379                                            13640  2  403 
    173.758      0.348                                            13640  2  404 
    173.954      0.379                                            13640  2  405 
    174.144      0.324                                            13640  2  406 
    174.227      0.060                                            13640  2  407 
    174.323      0.036                                            13640  2  408 
    174.332      0.206                                            13640  2  409 
    174.433      0.282                                            13640  2  410 
    175.102      0.109                                            13640  2  411 
    175.498      0.269                                            13640  2  412 
    176.080      0.286                                            13640  2  413 
    176.279      0.373                                            13640  2  414 
    176.669      0.418                                            13640  2  415 
    177.250      0.422                                            13640  2  416 
    177.736      0.436                                            13640  2  417 
    178.124      0.443                                            13640  2  418 
    178.705      0.439                                            13640  2  419 
    179.093      0.450                                            13640  2  420 
    179.286      0.429                                            13640  2  421 
    179.669      0.360                                            13640  2  422 
    179.672      0.408                                            13640  2  423 
    180.150      0.291                                            13640  2  424 
    180.238      0.117                                            13640  2  425 
    180.330      0.034                                            13640  2  426 
    181.880      0.031                                            13640  2  427 
    181.883      0.072                                            13640  2  428 
    182.176      0.128                                            13640  2  429 
    182.373      0.177                                            13640  2  430 
    182.473      0.239                                            13640  2  431 
    183.057      0.284                                            13640  2  432 
    183.446      0.309                                            13640  2  433 
    183.835      0.333                                            13640  2  434 
    184.127      0.357                                            13640  2  435 
    184.612      0.375                                            13640  2  436 
    185.000      0.378                                            13640  2  437 
    185.582      0.392                                            13640  2  438 
    186.164      0.406                                            13640  2  439 
    186.842      0.403                                            13640  2  440 
    187.420      0.337                                            13640  2  441 
    187.698      0.108                                            13640  2  442 
    187.702      0.178                                            13640  2  443 
    188.084      0.067                                            13640  2  444 
    188.373      0.032                                            13640  2  445 
    189.633      0.046                                            13640  2  446 
    189.637      0.119                                            13640  2  447 
    189.936      0.272                                            13640  2  448 
    190.126      0.209                                            13640  2  449 
    190.520      0.317                                            13640  2  450 
    190.715      0.345                                            13640  2  451 
    191.006      0.359                                            13640  2  452 
    191.686      0.383                                            13640  2  453 
    191.975      0.359                                            13640  2  454 
    192.152      0.043                                            13640  2  455 
    192.163      0.248                                            13640  2  456 
    193.024      0.037                                            13640  2  457 
    193.420      0.186                                            13640  2  458 
    193.619      0.297                                            13640  2  459 
    194.010      0.359                                            13640  2  460 
    194.298      0.307                                            13640  2  461 
    194.489      0.245                                            13640  2  462 
    194.773      0.124                                            13640  2  463 
    194.962      0.040                                            13640  2  464 
    195.742      0.120                                            13640  2  465 
    195.945      0.301                                            13640  2  466 
    196.047      0.391                                            13640  2  467 
    196.436      0.412                                            13640  2  468 
    196.728      0.440                                            13640  2  469 
    197.213      0.457                                            13640  2  470 
    197.990      0.478                                            13640  2  471 
    198.667      0.471                                            13640  2  472 
    199.345      0.461                                            13640  2  473 
    199.634      0.423                                            13640  2  474 
    199.635      0.444                                            13640  2  475 
    200.291      0.366                                            13640  2  476 
    200.678      0.273                                            13640  2  477 
    200.969      0.096                                            13640  2  478 
    201.163      0.188                                            13640  2  479 
    201.260      0.067                                            13640  2  480 
    201.357      0.004                                            13640  2  481 
    203.004      0.004                                            13640  2  482 
    203.779      0.036                                            13640  2  483 
    203.973      0.092                                            13640  2  484 
    204.457      0.082                                            13640  2  485 
    204.554      0.018                                            13640  2  486 
    205.620      0.060                                            13640  2  487 
    206.008      0.170                                            13640  2  488 
    206.298      0.199                                            13640  2  489 
    206.492      0.227                                            13640  2  490 
    206.686      0.249                                            13640  2  491 
    206.880      0.266                                            13640  2  492 
    207.364      0.291                                            13640  2  493 
    207.946      0.309                                            13640  2  494 
    208.430      0.302                                            13640  2  495 
    208.721      0.330                                            13640  2  496 
    209.109      0.351                                            13640  2  497 
    209.593      0.373                                            13640  2  498 
    210.174      0.366                                            13640  2  499 
    210.271      0.348                                            13640  2  500 
    210.368      0.302                                            13640  2  501 
    210.756      0.231                                            13640  2  502 
    211.143      0.337                                            13640  2  503 
    211.628      0.398                                            13640  2  504 
    212.112      0.419                                            13640  2  505 
    212.500      0.405                                            13640  2  506 
    212.888      0.380                                            13640  2  507 
    213.178      0.341                                            13640  2  508 
    213.469      0.284                                            13640  2  509 
    213.760      0.167                                            13640  2  510 
    213.760      0.021                                            13640  2  511 
    215.891      0.018                                            13640  2  512 
    215.988      0.075                                            13640  2  513 
    216.473      0.131                                            13640  2  514 
    216.570      0.174                                            13640  2  515 
    217.151      0.227                                            13640  2  516 
    217.636      0.259                                            13640  2  517 
    218.314      0.305                                            13640  2  518 
    218.798      0.316                                            13640  2  519 
    219.380      0.295                                            13640  2  520 
    219.767      0.181                                            13640  2  521 
    219.767      0.060                                            13640  2  522 
    219.961      0.011                                            13640  2  523 
    221.318      0.018                                            13640  2  524 
    221.609      0.092                                            13640  2  525 
    221.899      0.195                                            13640  2  526 
    221.899      0.149                                            13640  2  527 
    222.481      0.220                                            13640  2  528 
    222.771      0.256                                            13640  2  529 
    223.353      0.280                                            13640  2  530 
    223.837      0.305                                            13640  2  531 
    224.516      0.320                                            13640  2  532 
    224.903      0.298                                            13640  2  533 
    225.194      0.327                                            13640  2  534 
    225.581      0.359                                            13640  2  535 
    226.357      0.351                                            13640  2  536 
    227.035      0.348                                            13640  2  537 
    227.229      0.295                                            13640  2  538 
    227.519      0.195                                            13640  2  539 
    227.810      0.160                                            13640  2  540 
    228.004      0.213                                            13640  2  541 
    228.101      0.312                                            13640  2  542 
    228.198      0.376                                            13640  2  543 
    228.585      0.383                                            13640  2  544 
    229.264      0.362                                            13640  2  545 
    229.264      0.323                                            13640  2  546 
    229.457      0.213                                            13640  2  547 
    229.457      0.043                                            13640  2  548 
    229.651      0.018                                            13640  2  549 
    230.911      0.099                                            13640  2  550 
    231.008      0.259                                            13640  2  551 
    231.395      0.330                                            13640  2  552 
    231.783      0.217                                            13640  2  553 
    232.171      0.089                                            13640  2  554 
    232.171      0.025                                            13640  2  555 
    232.946      0.011                                            13640  2  556 
    233.236      0.067                                            13640  2  557 
    233.527      0.227                                            13640  2  558 
    233.624      0.312                                            13640  2  559 
    234.109      0.359                                            13640  2  560 
    234.884      0.401                                            13640  2  561 
    235.368      0.312                                            13640  2  562 
    235.368      0.206                                            13640  2  563 
    235.465      0.366                                            13640  2  564 
    235.853      0.160                                            13640  2  565 
    236.143      0.217                                            13640  2  566 
    236.434      0.422                                            13640  2  567 
    237.209      0.422                                            13640  2  568 
    237.984      0.408                                            13640  2  569 
    238.178      0.401                                            13640  2  570 
    238.566      0.280                                            13640  2  571 
    238.566      0.224                                            13640  2  572 
    238.566      0.032                                            13640  2  573 
    239.050      0.007                                            13640  2  574 
    240.019      0.011                                            13640  2  575 
    240.407      0.078                                            13640  2  576 
    240.504      0.167                                            13640  2  577 
    241.182      0.238                                            13640  2  578 
    242.054      0.344                                            13640  2  579 
    243.411      0.398                                            13640  2  580 
    243.992      0.387                                            13640  2  581 
    244.477      0.405                                            13640  2  582 
    244.961      0.422                                            13640  2  583 
    246.124      0.451                                            13640  2  584 
    246.318      0.433                                            13640  2  585 
    247.287      0.451                                            13640  2  586 
    247.965      0.383                                            13640  2  587 
    248.062      0.316                                            13640  2  588 
    248.450      0.270                                            13640  2  589 
    248.934      0.337                                            13640  2  590 
    249.128      0.430                                            13640  2  591 
    250.000      0.522                                            13640  2  592 
    251.066      0.536                                            13640  2  593 
    251.066      0.518                                            13640  2  594 
    251.841      0.490                                            13640  2  595 
    251.938      0.515                                            13640  2  596 
    252.229      0.451                                            13640  2  597 
    252.229      0.398                                            13640  2  598 
    252.616      0.351                                            13640  2  599 
    252.810      0.273                                            13640  2  600 
    252.907      0.174                                            13640  2  601 
    253.295      0.057                                            13640  2  602 
    253.682      0.011                                            13640  2  603 
    255.523      0.011                                            13640  2  604 
    256.492      0.089                                            13640  2  605 
    257.752      0.192                                            13640  2  606 
    258.915      0.263                                            13640  2  607 
    259.496      0.277                                            13640  2  608 
    259.981      0.277                                            13640  2  609 
    260.174      0.170                                            13640  2  610 
    260.174      0.092                                            13640  2  611 
    260.562      0.011                                            13640  2  612 
    261.919      0.021                                            13640  2  613 
    262.016      0.053                                            13640  2  614 
    262.209      0.110                                            13640  2  615 
    262.791      0.163                                            13640  2  616 
    263.275      0.181                                            13640  2  617 
    263.760      0.245                                            13640  2  618 
    264.147      0.241                                            13640  2  619 
    264.438      0.188                                            13640  2  620 
    264.632      0.103                                            13640  2  621 
    264.729      0.071                                            13640  2  622 
    265.407      0.174                                            13640  2  623 
    265.698      0.330                                            13640  2  624 
    266.279      0.330                                            13640  2  625 
    266.667      0.337                                            13640  2  626 
    267.345      0.351                                            13640  2  627 
    267.636      0.359                                            13640  2  628 
    268.508      0.348                                            13640  2  629 
    269.186      0.369                                            13640  2  630 
    269.864      0.394                                            13640  2  631 
    270.736      0.408                                            13640  2  632 
    271.512      0.383                                            13640  2  633 
    271.802      0.327                                            13640  2  634 
    271.996      0.224                                            13640  2  635 
    272.093      0.053                                            13640  2  636 
    272.287      0.014                                            13640  2  637 
    273.159      0.050                                            13640  2  638 
    273.740      0.011                                            13640  2  639 
    274.709      0.014                                            13640  2  640 
    274.806      0.153                                            13640  2  641 
    275.291      0.252                                            13640  2  642 
    275.678      0.305                                            13640  2  643 
    276.357      0.181                                            13640  2  644 
    276.357      0.028                                            13640  2  645 
    277.616      0.028                                            13640  2  646 
    278.101      0.149                                            13640  2  647 
    278.101      0.252                                            13640  2  648 
    278.488      0.316                                            13640  2  649 
    279.167      0.334                                            13640  2  650 
    279.554      0.316                                            13640  2  651 
    280.233      0.202                                            13640  2  652 
    280.329      0.046                                            13640  2  653 
    281.880      0.036                                            13640  2  654 
    282.074      0.174                                            13640  2  655 
    282.364      0.266                                            13640  2  656 
    283.236      0.348                                            13640  2  657 
    283.430      0.383                                            13640  2  658 
    284.205      0.387                                            13640  2  659 
    284.884      0.405                                            13640  2  660 
    285.368      0.401                                            13640  2  661 
    285.950      0.426                                            13640  2  662 
    286.434      0.430                                            13640  2  663 
    286.822      0.344                                            13640  2  664 
    286.822      0.156                                            13640  2  665 
    287.209      0.028                                            13640  2  666 
    288.178      0.021                                            13640  2  667 
    288.275      0.174                                            13640  2  668 
    288.857      0.369                                            13640  2  669 
    289.050      0.398                                            13640  2  670 
    289.729      0.412                                            13640  2  671 
    290.116      0.220                                            13640  2  672 
    290.407      0.050                                            13640  2  673 
    291.957      0.025                                            13640  2  674 
    292.054      0.107                                            13640  2  675 
    292.345      0.238                                            13640  2  676 
    292.636      0.160                                            13640  2  677 
    292.733      0.288                                            13640  2  678 
    292.926      0.355                                            13640  2  679 
    293.702      0.394                                            13640  2  680 
    294.186      0.433                                            13640  2  681 
    294.961      0.451                                            13640  2  682 
    295.833      0.469                                            13640  2  683 
    296.027      0.440                                            13640  2  684 
    296.124      0.362                                            13640  2  685 
    296.318      0.075                                            13640  2  686 
    296.512      0.007                                            13640  2  687 
    297.674      0.018                                            13640  2  688 
    297.674      0.103                                            13640  2  689 
    297.965      0.245                                            13640  2  690 
    298.159      0.309                                            13640  2  691 
    298.450      0.249                                            13640  2  692 
    298.547      0.178                                            13640  2  693 
    298.740      0.060                                            13640  2  694 
    299.128      0.025                                            13640  2  695 
    301.452      0.007                                            13640  2  696 
    303.479      0.214                                            13640  2  697 
    303.963      0.243                                            13640  2  698 
    304.543      0.264                                            13640  2  699 
    305.124      0.268                                            13640  2  700 
    305.608      0.254                                            13640  2  701 
    305.997      0.196                                            13640  2  702 
    306.194      0.054                                            13640  2  703 
    306.582      0.014                                            13640  2  704 
    307.065      0.071                                            13640  2  705 
    307.449      0.200                                            13640  2  706 
    307.930      0.311                                            13640  2  707 
    308.316      0.343                                            13640  2  708 
    308.993      0.357                                            13640  2  709 
    309.477      0.379                                            13640  2  710 
    310.154      0.400                                            13640  2  711 
    310.541      0.418                                            13640  2  712 
    311.218      0.429                                            13640  2  713 
    311.606      0.411                                            13640  2  714 
    312.091      0.368                                            13640  2  715 
    312.190      0.279                                            13640  2  716 
    312.292      0.079                                            13640  2  717 
    312.584      0.018                                            13640  2  718 
    313.456      0.011                                            13640  2  719 
    313.550      0.096                                            13640  2  720 
    313.836      0.254                                            13640  2  721 
    314.028      0.332                                            13640  2  722 
    314.608      0.361                                            13640  2  723 
    315.091      0.389                                            13640  2  724 
    315.865      0.407                                            13640  2  725 
    316.155      0.439                                            13640  2  726 
    316.639      0.425                                            13640  2  727 
    316.929      0.468                                            13640  2  728 
    317.607      0.450                                            13640  2  729 
    318.090      0.479                                            13640  2  730 
    318.380      0.496                                            13640  2  731 
    318.865      0.464                                            13640  2  732 
    319.157      0.407                                            13640  2  733 
    319.253      0.443                                            13640  2  734 
    319.545      0.354                                            13640  2  735 
    319.549      0.225                                            13640  2  736 
    319.649      0.096                                            13640  2  737 
    319.845      0.011                                            13640  2  738 
    320.716      0.021                                            13640  2  739 
    321.196      0.179                                            13640  2  740 
    321.385      0.343                                            13640  2  741 
    321.480      0.404                                            13640  2  742 
    321.963      0.457                                            13640  2  743 
    321.964      0.425                                            13640  2  744 
    322.448      0.396                                            13640  2  745 
    322.546      0.354                                            13640  2  746 
    322.549      0.261                                            13640  2  747 
    322.748      0.046                                            13640  2  748 
    323.136      0.011                                            13640  2  749 
    324.685      0.014                                            13640  2  750 
    324.778      0.143                                            13640  2  751 
    325.357      0.225                                            13640  2  752 
    325.646      0.279                                            13640  2  753 
    326.226      0.304                                            13640  2  754 
    326.418      0.357                                            13640  2  755 
    326.419      0.321                                            13640  2  756 
    326.709      0.346                                            13640  2  757 
    327.001      0.307                                            13640  2  758 
    327.102      0.143                                            13640  2  759 
    327.395      0.032                                            13640  2  760 
    327.973      0.154                                            13640  2  761 
    328.259      0.293                                            13640  2  762 
    328.355      0.332                                            13640  2  763 
    328.552      0.196                                            13640  2  764 
    328.648      0.257                                            13640  2  765 
    329.038      0.129                                            13640  2  766 
    329.420      0.343                                            13640  2  767 
    329.520      0.225                                            13640  2  768 
    329.612      0.396                                            13640  2  769 
    329.997      0.496                                            13640  2  770 
    329.998      0.436                                            13640  2  771 
    330.290      0.368                                            13640  2  772 
    330.388      0.332                                            13640  2  773 
    330.781      0.118                                            13640  2  774 
    331.074      0.018                                            13640  2  775 
    332.913      0.025                                            13640  2  776 
    333.104      0.121                                            13640  2  777 
    333.198      0.250                                            13640  2  778 
    333.679      0.339                                            13640  2  779 
    333.775      0.389                                            13640  2  780 
    333.968      0.421                                            13640  2  781 
    334.354      0.454                                            13640  2  782 
    335.031      0.471                                            13640  2  783 
    335.226      0.429                                            13640  2  784 
    335.515      0.489                                            13640  2  785 
    335.613      0.418                                            13640  2  786 
    336.289      0.493                                            13640  2  787 
    336.774      0.461                                            13640  2  788 
    336.871      0.443                                            13640  2  789 
    337.162      0.425                                            13640  2  790 
    337.260      0.379                                            13640  2  791 
    337.358      0.350                                            13640  2  792 
    337.455      0.314                                            13640  2  793 
    337.650      0.279                                            13640  2  794 
    337.652      0.207                                            13640  2  795 
    337.750      0.150                                            13640  2  796 
    338.140      0.039                                            13640  2  797 
    342.303      0.018                                            13640  2  798 
    342.785      0.104                                            13640  2  799 
    342.786      0.071                                            13640  2  800 
    342.881      0.132                                            13640  2  801 
    343.171      0.164                                            13640  2  802 
    343.654      0.193                                            13640  2  803 
    344.137      0.225                                            13640  2  804 
    344.621      0.250                                            13640  2  805 
    345.007      0.279                                            13640  2  806 
    345.393      0.325                                            13640  2  807 
    345.394      0.296                                            13640  2  808 
    345.972      0.389                                            13640  2  809 
    346.361      0.343                                            13640  2  810 
    346.457      0.364                                            13640  2  811 
    347.134      0.386                                            13640  2  812 
    347.424      0.418                                            13640  2  813 
    347.617      0.443                                            13640  2  814 
    348.100      0.461                                            13640  2  815 
    348.198      0.418                                            13640  2  816 
    348.392      0.400                                            13640  2  817 
    348.586      0.375                                            13640  2  818 
    348.588      0.293                                            13640  2  819 
    348.684      0.332                                            13640  2  820 
    348.977      0.225                                            13640  2  821 
    349.368      0.082                                            13640  2  822 
    349.467      0.018                                            13640  2  823 
    352.855      0.007                                            13640  2  824 
    354.791      0.018                                            13640  2  825 
    355.950      0.129                                            13640  2  826 
    356.143      0.146                                            13640  2  827 
    356.627      0.164                                            13640  2  828 
    357.304      0.186                                            13640  2  829 
    357.691      0.182                                            13640  2  830 
    358.176      0.157                                            13640  2  831 
    358.274      0.104                                            13640  2  832 
    358.372      0.050                                            13640  2  833 
    358.857      0.018                                            13640  2  834 
    359.434      0.150                                            13640  2  835 
    359.437      0.057                                            13640  2  836 
    359.723      0.214                                            13640  2  837 
    360.207      0.236                                            13640  2  838 
    360.496      0.264                                            13640  2  839 
    360.689      0.282                                            13640  2  840 
    361.464      0.279                                            13640  2  841 
    362.141      0.286                                            13640  2  842 
    362.819      0.304                                            13640  2  843 
    363.593      0.300                                            13640  2  844 
    363.980      0.318                                            13640  2  845 
    364.560      0.332                                            13640  2  846 
    365.142      0.307                                            13640  2  847 
    365.435      0.218                                            13640  2  848 
    365.730      0.046                                            13640  2  849 
    366.021      0.014                                            13640  2  850 
    367.086      0.014                                            13640  2  851 
    367.278      0.046                                            13640  2  852 
    367.663      0.150                                            13640  2  853 
    368.048      0.236                                            13640  2  854 
    368.336      0.307                                            13640  2  855 
    368.337      0.275                                            13640  2  856 
    368.918      0.296                                            13640  2  857 
    369.207      0.325                                            13640  2  858 
    369.788      0.336                                            13640  2  859 
    370.079      0.321                                            13640  2  860 
    370.466      0.304                                            13640  2  861 
    371.048      0.268                                            13640  2  862 
    371.917      0.336                                            13640  2  863 
    372.013      0.396                                            13640  2  864 
    372.208      0.346                                            13640  2  865 
    372.497      0.400                                            13640  2  866 
    373.078      0.371                                            13640  2  867 
    373.467      0.325                                            13640  2  868 
    373.471      0.161                                            13640  2  869 
    373.668      0.046                                            13640  2  870 
    374.056      0.004                                            13640  2  871 
    375.508      0.014                                            13640  2  872 
    376.182      0.139                                            13640  2  873 
    376.472      0.161                                            13640  2  874 
    377.050      0.246                                            13640  2  875 
    377.727      0.271                                            13640  2  876 
    378.405      0.282                                            13640  2  877 
    378.985      0.296                                            13640  2  878 
    379.085      0.200                                            13640  2  879 
    379.667      0.154                                            13640  2  880 
    380.149      0.232                                            13640  2  881 
    380.532      0.371                                            13640  2  882 
    381.015      0.429                                            13640  2  883 
    381.112      0.404                                            13640  2  884 
    381.402      0.429                                            13640  2  885 
    382.079      0.461                                            13640  2  886 
    382.079      0.439                                            13640  2  887 
    382.660      0.446                                            13640  2  888 
    382.952      0.368                                            13640  2  889 
    383.245      0.289                                            13640  2  890 
    383.637      0.093                                            13640  2  891 
    383.833      0.018                                            13640  2  892 
    386.834      0.011                                            13640  2  893 
    387.316      0.093                                            13640  2  894 
    387.508      0.161                                            13640  2  895 
    388.379      0.171                                            13640  2  896 
    389.056      0.189                                            13640  2  897 
    389.442      0.214                                            13640  2  898 
    389.829      0.246                                            13640  2  899 
    390.506      0.271                                            13640  2  900 
    391.183      0.296                                            13640  2  901 
    391.667      0.296                                            13640  2  902 
    392.343      0.336                                            13640  2  903 
    392.635      0.275                                            13640  2  904 
    393.118      0.321                                            13640  2  905 
    393.215      0.307                                            13640  2  906 
    393.408      0.354                                            13640  2  907 
    394.085      0.382                                            13640  2  908 
    394.086      0.336                                            13640  2  909 
    394.763      0.357                                            13640  2  910 
    394.956      0.382                                            13640  2  911 
    395.634      0.361                                            13640  2  912 
    395.730      0.386                                            13640  2  913 
    396.021      0.371                                            13640  2  914 
    396.117      0.418                                            13640  2  915 
    396.505      0.389                                            13640  2  916 
    397.085      0.393                                            13640  2  917 
    397.570      0.364                                            13640  2  918 
    397.860      0.396                                            13640  2  919 
    398.343      0.443                                            13640  2  920 
    398.440      0.421                                            13640  2  921 
    398.441      0.393                                            13640  2  922 
    399.118      0.418                                            13640  2  923 
    399.213      0.454                                            13640  2  924 
    399.699      0.400                                            13640  2  925 
    400.214      0.375                                            13640  2  926 
    400.403      0.286                                            13640  2  927 
    400.679      0.034                                            13640  2  928 
    400.783      0.157                                            13640  2  929 
    401.259      0.010                                            13640  2  930 
    401.842      0.051                                            13640  2  931 
    402.046      0.245                                            13640  2  932 
    402.048      0.283                                            13640  2  933 
    402.138      0.160                                            13640  2  934 
    402.534      0.310                                            13640  2  935 
    402.726      0.290                                            13640  2  936 
    403.305      0.249                                            13640  2  937 
    403.398      0.181                                            13640  2  938 
    403.590      0.147                                            13640  2  939 
    403.876      0.072                                            13640  2  940 
    404.067      0.031                                            13640  2  941 
    406.584      0.020                                            13640  2  942 
    407.361      0.082                                            13640  2  943 
    407.947      0.167                                            13640  2  944 
    408.918      0.225                                            13640  2  945 
    409.500      0.235                                            13640  2  946 
    409.888      0.249                                            13640  2  947 
    410.179      0.269                                            13640  2  948 
    410.374      0.290                                            13640  2  949 
    410.763      0.320                                            13640  2  950 
    411.248      0.344                                            13640  2  951 
    411.927      0.358                                            13640  2  952 
    412.313      0.344                                            13640  2  953 
    412.314      0.368                                            13640  2  954 
    412.316      0.399                                            13640  2  955 
    412.794      0.297                                            13640  2  956 
    412.882      0.133                                            13640  2  957 
    413.362      0.051                                            13640  2  958 
    413.555      0.048                                            13640  2  959 
    414.136      0.055                                            13640  2  960 
    414.715      0.020                                            13640  2  961 
    417.426      0.027                                            13640  2  962 
    417.623      0.078                                            13640  2  963 
    417.722      0.130                                            13640  2  964 
    418.209      0.184                                            13640  2  965 
    418.502      0.232                                            13640  2  966 
    418.794      0.249                                            13640  2  967 
    419.085      0.273                                            13640  2  968 
    419.281      0.300                                            13640  2  969 
    419.669      0.317                                            13640  2  970 
    420.057      0.337                                            13640  2  971 
    420.442      0.303                                            13640  2  972 
    420.542      0.351                                            13640  2  973 
    420.831      0.331                                            13640  2  974 
    421.314      0.314                                            13640  2  975 
    421.408      0.259                                            13640  2  976 
    421.689      0.092                                            13640  2  977 
    422.073      0.027                                            13640  2  978 
    423.234      0.024                                            13640  2  979 
    423.237      0.075                                            13640  2  980 
    423.729      0.211                                            13640  2  981 
    423.732      0.280                                            13640  2  982 
    423.927      0.290                                            13640  2  983 
    423.928      0.320                                            13640  2  984 
    424.317      0.341                                            13640  2  985 
    424.608      0.355                                            13640  2  986 
    424.803      0.382                                            13640  2  987 
    425.482      0.412                                            13640  2  988 
    425.577      0.382                                            13640  2  989 
    425.675      0.399                                            13640  2  990 
    426.255      0.382                                            13640  2  991 
    426.451      0.433                                            13640  2  992 
    426.643      0.402                                            13640  2  993 
    427.227      0.450                                            13640  2  994 
    427.417      0.395                                            13640  2  995 
    427.607      0.324                                            13640  2  996 
    427.705      0.344                                            13640  2  997 
    427.896      0.293                                            13640  2  998 
    427.900      0.372                                            13640  2  999 
    428.182      0.215                                            13640  2 1000 
    428.184      0.259                                            13640  2 1001 
    428.567      0.170                                            13640  2 1002 
    428.756      0.095                                            13640  2 1003 
    428.947      0.051                                            13640  2 1004 
    429.236      0.017                                            13640  2 1005 
    431.850      0.020                                            13640  2 1006 
    432.433      0.055                                            13640  2 1007 
    433.399      0.027                                            13640  2 1008 
    434.272      0.055                                            13640  2 1009 
    434.275      0.106                                            13640  2 1010 
    434.665      0.160                                            13640  2 1011 
    435.152      0.211                                            13640  2 1012 
    435.343      0.167                                            13640  2 1013 
    435.531      0.072                                            13640  2 1014 
    435.916      0.020                                            13640  2 1015 
    437.369      0.051                                            13640  2 1016 
    438.723      0.024                                            13640  2 1017 
    439.210      0.082                                            13640  2 1018 
    439.213      0.136                                            13640  2 1019 
    439.796      0.170                                            13640  2 1020 
    440.282      0.211                                            13640  2 1021 
    441.155      0.245                                            13640  2 1022 
    441.350      0.269                                            13640  2 1023 
    442.020      0.116                                            13640  2 1024 
    442.025      0.222                                            13640  2 1025 
    442.209      0.048                                            13640  2 1026 
    442.692      0.017                                            13640  2 1027 
    443.757      0.027                                            13640  2 1028 
    443.952      0.055                                            13640  2 1029 
    444.246      0.109                                            13640  2 1030 
    444.443      0.174                                            13640  2 1031 
    444.831      0.191                                            13640  2 1032 
    445.023      0.157                                            13640  2 1033 
    445.601      0.106                                            13640  2 1034 
    445.990      0.136                                            13640  2 1035 
    446.381      0.215                                            13640  2 1036 
    447.160      0.300                                            13640  2 1037 
    447.646      0.327                                            13640  2 1038 
    448.034      0.344                                            13640  2 1039 
    448.419      0.303                                            13640  2 1040 
    448.712      0.344                                            13640  2 1041 
    449.194      0.307                                            13640  2 1042 
    449.570      0.112                                            13640  2 1043 
    449.672      0.211                                            13640  2 1044 
    449.856      0.034                                            13640  2 1045 
    451.888      0.020                                            13640  2 1046 
    452.377      0.106                                            13640  2 1047 
    453.155      0.174                                            13640  2 1048 
    453.445      0.160                                            13640  2 1049 
    453.826      0.048                                            13640  2 1050 
    454.987      0.031                                            13640  2 1051 
    455.965      0.218                                            13640  2 1052 
    456.644      0.249                                            13640  2 1053 
    457.517      0.280                                            13640  2 1054 
    457.613      0.263                                            13640  2 1055 
    458.196      0.293                                            13640  2 1056 
    458.290      0.249                                            13640  2 1057 
    458.969      0.273                                            13640  2 1058 
    459.164      0.293                                            13640  2 1059 
    459.744      0.273                                            13640  2 1060 
    460.133      0.307                                            13640  2 1061 
    460.702      0.092                                            13640  2 1062 
    461.182      0.034                                            13640  2 1063 
    461.667      0.048                                            13640  2 1064 
    461.865      0.116                                            13640  2 1065 
    462.453      0.259                                            13640  2 1066 
    462.841      0.273                                            13640  2 1067 
    462.939      0.293                                            13640  2 1068 
    463.424      0.300                                            13640  2 1069 
    463.811      0.310                                            13640  2 1070 
    464.391      0.286                                            13640  2 1071 
    464.776      0.252                                            13640  2 1072 
    465.360      0.300                                            13640  2 1073 
    465.650      0.300                                            13640  2 1074 
    466.040      0.355                                            13640  2 1075 
    466.327      0.293                                            13640  2 1076 
    466.523      0.320                                            13640  2 1077 
    466.910      0.324                                            13640  2 1078 
    467.102      0.293                                            13640  2 1079 
    467.586      0.297                                            13640  2 1080 
    468.266      0.337                                            13640  2 1081 
    468.655      0.378                                            13640  2 1082 
    469.041      0.344                                            13640  2 1083 
    469.623      0.375                                            13640  2 1084 
    469.815      0.341                                            13640  2 1085 
    470.301      0.375                                            13640  2 1086 
    470.491      0.307                                            13640  2 1087 
    470.589      0.341                                            13640  2 1088 
    471.460      0.324                                            13640  2 1089 
    471.655      0.351                                            13640  2 1090 
    472.137      0.314                                            13640  2 1091 
    472.140      0.378                                            13640  2 1092 
    472.235      0.337                                            13640  2 1093 
    472.624      0.365                                            13640  2 1094 
    473.110      0.402                                            13640  2 1095 
    473.786      0.385                                            13640  2 1096 
    473.979      0.365                                            13640  2 1097 
    474.077      0.392                                            13640  2 1098 
    474.267      0.327                                            13640  2 1099 
    474.549      0.177                                            13640  2 1100 
    474.554      0.263                                            13640  2 1101 
    475.317      0.058                                            13640  2 1102 
    475.709      0.140                                            13640  2 1103 
    476.201      0.283                                            13640  2 1104 
    476.302      0.355                                            13640  2 1105 
    476.397      0.320                                            13640  2 1106 
    476.883      0.355                                            13640  2 1107 
    476.982      0.399                                            13640  2 1108 
    477.273      0.409                                            13640  2 1109 
    478.241      0.406                                            13640  2 1110 
    478.433      0.378                                            13640  2 1111 
    478.725      0.416                                            13640  2 1112 
    479.014      0.385                                            13640  2 1113 
    479.594      0.378                                            13640  2 1114 
    479.687      0.307                                            13640  2 1115 
    480.368      0.358                                            13640  2 1116 
    480.757      0.395                                            13640  2 1117 
    481.049      0.419                                            13640  2 1118 
    481.437      0.440                                            13640  2 1119 
    481.630      0.430                                            13640  2 1120 
    481.822      0.399                                            13640  2 1121 
    482.211      0.440                                            13640  2 1122 
    482.213      0.464                                            13640  2 1123 
    482.983      0.389                                            13640  2 1124 
    483.373      0.436                                            13640  2 1125 
    483.375      0.481                                            13640  2 1126 
    484.049      0.416                                            13640  2 1127 
    484.530      0.358                                            13640  2 1128 
    484.619      0.215                                            13640  2 1129 
    484.999      0.078                                            13640  2 1130 
    485.190      0.027                                            13640  2 1131 
    485.868      0.044                                            13640  2 1132 
    485.970      0.126                                            13640  2 1133 
    486.265      0.218                                            13640  2 1134 
    486.366      0.286                                            13640  2 1135 
    486.845      0.201                                            13640  2 1136 
    486.935      0.075                                            13640  2 1137 
    487.126      0.031                                            13640  2 1138 
    488.288      0.041                                            13640  2 1139 
    488.584      0.140                                            13640  2 1140 
    488.687      0.245                                            13640  2 1141 
    489.275      0.385                                            13640  2 1142 
    489.857      0.399                                            13640  2 1143 
    490.632      0.412                                            13640  2 1144 
    490.923      0.416                                            13640  2 1145 
    491.218      0.501                                            13640  2 1146 
    491.892      0.443                                            13640  2 1147 
    491.895      0.491                                            13640  2 1148 
    492.090      0.515                                            13640  2 1149 
    492.279      0.436                                            13640  2 1150 
    492.475      0.470                                            13640  2 1151 
    492.765      0.464                                            13640  2 1152 
    492.860      0.436                                            13640  2 1153 
    492.955      0.399                                            13640  2 1154 
    493.048      0.331                                            13640  2 1155 
    493.430      0.239                                            13640  2 1156 
    493.811      0.133                                            13640  2 1157 
    493.904      0.058                                            13640  2 1158 
    496.032      0.034                                            13640  2 1159 
    496.619      0.143                                            13640  2 1160 
    497.205      0.242                                            13640  2 1161 
    497.886      0.290                                            13640  2 1162 
    498.081      0.324                                            13640  2 1163 
    498.565      0.314                                            13640  2 1164 
    498.761      0.372                                            13640  2 1165 
    498.953      0.337                                            13640  2 1166 
    498.956      0.389                                            13640  2 1167 
    499.245      0.365                                            13640  2 1168 
    500.021      0.385                                            13640  2 1169 
ENDDATA           1144          0                                 13640  2 1170 
ENDSUBENT         1169          0                                 13640  299999 
SUBENT        13640003   20211005                             149313640  3    1 
BIB                  6         24                                 13640  3    2 
REACTION  1(67-HO-165(N,0),,EN)                                   13640  3    3 
          2(67-HO-165(N,EL),,WID,,2G)                             13640  3    4 
REL-REF    (R,,S.F.Mughabghab,B,NEUT.CS 1A,,,1984)                13640  3    5 
ANALYSIS   (MLA) Analyzed with program Sammy which uses a Reich-  13640  3    6 
           Moore approximation of the R-matrix formalism. Where   13640  3    7 
           parameters are not given for a resonance, parameters   13640  3    8 
           are taken from the Mughabghab evaluation, (see         13640  3    9 
           comment for reference). Authors report that the        13640  3   10 
           10.32-eV resonance reported in Mughabghab, neutron     13640  3   11 
           cross sections, vol. 1 (1984) belongs to 181Ta.        13640  3   12 
ERR-ANALYS (ERR-T) Statistical and systematic uncertainties       13640  3   13 
           summed in quadrature.                                  13640  3   14 
           (ERR-S) Typical statistical errors in the widths       13640  3   15 
           were of order 2% or less.                              13640  3   16 
           (ERR-SYS,5.,20.) Based on the deviations of the fits   13640  3   17 
           off resonance, we estimate systematic uncertainties to 13640  3   18 
           be typically 5%, approaching 20% at the higher energies13640  3   19 
            near the largest s-wave resonances.                   13640  3   20 
STATUS     (DEP,13640002)                                         13640  3   21 
           (TABLE) Table I, page 2053.                            13640  3   22 
           (COREL,10531002) Capture data used to confirm          13640  3   23 
           assignment of resonances to 166Ho.                     13640  3   24 
HISTORY    (20211005A) BP: Updated uncertainties and STATUS. Added13640  3   25 
                       REL-REF.                                   13640  3   26 
ENDBIB              24          0                                 13640  3   27 
COMMON               1          3                                 13640  3   28 
ERR-S                                                             13640  3   29 
PER-CENT                                                          13640  3   30 
        2.0                                                       13640  3   31 
ENDCOMMON            3          0                                 13640  3   32 
DATA                 4        109                                 13640  3   33 
DATA      1ERR-T     1DATA      2ERR-T     2                      13640  3   34 
EV         EV         MILLI-EV   MILLI-EV                         13640  3   35 
       8.17       0.01      0.131      0.008                      13640  3   36 
      12.64       0.01       11.4        0.6                      13640  3   37 
      18.24       0.01       0.83       0.04                      13640  3   38 
      21.15       0.01       0.56       0.03                      13640  3   39 
      24.79       0.01     0.0147     0.0007                      13640  3   40 
      35.53       0.01        8.0        0.4                      13640  3   41 
      37.36       0.01       0.55       0.03                      13640  3   42 
      39.67       0.01       18.9        0.9                      13640  3   43 
      47.80       0.01        29.         1.                      13640  3   44 
      51.55       0.01        47.         2.                      13640  3   45 
      54.42       0.01        2.6        0.1                      13640  3   46 
      65.15       0.01        20.         1.                      13640  3   47 
      68.91       0.01       1.24       0.06                      13640  3   48 
      71.93       0.01        24.         1.                      13640  3   49 
      75.08       0.01      0.083      0.004                      13640  3   50 
      80.10       0.02       1.74       0.09                      13640  3   51 
      83.80       0.02                                            13640  3   52 
      84.73       0.02                                            13640  3   53 
      85.80       0.02                                            13640  3   54 
      93.63       0.02        84.         4.                      13640  3   55 
     102.03       0.02        21.         1.                      13640  3   56 
     106.44       0.02        9.3        0.5                      13640  3   57 
     117.99       0.02       16.2        0.8                      13640  3   58 
     119.98       0.02       0.80       0.04                      13640  3   59 
     120.78       0.02        6.6        0.3                      13640  3   60 
     124.92       0.02        37.         2.                      13640  3   61 
     126.90       0.02        47.         2.                      13640  3   62 
     128.46       0.02        21.         1.                      13640  3   63 
     139.03       0.02       0.30       0.01                      13640  3   64 
     141.42       0.02       1.52       0.08                      13640  3   65 
     149.32       0.03        2.8        0.1                      13640  3   66 
     151.22       0.03        47.         2.                      13640  3   67 
     152.49       0.03       0.97       0.05                      13640  3   68 
     163.22       0.03        3.7        0.2                      13640  3   69 
     164.36       0.03        20.         1.                      13640  3   70 
     169.77       0.03        23.         1.                      13640  3   71 
     174.74       0.03        5.0        0.3                      13640  3   72 
     181.03       0.03        40.         2.                      13640  3   73 
     187.94       0.03       0.81       0.04                      13640  3   74 
     188.89       0.03        20.         1.                      13640  3   75 
     192.74       0.03        9.9        0.5                      13640  3   76 
     195.33       0.03        3.5        0.2                      13640  3   77 
     202.24       0.03        88.         9.                      13640  3   78 
     205.08       0.04        9.2        0.9                      13640  3   79 
     210.86       0.04       0.36       0.07                      13640  3   80 
     214.81       0.04        68.         7.                      13640  3   81 
     220.63       0.04        34.         3.                      13640  3   82 
     227.88       0.04       0.77       0.04                      13640  3   83 
     230.22       0.04        9.4        0.5                      13640  3   84 
     232.82       0.04        7.1        0.4                      13640  3   85 
     235.95       0.05        1.0        0.2                      13640  3   86 
     239.61       0.05        36.         2.                      13640  3   87 
     248.60       0.05       0.58       0.03                      13640  3   88 
     254.64       0.05       131.        13.                      13640  3   89 
     261.24       0.06        37.         3.                      13640  3   90 
     264.98       0.06        1.8        0.2                      13640  3   91 
     272.63       0.06        6.5        0.7                      13640  3   92 
     274.09       0.06        27.         3.                      13640  3   93 
     277.17       0.06       15.4        0.8                      13640  3   94 
     281.13       0.06        25.         1.                      13640  3   95 
     287.62       0.06       12.6        0.6                      13640  3   96 
     290.51       0.06        4.1        0.2                      13640  3   97 
     291.40       0.06        22.         2.                      13640  3   98 
     297.09       0.07        21.         2.                      13640  3   99 
     300.02       0.07       112.         9.                      13640  3  100 
     306.60       0.07        5.5        0.4                      13640  3  101 
     312.99       0.07        17.         1.                      13640  3  102 
     320.42       0.07       15.8        0.9                      13640  3  103 
     323.91       0.07        66.         3.                      13640  3  104 
     327.63       0.07        4.0        0.2                      13640  3  105 
     329.12       0.07        2.2        0.2                      13640  3  106 
     331.65       0.07                                            13640  3  107 
     332.57       0.08                                            13640  3  108 
     339.47       0.08       219.        20.                      13640  3  109 
     341.95       0.08        6.6        0.7                      13640  3  110 
     350.17       0.08                                            13640  3  111 
     351.90       0.08                                            13640  3  112 
     351.96       0.08                                            13640  3  113 
     354.12       0.08                                            13640  3  114 
     358.90       0.08        6.3        0.5                      13640  3  115 
     366.62       0.08        34.         2.                      13640  3  116 
     371.21       0.08       0.75       0.05                      13640  3  117 
     374.80       0.08        87.         7.                      13640  3  118 
     379.66       0.08       1.81       0.09                      13640  3  119 
     384.60       0.09       127.         9.                      13640  3  120 
     386.35       0.09        5.2        0.4                      13640  3  121 
     388.87       0.09       0.32       0.05                      13640  3  122 
     401.25       0.09       10.5        0.5                      13640  3  123 
     405.26       0.09       195.         8.                      13640  3  124 
     413.56       0.09        5.6        0.1                      13640  3  125 
     414.95       0.09        27.         1.                      13640  3  126 
     416.51       0.09        63.         3.                      13640  3  127 
     422.64       0.09        29.         1.                      13640  3  128 
     430.46       0.09       205.        10.                      13640  3  129 
     433.64       0.09       13.3        0.6                      13640  3  130 
     436.41       0.09       51.0        2.0                      13640  3  131 
     438.33       0.09       31.0        1.0                      13640  3  132 
     443.10       0.09       37.4        2.0                      13640  3  133 
     445.83       0.09        2.6        0.1                      13640  3  134 
      450.9        0.1      105.0        5.0                      13640  3  135 
      454.7        0.1       14.9        0.7                      13640  3  136 
      461.3        0.1        8.4        0.7                      13640  3  137 
      464.9        0.1       1.05        0.2                      13640  3  138 
      467.6        0.1       0.62        0.2                      13640  3  139 
      475.2        0.1        5.1        0.5                      13640  3  140 
      479.6        0.1       0.88       0.09                      13640  3  141 
      485.4        0.1       12.0        0.3                      13640  3  142 
      487.7        0.1        24.         1.                      13640  3  143 
      495.1        0.1       116.         8.                      13640  3  144 
ENDDATA            111          0                                 13640  3  145 
ENDSUBENT          144          0                                 13640  399999 
ENDENTRY             3          0                                 1364099999999 
