ENTRY            13852   20030211                             00001385200000001 
SUBENT        13852001   20030211                             00001385200100001 
BIB                 10         17                                 1385200100002 
INSTITUTE  (1USADLS,1USAKTY)                                      1385200100003 
REFERENCE  (J,PR/C,49,103,199401)                                 1385200100004 
AUTHOR     (S.F.Hicks,J.M.Hanly,S.E.Hicks,G.R.Shen,               1385200100005 
           M.T.McEllistrem)                                       1385200100006 
TITLE      Neutron scattering cross sections for 204,206Pb and    1385200100007 
            neutron and proton amplitudes of E2 and E3            1385200100008 
            excitations.                                          1385200100009 
FACILITY   (VDG,1USAKTY)                                          1385200100010 
METHOD     (TOF)                                                  1385200100011 
DETECTOR   (SCIN) NE218 liquid scintillator used to detect        1385200100012 
            scattered neutrons.                                   1385200100013 
           Additional NE218 detector used to monitor neutron flux.1385200100014 
CORRECTION Corrected for contributions of other isotopes in       1385200100015 
            samples (see reference for complete discussion).      1385200100016 
STATUS     Data received by email from S.F.Hicks, 15 October 2002.1385200100017 
           (APRVD) Approved by S.F. Hicks, 11 February 2003.      1385200100018 
HISTORY    (20030107C)                                            1385200100019 
ENDBIB              17          0                                 1385200100020 
NOCOMMON             0          0                                 1385200100021 
ENDSUBENT           20          0                                 1385200199999 
SUBENT        13852002   20030305                             00001385200200001 
BIB                  6         13                                 1385200200002 
REACTION   (82-PB-204(N,TOT),,SIG)                                1385200200003 
INC-SOURCE (P-T)                                                  1385200200004 
INC-SPECT  Neutron energy resolution 100 keV below 0.5 MeV, and   1385200200005 
            <50 keV at 4 MeV.                                     1385200200006 
SAMPLE     Metallic lead cylinders; isotopic composition:         1385200200007 
              204Pb (71.4%), 206Pb (12.5%), 207Pb (6.3%),         1385200200008 
              208Pb (9.8%).                                       1385200200009 
CORRECTION Corrected for effects of resonance or sample self-     1385200200010 
            shielding.                                            1385200200011 
           Not corrected for multiple scattering or inscattering, 1385200200012 
            assumed negligible.                                   1385200200013 
ERR-ANALYS (ERR-S) Statistical Uncertainty given.                 1385200200014 
            Total uncertainty <2%.                                1385200200015 
ENDBIB              13          0                                 1385200200016 
NOCOMMON             0          0                                 1385200200017 
DATA                 3         54                                 1385200200018 
EN         DATA       ERR-S                                       1385200200019 
MEV        MB         MB                                          1385200200020 
  0.25     8250.       164.                                       1385200200021 
  0.28     8090.       161.                                       1385200200022 
  0.30     7620.       152.                                       1385200200023 
  0.35     7690.       152.                                       1385200200024 
  0.40     7790.       155.                                       1385200200025 
  0.45     7370.       145.                                       1385200200026 
  0.49     7390.       146.                                       1385200200027 
  0.55     7060.       142.                                       1385200200028 
  0.60     6780.       134.                                       1385200200029 
  0.65     6440.       128.                                       1385200200030 
  0.70     6260.       123.                                       1385200200031 
  0.75     6060.       120.                                       1385200200032 
  0.80     6420.       120.                                       1385200200033 
  0.85     6080.       121.                                       1385200200034 
  0.90     6290.       125.                                       1385200200035 
  0.95     6070.       121.                                       1385200200036 
  1.00     5850.       116.                                       1385200200037 
  1.05     5690.       113.                                       1385200200038 
  1.10     5790.       114.                                       1385200200039 
  1.15     5450.       109.                                       1385200200040 
  1.20     5590.       111.                                       1385200200041 
  1.25     5520.       111.                                       1385200200042 
  1.30     5460.       109.                                       1385200200043 
  1.35     5400.       108.                                       1385200200044 
  1.40     5540.       111.                                       1385200200045 
  1.45     5570.       111.                                       1385200200046 
  1.50     5660.       112.                                       1385200200047 
  1.55     5750.       114.                                       1385200200048 
  1.60     5810.       116.                                       1385200200049 
  1.65     5850.       116.                                       1385200200050 
  1.70     5970.       118.                                       1385200200051 
  1.75     5750.       114.                                       1385200200052 
  1.80     6130.       122.                                       1385200200053 
  1.85     6110.       122.                                       1385200200054 
  1.90     6260.       125.                                       1385200200055 
  1.95     6330.       126.                                       1385200200056 
  2.0      6270.       124.                                       1385200200057 
  2.1      6620.       132.                                       1385200200058 
  2.2      6770.       134.                                       1385200200059 
  2.3      7070.       141.                                       1385200200060 
  2.4      7160.       142.                                       1385200200061 
  2.5      7380.       146.                                       1385200200062 
  2.6      7420.       148.                                       1385200200063 
  2.75     7570.       150.                                       1385200200064 
  2.8      7520.       150.                                       1385200200065 
  2.9      7720.       154.                                       1385200200066 
  3.0      7620.       152.                                       1385200200067 
  3.1      7620.       152.                                       1385200200068 
  3.2      7650.       152.                                       1385200200069 
  3.4      7610.       152.                                       1385200200070 
  3.6      7600.       152.                                       1385200200071 
  3.75     7690.       152.                                       1385200200072 
  3.8      7910.       158.                                       1385200200073 
  4.0      7620.       152.                                       1385200200074 
ENDDATA             56          0                                 1385200200075 
ENDSUBENT           74          0                                 1385200299999 
SUBENT        13852003   20030305                             00001385200300001 
BIB                  6         12                                 1385200300002 
REACTION   (82-PB-204(N,EL)82-PB-204,,DA)                         1385200300003 
INC-SOURCE (P-T)                                                  1385200300004 
SAMPLE     Metallic lead cylinders; isotopic composition:         1385200300005 
              204Pb (71.4%), 206Pb (12.5%), 207Pb (6.3%),         1385200300006 
              208Pb (9.8%).                                       1385200300007 
MONITOR    (6-C-12(N,EL)6-C-12,,DA) Normalized to ENDF/B-VI.      1385200300008 
CORRECTION Corrected for                                          1385200300009 
           . electronic deadtime,                                 1385200300010 
           . effects due to finite size of sample using the code  1385200300011 
             MULCAT (includes corrections for neutron attenuation 1385200300012 
             and multiple scattering).                            1385200300013 
ERR-ANALYS (ERR-S) Statistical Uncertainty given.                 1385200300014 
ENDBIB              12          0                                 1385200300015 
NOCOMMON             0          0                                 1385200300016 
DATA                 5         34                                 1385200300017 
EN         EN-RSL     ANG        DATA       ERR-S                 1385200300018 
MEV        KEV        ADEG       MB/SR      PER-CENT              1385200300019 
  2.53      72.        20.1      2864.        1.                  1385200300020 
  2.53      72.        25.1      2192.        2.                  1385200300021 
  2.53      72.        30.1      1575.        2.                  1385200300022 
  2.53      72.        40.2       698.        2.                  1385200300023 
  2.53      72.        50.2       179.3       2.                  1385200300024 
  2.53      72.        55.2        94.9       4.5                 1385200300025 
  2.53      72.        60.2        52.2       4.5                 1385200300026 
  2.53      72.        65.3        67.9       4.5                 1385200300027 
  2.53      72.        70.3       100.7       3.                  1385200300028 
  2.53      72.        80.3       169.6       2.                  1385200300029 
  2.53      72.        90.3       195.3       2.                  1385200300030 
  2.53      72.       100.3       197.6       2.                  1385200300031 
  2.53      72.       110.3       183.4       2.                  1385200300032 
  2.53      72.       120.2       142.3       2.                  1385200300033 
  2.53      72.       130.2        78.1       2.                  1385200300034 
  2.53      72.       140.2        35.9       4.5                 1385200300035 
  2.53      72.       150.6        91.9       2.                  1385200300036 
  4.6      108.        20.1      3847.2       2.7                 1385200300037 
  4.6      108.        25.2      2693.3       2.7                 1385200300038 
  4.6      108.        30.2      1508.9       2.7                 1385200300039 
  4.6      108.        40.3       339.9       2.7                 1385200300040 
  4.6      108.        50.3        33.9       2.8                 1385200300041 
  4.6      108.        55.3        15.0       3.3                 1385200300042 
  4.6      108.        60.3        25.1       3.1                 1385200300043 
  4.6      108.        70.4        71.9       2.9                 1385200300044 
  4.6      108.        80.4       130.4       2.8                 1385200300045 
  4.6      108.        90.4       135.2       2.8                 1385200300046 
  4.6      108.       100.4        94.4       2.9                 1385200300047 
  4.6      108.       110.4        19.3       3.1                 1385200300048 
  4.6      108.       115.4        15.6       3.4                 1385200300049 
  4.6      108.       120.4        25.6       3.1                 1385200300050 
  4.6      108.       130.3        70.8       2.9                 1385200300051 
  4.6      108.       140.3        54.4       3.4                 1385200300052 
  4.6      108.       150.7        21.8       3.0                 1385200300053 
ENDDATA             36          0                                 1385200300054 
ENDSUBENT           53          0                                 1385200399999 
SUBENT        13852004   20030305                             00001385200400001 
BIB                  6         16                                 1385200400002 
REACTION   (82-PB-204(N,EL)82-PB-204,,DA)                         1385200400003 
INC-SOURCE (D-D)                                                  1385200400004 
SAMPLE     Metallic lead cylinders; isotopic composition:         1385200400005 
              204Pb (71.4%), 206Pb (12.5%), 207Pb (6.3%),         1385200400006 
              208Pb (9.8%).                                       1385200400007 
MONITOR    (6-C-12(N,EL)6-C-12,,DA) Normalized to ENDF/B-VI.      1385200400008 
           (1-H-1(N,EL)1-H-1,,DA) From Breit-Hopkins evaluation   1385200400009 
            (reference not given).                                1385200400010 
           Carbon and hydrogen normalizations agreed within       1385200400011 
            about 2%.                                             1385200400012 
CORRECTION Corrected for                                          1385200400013 
           . electronic deadtime,                                 1385200400014 
           . effects due to finite size of sample using the code  1385200400015 
             MULCAT (includes corrections for neutron attenuation 1385200400016 
             and multiple scattering).                            1385200400017 
ERR-ANALYS (ERR-S) Statistical Uncertainty given.                 1385200400018 
ENDBIB              16          0                                 1385200400019 
COMMON               2          3                                 1385200400020 
EN         EN-RSL                                                 1385200400021 
MEV        KEV                                                    1385200400022 
  8.0      228.                                                   1385200400023 
ENDCOMMON            3          0                                 1385200400024 
DATA                 3         24                                 1385200400025 
ANG        DATA       ERR-S                                       1385200400026 
ADEG       MB/SR      PER-CENT                                    1385200400027 
 20.       2245.0      2.7                                        1385200400028 
 25.       1271.1      3.0                                        1385200400029 
 30.        506.0      1.8                                        1385200400030 
 35.        289.4      3.1                                        1385200400031 
 40.        255.2      1.9                                        1385200400032 
 45.        260.1      3.3                                        1385200400033 
 50.        183.2      2.0                                        1385200400034 
 55.         91.9      3.1                                        1385200400035 
 60.         29.5      2.3                                        1385200400036 
 62.5        27.9      3.2                                        1385200400037 
 65.         48.4      3.3                                        1385200400038 
 70.         85.9      2.1                                        1385200400039 
 75.        198.3      2.9                                        1385200400040 
 80.        171.3      2.6                                        1385200400041 
 85.        213.3      3.7                                        1385200400042 
 90.        130.4      2.0                                        1385200400043 
100.         24.2      2.3                                        1385200400044 
105.         28.3      3.5                                        1385200400045 
110.         35.0      2.3                                        1385200400046 
120.         58.9      2.8                                        1385200400047 
130.         49.9      2.2                                        1385200400048 
140.         28.6      2.7                                        1385200400049 
145.         21.9      3.5                                        1385200400050 
150.          7.2      2.9                                        1385200400051 
ENDDATA             26          0                                 1385200400052 
ENDSUBENT           51          0                                 1385200499999 
SUBENT        13852005   20030305                             00001385200500001 
BIB                  6         12                                 1385200500002 
REACTION   (82-PB-204(N,INL)82-PB-204,PAR,DA)                     1385200500003 
INC-SOURCE (P-T)                                                  1385200500004 
SAMPLE     Metallic lead cylinders; isotopic composition:         1385200500005 
              204Pb (71.4%), 206Pb (12.5%), 207Pb (6.3%),         1385200500006 
              208Pb (9.8%).                                       1385200500007 
MONITOR    (6-C-12(N,EL)6-C-12,,DA) Normalized to ENDF/B-VI.      1385200500008 
CORRECTION Corrected for                                          1385200500009 
           . electronic deadtime,                                 1385200500010 
           . effects due to finite size of sample using the code  1385200500011 
             MULCAT (includes corrections for neutron attenuation 1385200500012 
             and multiple scattering).                            1385200500013 
ERR-ANALYS (ERR-S) Statistical Uncertainty given.                 1385200500014 
ENDBIB              12          0                                 1385200500015 
COMMON               2          3                                 1385200500016 
EN         EN-RSL                                                 1385200500017 
MEV        KEV                                                    1385200500018 
  2.53      72.                                                   1385200500019 
ENDCOMMON            3          0                                 1385200500020 
DATA                 4         50                                 1385200500021 
E-LVL      ANG        DATA       ERR-S                            1385200500022 
KEV        ADEG       MB/SR      PER-CENT                         1385200500023 
 899.       20.1      45.0        5.                              1385200500024 
 899.       25.2      45.2        5.                              1385200500025 
 899.       30.2      43.8        4.5                             1385200500026 
 899.       40.2      38.4        4.                              1385200500027 
 899.       50.3      33.6        4.                              1385200500028 
 899.       55.3      33.8        5.                              1385200500029 
 899.       60.3      30.7        4.                              1385200500030 
 899.       65.3      28.5        4.                              1385200500031 
 899.       70.3      29.7        4.                              1385200500032 
 899.       90.3      28.4        4.                              1385200500033 
 899.      100.3      28.3        4.                              1385200500034 
 899.      110.3      29.7        4.                              1385200500035 
 899.      120.3      30.7        4.                              1385200500036 
 899.      130.2      26.4        4.                              1385200500037 
 899.      140.2      31.3        4.                              1385200500038 
 899.      150.6      31.6        4.                              1385200500039 
1274.       20.1      19.4        4.                              1385200500040 
1274.       25.1      17.8        4.                              1385200500041 
1274.       30.2      16.6        4.                              1385200500042 
1274.       40.2      16.7        4.                              1385200500043 
1274.       50.3      17.5        4.                              1385200500044 
1274.       55.3      14.6        5.5                             1385200500045 
1274.       60.3      16.3        4.                              1385200500046 
1274.       65.4      17.4        5.5                             1385200500047 
1274.       70.4      17.0        4.                              1385200500048 
1274.       80.4      17.5        4.                              1385200500049 
1274.       90.4      17.5        4.                              1385200500050 
1274.      100.4      17.1        4.                              1385200500051 
1274.      110.4      15.2        4.                              1385200500052 
1274.      120.3      14.6        4.                              1385200500053 
1274.      130.3      14.4        4.                              1385200500054 
1274.      140.3      12.7        4.                              1385200500055 
1274.      150.7      10.6        4.                              1385200500056 
1351.       20.1      18.6        5.                              1385200500057 
1351.       25.2      17.6        5.                              1385200500058 
1351.       30.2      16.3        5.                              1385200500059 
1351.       40.3      17.9        5.                              1385200500060 
1351.       50.3      13.0        6.5                             1385200500061 
1351.       55.3      15.2        6.5                             1385200500062 
1351.       60.3      13.6        5.                              1385200500063 
1351.       65.4      10.9        5.5                             1385200500064 
1351.       70.4      12.8        4.8                             1385200500065 
1351.       80.4      11.5        4.6                             1385200500066 
1351.       90.4      12.5        4.5                             1385200500067 
1351.      100.4      12.2        4.4                             1385200500068 
1351.      110.4      12.7        4.6                             1385200500069 
1351.      120.3      15.1        4.8                             1385200500070 
1351.      130.3      13.9        4.9                             1385200500071 
1351.      140.3      14.6        6.                              1385200500072 
1351.      150.7      14.8        6.1                             1385200500073 
ENDDATA             52          0                                 1385200500074 
ENDSUBENT           73          0                                 1385200599999 
SUBENT        13852006   20030305                             00001385200600001 
BIB                  6         12                                 1385200600002 
REACTION   (82-PB-204(N,INL)82-PB-204,PAR,DA)                     1385200600003 
INC-SOURCE (P-T)                                                  1385200600004 
SAMPLE     Metallic lead cylinders; isotopic composition:         1385200600005 
              204Pb (71.4%), 206Pb (12.5%), 207Pb (6.3%),         1385200600006 
              208Pb (9.8%).                                       1385200600007 
MONITOR    (6-C-12(N,EL)6-C-12,,DA) Normalized to ENDF/B-VI.      1385200600008 
CORRECTION Corrected for                                          1385200600009 
           . electronic deadtime,                                 1385200600010 
           . effects due to finite size of sample using the code  1385200600011 
             MULCAT (includes corrections for neutron attenuation 1385200600012 
             and multiple scattering).                            1385200600013 
ERR-ANALYS (ERR-S) Statistical Uncertainty given.                 1385200600014 
ENDBIB              12          0                                 1385200600015 
COMMON               2          3                                 1385200600016 
EN         EN-RSL                                                 1385200600017 
MEV        KEV                                                    1385200600018 
  4.6      108.                                                   1385200600019 
ENDCOMMON            3          0                                 1385200600020 
DATA                 6         61                                 1385200600021 
E-LVL      E-LVL-MIN  E-LVL-MAX  ANG        DATA       ERR-S      1385200600022 
KEV        KEV        KEV        ADEG       MB/SR      PER-CENT   1385200600023 
 899.                              20.1      27.2       10.3      1385200600024 
 899.                              30.2      22.1       16.7      1385200600025 
 899.                              40.2      15.3       14.8      1385200600026 
 899.                              50.3       9.9        7.3      1385200600027 
 899.                              55.3       5.7        8.8      1385200600028 
 899.                              60.3       5.8        7.3      1385200600029 
 899.                              70.3       6.4        6.9      1385200600030 
 899.                              80.3       7.9        6.6      1385200600031 
 899.                              90.3       7.8        6.8      1385200600032 
 899.                             100.3       7.2        7.1      1385200600033 
 899.                             110.3       3.8        7.7      1385200600034 
 899.                             115.3       2.7       10.1      1385200600035 
 899.                             120.3       3.7        8.0      1385200600036 
 899.                             130.3       3.6        8.1      1385200600037 
 899.                             140.2       6.5       10.9      1385200600038 
 899.                             150.2       7.2        7.0      1385200600039 
           1274.       1351.       30.2      21.0        7.8      1385200600040 
           1274.       1351.       40.2      14.2        9.0      1385200600041 
           1274.       1351.       50.3      11.2        6.3      1385200600042 
           1274.       1351.       55.3      11.2        7.7      1385200600043 
           1274.       1351.       60.3      10.3        6.8      1385200600044 
           1274.       1351.       70.3      10.0        6.6      1385200600045 
           1274.       1351.       80.3      11.5        6.4      1385200600046 
           1274.       1351.       90.3      10.5        6.6      1385200600047 
           1274.       1351.      100.3      10.4        6.8      1385200600048 
           1274.       1351.      110.3       7.5        7.2      1385200600049 
           1274.       1351.      115.3       7.2        8.9      1385200600050 
           1274.       1351.      120.3       7.2        7.5      1385200600051 
           1274.       1351.      130.3       8.9        7.2      1385200600052 
           1274.       1351.      140.2      11.4        9.8      1385200600053 
           1274.       1351.      150.2      11.4        6.5      1385200600054 
           1563.       1582.       30.2      13.9       10.5      1385200600055 
           1563.       1582.       40.2      11.9       11.0      1385200600056 
           1563.       1582.       50.3       8.9       10.4      1385200600057 
           1563.       1582.       55.3       7.5       14.7      1385200600058 
           1563.       1582.       60.3       8.9       11.1      1385200600059 
           1563.       1582.       70.3      10.5        9.8      1385200600060 
           1563.       1582.       80.3      11.3        9.6      1385200600061 
           1563.       1582.       90.3      11.3        9.8      1385200600062 
           1563.       1582.      100.3      11.6       10.0      1385200600063 
           1563.       1582.      110.3       8.5       10.7      1385200600064 
           1563.       1582.      115.3       7.6       14.2      1385200600065 
           1563.       1582.      120.3       7.1       12.0      1385200600066 
           1563.       1582.      130.3       7.2       12.1      1385200600067 
           1563.       1582.      140.2       7.9       18.9      1385200600068 
           1563.       1582.      150.2       9.2       10.7      1385200600069 
2650.                              30.21     15.3        6.9      1385200600070 
2650.                              40.27     16.0        6.7      1385200600071 
2650.                              50.33     15.0        5.6      1385200600072 
2650.                              55.35     12.4        7.1      1385200600073 
2650.                              60.37     13.9        6.0      1385200600074 
2650.                              70.4      12.4        5.9      1385200600075 
2650.                              80.42     12.7        5.9      1385200600076 
2650.                              90.43     12.9        6.0      1385200600077 
2650.                             100.42     13.0        6.1      1385200600078 
2650.                             110.4      12.4        6.0      1385200600079 
2650.                             115.39     11.7        7.2      1385200600080 
2650.                             120.37     13.3        6.0      1385200600081 
2650.                             130.33     13.8        6.1      1385200600082 
2650.                             140.27     12.8        8.8      1385200600083 
2650.                             150.21     10.5        6.3      1385200600084 
ENDDATA             63          0                                 1385200600085 
ENDSUBENT           84          0                                 1385200699999 
SUBENT        13852007   20030305                             00001385200700001 
BIB                  6         16                                 1385200700002 
REACTION   (82-PB-204(N,INL)82-PB-204,PAR,DA)                     1385200700003 
INC-SOURCE (D-D)                                                  1385200700004 
SAMPLE     Metallic lead cylinders; isotopic composition:         1385200700005 
              204Pb (71.4%), 206Pb (12.5%), 207Pb (6.3%),         1385200700006 
              208Pb (9.8%).                                       1385200700007 
MONITOR    (6-C-12(N,EL)6-C-12,,DA) Normalized to ENDF/B-VI.      1385200700008 
           (1-H-1(N,EL)1-H-1,,DA) From Breit-Hopkins evaluation   1385200700009 
            (reference not given).                                1385200700010 
           Carbon and hydrogen normalizations agreed within       1385200700011 
            about 2%.                                             1385200700012 
CORRECTION Corrected for                                          1385200700013 
           . electronic deadtime,                                 1385200700014 
           . effects due to finite size of sample using the code  1385200700015 
             MULCAT (includes corrections for neutron attenuation 1385200700016 
             and multiple scattering).                            1385200700017 
ERR-ANALYS (ERR-S) Statistical Uncertainty given.                 1385200700018 
ENDBIB              16          0                                 1385200700019 
COMMON               2          3                                 1385200700020 
EN         EN-RSL                                                 1385200700021 
MEV        KEV                                                    1385200700022 
  8.0      228.                                                   1385200700023 
ENDCOMMON            3          0                                 1385200700024 
DATA                 4         26                                 1385200700025 
E-LVL      ANG        DATA       ERR-S                            1385200700026 
KEV        ADEG       MB/SR      PER-CENT                         1385200700027 
 899.       30.         8.7        7.4                            1385200700028 
 899.       40.         6.4        7.6                            1385200700029 
 899.       50.         4.2        9.2                            1385200700030 
 899.       60.         2.7       11.8                            1385200700031 
 899.       65.         2.3       19.4                            1385200700032 
 899.       70.         2.1       12.0                            1385200700033 
 899.       90.         1.9       13.4                            1385200700034 
 899.      100.         1.7       13.6                            1385200700035 
 899.      110.         1.3       14.2                            1385200700036 
 899.      130.         1.1       14.0                            1385200700037 
 899.      140.         1.3       25.0                            1385200700038 
 899.      150.         1.6       13.3                            1385200700039 
2650.       30.         8.6        5.3                            1385200700040 
2650.       40.         9.2        5.7                            1385200700041 
2650.       50.         9.4        5.7                            1385200700042 
2650.       60.         9.2        5.6                            1385200700043 
2650.       65.         9.0        7.0                            1385200700044 
2650.       70.         8.7        5.6                            1385200700045 
2650.       80.         7.9       12.7                            1385200700046 
2650.       90.         7.1        6.0                            1385200700047 
2650.      100.         6.5        5.6                            1385200700048 
2650.      110.         6.0        5.7                            1385200700049 
2650.      120.         5.7        9.7                            1385200700050 
2650.      130.         5.6        6.1                            1385200700051 
2650.      140.         5.4        8.3                            1385200700052 
2650.      150.         5.3        6.2                            1385200700053 
ENDDATA             28          0                                 1385200700054 
ENDSUBENT           53          0                                 1385200799999 
SUBENT        13852008   20030305                             00001385200800001 
BIB                  6         12                                 1385200800002 
REACTION   (82-PB-206(N,TOT),,SIG)                                1385200800003 
INC-SOURCE (P-T)                                                  1385200800004 
INC-SPECT  Neutron energy resolution 100 keV below 0.5 MeV, and   1385200800005 
            <50 keV at 4 MeV.                                     1385200800006 
SAMPLE     Metallic lead cylinders; isotopic composition:         1385200800007 
              206Pb (88.6%), 207Pb (8.5%), 208Pb (2.9%).          1385200800008 
CORRECTION Corrected for effects of resonance or sample self-     1385200800009 
            shielding.                                            1385200800010 
           Not corrected for multiple scattering or inscattering, 1385200800011 
            assumed negligible.                                   1385200800012 
ERR-ANALYS (ERR-S) Statistical Uncertainty given.                 1385200800013 
            Total uncertainty <2%.                                1385200800014 
ENDBIB              12          0                                 1385200800015 
NOCOMMON             0          0                                 1385200800016 
DATA                 3         54                                 1385200800017 
EN         DATA       ERR-S                                       1385200800018 
MEV        MB         MB                                          1385200800019 
  0.25     7260.       140.                                       1385200800020 
  0.28     5900.       118.                                       1385200800021 
  0.30     5980.       120.                                       1385200800022 
  0.35     5990.       120.                                       1385200800023 
  0.40     6350.       126.                                       1385200800024 
  0.45     6150.       122.                                       1385200800025 
  0.49     6130.       122.                                       1385200800026 
  0.55     6160.       122.                                       1385200800027 
  0.60     6280.       124.                                       1385200800028 
  0.65     6230.       124.                                       1385200800029 
  0.70     6100.       122.                                       1385200800030 
  0.75     5990.       120.                                       1385200800031 
  0.80     6010.       120.                                       1385200800032 
  0.85     5860.       119.                                       1385200800033 
  0.90     5490.       109.                                       1385200800034 
  0.95     5240.       104.                                       1385200800035 
  1.00     5350.       107.                                       1385200800036 
  1.05     5400.       108.                                       1385200800037 
  1.10     5720.       114.                                       1385200800038 
  1.15     5540.       110.                                       1385200800039 
  1.20     4910.        98.                                       1385200800040 
  1.25     5140.       101.                                       1385200800041 
  1.30     5060.       101.                                       1385200800042 
  1.35     5240.       104.                                       1385200800043 
  1.40     5200.       104.                                       1385200800044 
  1.45     5310.       106.                                       1385200800045 
  1.50     5530.       111.                                       1385200800046 
  1.55     5130.       102.                                       1385200800047 
  1.60     5540.       111.                                       1385200800048 
  1.65     5690.       113.                                       1385200800049 
  1.70     5500.       111.                                       1385200800050 
  1.75     5630.       112.                                       1385200800051 
  1.80     5890.       119.                                       1385200800052 
  1.85     5780.       114.                                       1385200800053 
  1.90     6100.       122.                                       1385200800054 
  1.95     6140.       121.                                       1385200800055 
  2.0      6400.       128.                                       1385200800056 
  2.1      6600.       132.                                       1385200800057 
  2.2      6620.       132.                                       1385200800058 
  2.3      7010.       140.                                       1385200800059 
  2.4      6880.       137.                                       1385200800060 
  2.5      6930.       138.                                       1385200800061 
  2.6      7170.       142.                                       1385200800062 
  2.75     7590.       150.                                       1385200800063 
  2.8      7650.       152.                                       1385200800064 
  2.9      7860.       156.                                       1385200800065 
  3.0      7860.       156.                                       1385200800066 
  3.1      7830.       156.                                       1385200800067 
  3.2      7890.       157.                                       1385200800068 
  3.4      7910.       158.                                       1385200800069 
  3.6      7740.       154.                                       1385200800070 
  3.75     7680.       152.                                       1385200800071 
  3.8      7730.       154.                                       1385200800072 
  4.0      7570.       151.                                       1385200800073 
ENDDATA             56          0                                 1385200800074 
ENDSUBENT           73          0                                 1385200899999 
SUBENT        13852009   20030305                             00001385200900001 
BIB                  6         11                                 1385200900002 
REACTION   (82-PB-206(N,EL)82-PB-206,,DA)                         1385200900003 
INC-SOURCE (P-T)                                                  1385200900004 
SAMPLE     Metallic lead cylinders; isotopic composition:         1385200900005 
              206Pb (88.6%), 207Pb (8.5%), 208Pb (2.9%).          1385200900006 
MONITOR    (6-C-12(N,EL)6-C-12,,DA) Normalized to ENDF/B-VI.      1385200900007 
CORRECTION Corrected for                                          1385200900008 
           . electronic deadtime,                                 1385200900009 
           . effects due to finite size of sample using the code  1385200900010 
             MULCAT (includes corrections for neutron attenuation 1385200900011 
             and multiple scattering).                            1385200900012 
ERR-ANALYS (ERR-S) Statistical Uncertainty given.                 1385200900013 
ENDBIB              11          0                                 1385200900014 
NOCOMMON             0          0                                 1385200900015 
DATA                 5         34                                 1385200900016 
EN         EN-RSL     ANG        DATA       ERR-S                 1385200900017 
MEV        KEV        ADEG       MB/SR      PER-CENT              1385200900018 
  2.53      72.        20.1      2669.        2.                  1385200900019 
  2.53      72.        25.1      2255.        2.                  1385200900020 
  2.53      72.        30.1      1568.        2.                  1385200900021 
  2.53      72.        40.2       700.        2.                  1385200900022 
  2.53      72.        50.2       228.4       2.                  1385200900023 
  2.53      72.        55.2       126.6       3.                  1385200900024 
  2.53      72.        60.2        78.7       2.                  1385200900025 
  2.53      72.        65.2        81.8       3.                  1385200900026 
  2.53      72.        70.3       107.4       2.                  1385200900027 
  2.53      72.        80.3       153.2       2.                  1385200900028 
  2.53      72.        90.3       204.3       2.                  1385200900029 
  2.53      72.       100.3       213.9       2.                  1385200900030 
  2.53      72.       110.3       208.1       2.                  1385200900031 
  2.53      72.       120.2       166.9       2.                  1385200900032 
  2.53      72.       130.2       104.8       2.                  1385200900033 
  2.53      72.       140.2        59.7       2.                  1385200900034 
  2.53      72.       150.6       114.1       2.                  1385200900035 
  4.6      108.        20.1      3966.5       2.7                 1385200900036 
  4.6      108.        25.1      2763.8       2.7                 1385200900037 
  4.6      108.        30.2      1553.8       2.7                 1385200900038 
  4.6      108.        40.2       360.2       2.7                 1385200900039 
  4.6      108.        50.2        63.4       3.1                 1385200900040 
  4.6      108.        55.2        28.8       3.2                 1385200900041 
  4.6      108.        60.3        28.8       3.2                 1385200900042 
  4.6      108.        70.3        92.6       3.2                 1385200900043 
  4.6      108.        80.3       142.8       3.2                 1385200900044 
  4.6      108.        90.3       130.2       2.7                 1385200900045 
  4.6      108.       100.3        87.5       3.1                 1385200900046 
  4.6      108.       110.3        28.3       3.3                 1385200900047 
  4.6      108.       115.3        23.0       3.5                 1385200900048 
  4.6      108.       120.3        31.2       3.3                 1385200900049 
  4.6      108.       130.2        71.7       3.1                 1385200900050 
  4.6      108.       140.2        71.5       3.2                 1385200900051 
  4.6      108.       150.2        31.3       3.2                 1385200900052 
ENDDATA             36          0                                 1385200900053 
ENDSUBENT           52          0                                 1385200999999 
SUBENT        13852010   20030305                             00001385201000001 
BIB                  6         15                                 1385201000002 
REACTION   (82-PB-206(N,EL)82-PB-206,,DA)                         1385201000003 
INC-SOURCE (D-D)                                                  1385201000004 
SAMPLE     Metallic lead cylinders; isotopic composition:         1385201000005 
              206Pb (88.6%), 207Pb (8.5%), 208Pb (2.9%).          1385201000006 
MONITOR    (6-C-12(N,EL)6-C-12,,DA) Normalized to ENDF/B-VI.      1385201000007 
           (1-H-1(N,EL)1-H-1,,DA) From Breit-Hopkins evaluation   1385201000008 
            (reference not given).                                1385201000009 
           Carbon and hydrogen normalizations agreed within       1385201000010 
            about 2%.                                             1385201000011 
CORRECTION Corrected for                                          1385201000012 
           . electronic deadtime,                                 1385201000013 
           . effects due to finite size of sample using the code  1385201000014 
             MULCAT (includes corrections for neutron attenuation 1385201000015 
             and multiple scattering).                            1385201000016 
ERR-ANALYS (ERR-S) Statistical Uncertainty given.                 1385201000017 
ENDBIB              15          0                                 1385201000018 
COMMON               2          3                                 1385201000019 
EN         EN-RSL                                                 1385201000020 
MEV        KEV                                                    1385201000021 
  8.0      228.                                                   1385201000022 
ENDCOMMON            3          0                                 1385201000023 
DATA                 3         24                                 1385201000024 
ANG        DATA       ERR-S                                       1385201000025 
ADEG       MB/SR      PER-CENT                                    1385201000026 
 20.       2609.5       5.4                                       1385201000027 
 25.       1227.3       3.0                                       1385201000028 
 30.        477.5       1.8                                       1385201000029 
 35.        312.1       3.1                                       1385201000030 
 40.        254.4       1.9                                       1385201000031 
 45.        239.1       3.3                                       1385201000032 
 50.        177.1       2.0                                       1385201000033 
 55.        105.9       3.1                                       1385201000034 
 60.         31.9       2.3                                       1385201000035 
 62.5        29.4       3.2                                       1385201000036 
 65.         32.8       3.3                                       1385201000037 
 70.         95.0       2.1                                       1385201000038 
 75.        193.7       2.9                                       1385201000039 
 80.        176.5       2.6                                       1385201000040 
 85.        165.9       3.7                                       1385201000041 
 90.        115.3       2.0                                       1385201000042 
100.         29.0       2.3                                       1385201000043 
105.         29.6       3.5                                       1385201000044 
110.         39.5       2.3                                       1385201000045 
120.         65.8       2.8                                       1385201000046 
130.         53.7       2.2                                       1385201000047 
140.         32.2       2.7                                       1385201000048 
145.         17.9       3.5                                       1385201000049 
150.          4.0      50.0                                       1385201000050 
ENDDATA             26          0                                 1385201000051 
ENDSUBENT           50          0                                 1385201099999 
SUBENT        13852011   20030305                             00001385201100001 
BIB                  6         11                                 1385201100002 
REACTION   (82-PB-206(N,INL)82-PB-206,PAR,DA)                     1385201100003 
INC-SOURCE (P-T)                                                  1385201100004 
SAMPLE     Metallic lead cylinders; isotopic composition:         1385201100005 
              206Pb (88.6%), 207Pb (8.5%), 208Pb (2.9%).          1385201100006 
MONITOR    (6-C-12(N,EL)6-C-12,,DA) Normalized to ENDF/B-VI.      1385201100007 
CORRECTION Corrected for                                          1385201100008 
           . electronic deadtime,                                 1385201100009 
           . effects due to finite size of sample using the code  1385201100010 
             MULCAT (includes corrections for neutron attenuation 1385201100011 
             and multiple scattering).                            1385201100012 
ERR-ANALYS (ERR-S) Statistical Uncertainty given.                 1385201100013 
ENDBIB              11          0                                 1385201100014 
NOCOMMON             0          0                                 1385201100015 
DATA                 6        148                                 1385201100016 
EN         EN-RSL     E-LVL      ANG        DATA       ERR-S      1385201100017 
MEV        KEV        KEV        ADEG       MB/SR      PER-CENT   1385201100018 
  2.53      72.        803.       20.1       59.9        4.       1385201100019 
  2.53      72.        803.       25.1       59.7        4.       1385201100020 
  2.53      72.        803.       30.1       57.7        4.       1385201100021 
  2.53      72.        803.       40.2       53.8        4.       1385201100022 
  2.53      72.        803.       50.2       47.4        4.       1385201100023 
  2.53      72.        803.       55.2       44.0        5.       1385201100024 
  2.53      72.        803.       60.2       41.6        5.       1385201100025 
  2.53      72.        803.       65.2       42.4        4.       1385201100026 
  2.53      72.        803.       70.3       40.9        4.       1385201100027 
  2.53      72.        803.       80.3       37.6        4.       1385201100028 
  2.53      72.        803.       90.3       37.3        4.       1385201100029 
  2.53      72.        803.      100.3       40.4        4.       1385201100030 
  2.53      72.        803.      110.3       44.6        4.       1385201100031 
  2.53      72.        803.      120.2       44.1        4.       1385201100032 
  2.53      72.        803.      130.2       46.8        5.       1385201100033 
  2.53      72.        803.      140.2       45.6        4.       1385201100034 
  2.53      72.        803.      150.6       40.2        5.       1385201100035 
  2.53      72.       1167.       20.1       24.2        4.       1385201100036 
  2.53      72.       1167.       25.1       22.2        4.       1385201100037 
  2.53      72.       1167.       30.1       17.0        4.       1385201100038 
  2.53      72.       1167.       40.2       12.6        4.       1385201100039 
  2.53      72.       1167.       50.2        8.8        4.       1385201100040 
  2.53      72.       1167.       55.2        5.9        7.       1385201100041 
  2.53      72.       1167.       60.2        5.4        7.       1385201100042 
  2.53      72.       1167.       65.2        6.7        4.5      1385201100043 
  2.53      72.       1167.       70.3        7.8        4.5      1385201100044 
  2.53      72.       1167.       80.3        6.3        4.5      1385201100045 
  2.53      72.       1167.       90.3        6.6        4.5      1385201100046 
  2.53      72.       1167.      100.3        6.9        4.5      1385201100047 
  2.53      72.       1167.      110.3        7.4        4.5      1385201100048 
  2.53      72.       1167.      120.2        7.8        4.5      1385201100049 
  2.53      72.       1167.      130.2        9.4        6.       1385201100050 
  2.53      72.       1167.      140.2       10.5        4.5      1385201100051 
  2.53      72.       1167.      150.6       11.6        6.       1385201100052 
  2.53      72.       1341.       20.1       34.2        3.5      1385201100053 
  2.53      72.       1341.       25.1       33.6        3.5      1385201100054 
  2.53      72.       1341.       30.1       30.4        3.5      1385201100055 
  2.53      72.       1341.       40.2       30.4        3.5      1385201100056 
  2.53      72.       1341.       50.2       28.5        3.5      1385201100057 
  2.53      72.       1341.       55.2       29.2        4.       1385201100058 
  2.53      72.       1341.       60.2       25.4        4.       1385201100059 
  2.53      72.       1341.       65.2       27.8        3.5      1385201100060 
  2.53      72.       1341.       70.3       27.5        3.5      1385201100061 
  2.53      72.       1341.       80.3       25.5        3.5      1385201100062 
  2.53      72.       1341.       90.3       28.7        3.5      1385201100063 
  2.53      72.       1341.      100.3       27.4        3.5      1385201100064 
  2.53      72.       1341.      110.3       28.3        3.5      1385201100065 
  2.53      72.       1341.      120.2       28.3        3.5      1385201100066 
  2.53      72.       1341.      130.2       29.1        4.       1385201100067 
  2.53      72.       1341.      140.2       28.9        3.5      1385201100068 
  2.53      72.       1341.      150.6       28.6        4.       1385201100069 
  2.53      72.       1467.       20.1       29.9        3.5      1385201100070 
  2.53      72.       1467.       25.1       28.8        3.5      1385201100071 
  2.53      72.       1467.       30.1       27.8        3.5      1385201100072 
  2.53      72.       1467.       40.2       24.6        3.5      1385201100073 
  2.53      72.       1467.       50.2       22.9        3.5      1385201100074 
  2.53      72.       1467.       55.2       19.1        4.       1385201100075 
  2.53      72.       1467.       60.2       19.6        4.       1385201100076 
  2.53      72.       1467.       65.2       20.3        3.5      1385201100077 
  2.53      72.       1467.       70.2       19.6        3.5      1385201100078 
  2.53      72.       1467.       80.3       17.5        3.5      1385201100079 
  2.53      72.       1467.       90.3       18.3        3.5      1385201100080 
  2.53      72.       1467.      100.3       19.1        3.5      1385201100081 
  2.53      72.       1467.      110.3       21.8        3.5      1385201100082 
  2.53      72.       1467.      120.2       22.1        3.5      1385201100083 
  2.53      72.       1467.      130.2       23.5        4.       1385201100084 
  2.53      72.       1467.      140.2       23.0        3.5      1385201100085 
  2.53      72.       1467.      150.6       20.2        4.       1385201100086 
  4.6      108.        803.       20.1       35.0        4.3      1385201100087 
  4.6      108.        803.       30.2       28.9        4.7      1385201100088 
  4.6      108.        803.       40.2       22.3        4.7      1385201100089 
  4.6      108.        803.       50.2       21.4        4.4      1385201100090 
  4.6      108.        803.       55.2       18.5        4.9      1385201100091 
  4.6      108.        803.       60.3       15.4        5.2      1385201100092 
  4.6      108.        803.       70.3       16.1        4.7      1385201100093 
  4.6      108.        803.       80.3       14.3        5.1      1385201100094 
  4.6      108.        803.       90.3       13.4        4.7      1385201100095 
  4.6      108.        803.      100.3       13.1        5.3      1385201100096 
  4.6      108.        803.      110.3       11.8        5.3      1385201100097 
  4.6      108.        803.      115.3        9.6        5.4      1385201100098 
  4.6      108.        803.      120.3       10.8        5.3      1385201100099 
  4.6      108.        803.      130.2       12.2        5.1      1385201100100 
  4.6      108.        803.      140.2       14.7        5.9      1385201100101 
  4.6      108.        803.      150.2       15.2        5.       1385201100102 
  4.6      108.       1167.       20.1       12.3        8.1      1385201100103 
  4.6      108.       1167.       30.2        7.3       15.4      1385201100104 
  4.6      108.       1167.       40.3        6.8       13.8      1385201100105 
  4.6      108.       1167.       50.3        3.5        9.2      1385201100106 
  4.6      108.       1167.       55.3        2.3       16.4      1385201100107 
  4.6      108.       1167.       60.3        2.2       17.7      1385201100108 
  4.6      108.       1167.       70.3        3.1       12.0      1385201100109 
  4.6      108.       1167.       80.3        4.8       17.1      1385201100110 
  4.6      108.       1167.       90.3        4.1       14.4      1385201100111 
  4.6      108.       1167.      100.3        2.9       15.7      1385201100112 
  4.6      108.       1167.      110.3        1.6       19.9      1385201100113 
  4.6      108.       1167.      115.3        2.2       16.6      1385201100114 
  4.6      108.       1167.      120.3        2.3       16.3      1385201100115 
  4.6      108.       1167.      130.3        2.9       13.9      1385201100116 
  4.6      108.       1167.      140.2        4.5       17.4      1385201100117 
  4.6      108.       1167.      150.2        5.9       11.3      1385201100118 
  4.6      108.       1341.       20.1       14.2        5.9      1385201100119 
  4.6      108.       1341.       30.2       14.9        8.1      1385201100120 
  4.6      108.       1341.       40.2       12.9        7.8      1385201100121 
  4.6      108.       1341.       50.3       14.8        4.8      1385201100122 
  4.6      108.       1341.       55.3       12.1        6.1      1385201100123 
  4.6      108.       1341.       60.3       13.6        6.1      1385201100124 
  4.6      108.       1341.       70.3       11.9        5.5      1385201100125 
  4.6      108.       1341.       80.3       11.8        6.1      1385201100126 
  4.6      108.       1341.       90.3       11.3        5.4      1385201100127 
  4.6      108.       1341.      100.3       11.5        6.2      1385201100128 
  4.6      108.       1341.      110.3        9.9        6.3      1385201100129 
  4.6      108.       1341.      115.3        9.5        6.4      1385201100130 
  4.6      108.       1341.      120.3        9.4        6.4      1385201100131 
  4.6      108.       1341.      130.3       10.3        6.       1385201100132 
  4.6      108.       1341.      140.2       13.0        7.4      1385201100133 
  4.6      108.       1341.      150.2       11.9        6.1      1385201100134 
  4.6      108.       1467.       20.1       18.7        5.5      1385201100135 
  4.6      108.       1467.       30.2       19.4        7.4      1385201100136 
  4.6      108.       1467.       40.2       15.3        7.3      1385201100137 
  4.6      108.       1467.       50.3       13.0        4.9      1385201100138 
  4.6      108.       1467.       55.3       11.2        6.2      1385201100139 
  4.6      108.       1467.       60.3       10.4        6.5      1385201100140 
  4.6      108.       1467.       70.3        9.5        5.7      1385201100141 
  4.6      108.       1467.       80.3        9.5        6.5      1385201100142 
  4.6      108.       1467.       90.3        8.5        5.8      1385201100143 
  4.6      108.       1467.      100.3        8.6        6.7      1385201100144 
  4.6      108.       1467.      110.3        8.1        6.7      1385201100145 
  4.6      108.       1467.      115.3        8.0        6.6      1385201100146 
  4.6      108.       1467.      120.3        9.5        6.3      1385201100147 
  4.6      108.       1467.      130.3        9.0        6.3      1385201100148 
  4.6      108.       1467.      140.2       10.1        8.       1385201100149 
  4.6      108.       1467.      150.2       11.5        6.1      1385201100150 
  4.6      108.       2650.       20.1        8.5       16.0      1385201100151 
  4.6      108.       2650.       30.2       11.1       10.0      1385201100152 
  4.6      108.       2650.       40.2       15.9        9.6      1385201100153 
  4.6      108.       2650.       50.2       17.1        7.5      1385201100154 
  4.6      108.       2650.       55.2       13.7        6.9      1385201100155 
  4.6      108.       2650.       60.3       13.5        7.2      1385201100156 
  4.6      108.       2650.       70.3       12.6        6.1      1385201100157 
  4.6      108.       2650.       80.3       10.2        7.5      1385201100158 
  4.6      108.       2650.       90.3       11.4        6.1      1385201100159 
  4.6      108.       2650.      100.3       12.3        7.1      1385201100160 
  4.6      108.       2650.      110.3       14.3        6.8      1385201100161 
  4.6      108.       2650.      115.3       14.7        6.6      1385201100162 
  4.6      108.       2650.      120.3       15.8        6.5      1385201100163 
  4.6      108.       2650.      130.2       15.2        6.4      1385201100164 
  4.6      108.       2650.      140.2       14.0        8.8      1385201100165 
  4.6      108.       2650.      150.2       11.3        7.1      1385201100166 
ENDDATA            150          0                                 1385201100167 
ENDSUBENT          166          0                                 1385201199999 
SUBENT        13852012   20030305                             00001385201200001 
BIB                  6         15                                 1385201200002 
REACTION   (82-PB-206(N,INL)82-PB-206,PAR,DA)                     1385201200003 
INC-SOURCE (D-D)                                                  1385201200004 
SAMPLE     Metallic lead cylinders; isotopic composition:         1385201200005 
              206Pb (88.6%), 207Pb (8.5%), 208Pb (2.9%).          1385201200006 
MONITOR    (6-C-12(N,EL)6-C-12,,DA) Normalized to ENDF/B-VI.      1385201200007 
           (1-H-1(N,EL)1-H-1,,DA) From Breit-Hopkins evaluation   1385201200008 
            (reference not given).                                1385201200009 
           Carbon and hydrogen normalizations agreed within       1385201200010 
            about 2%.                                             1385201200011 
CORRECTION Corrected for                                          1385201200012 
           . electronic deadtime,                                 1385201200013 
           . effects due to finite size of sample using the code  1385201200014 
             MULCAT (includes corrections for neutron attenuation 1385201200015 
             and multiple scattering).                            1385201200016 
ERR-ANALYS (ERR-S) Statistical Uncertainty given.                 1385201200017 
ENDBIB              15          0                                 1385201200018 
COMMON               2          3                                 1385201200019 
EN         EN-RSL                                                 1385201200020 
MEV        KEV                                                    1385201200021 
  8.0      228.                                                   1385201200022 
ENDCOMMON            3          0                                 1385201200023 
DATA                 4         24                                 1385201200024 
E-LVL      ANG        DATA       ERR-S                            1385201200025 
KEV        ADEG       MB/SR      PER-CENT                         1385201200026 
 803.       30.         7.1        7.2                            1385201200027 
 803.       40.         6.6        6.7                            1385201200028 
 803.       50.         4.4        8.3                            1385201200029 
 803.       60.         3.0        9.8                            1385201200030 
 803.       70.         2.3       10.8                            1385201200031 
 803.       90.         1.6       12.8                            1385201200032 
 803.      100.         1.5       11.1                            1385201200033 
 803.      110.         1.3       14.7                            1385201200034 
 803.      130.         1.1       14.1                            1385201200035 
 803.      140.         1.1       17.8                            1385201200036 
 803.      150.         1.2       13.7                            1385201200037 
2650.       30.         8.2        5.1                            1385201200038 
2650.       40.        10.4        4.6                            1385201200039 
2650.       50.        12.5        4.4                            1385201200040 
2650.       60.        11.3        4.5                            1385201200041 
2650.       70.         9.5        4.7                            1385201200042 
2650.       80.         7.0        8.3                            1385201200043 
2650.       90.         7.4        5.1                            1385201200044 
2650.      100.         8.5        4.4                            1385201200045 
2650.      110.         7.4        4.8                            1385201200046 
2650.      120.         6.1        7.6                            1385201200047 
2650.      130.         5.5        5.2                            1385201200048 
2650.      140.         5.6        6.4                            1385201200049 
2650.      150.         5.4        5.2                            1385201200050 
ENDDATA             26          0                                 1385201200051 
ENDSUBENT           50          0                                 1385201299999 
ENDENTRY            12          0                                 1385299999999 
