ENTRY            13889   20040225                             00001388900000001 
SUBENT        13889001   20040225                             00001388900100001 
BIB                 13         22                                 1388900100002 
INSTITUTE  (1USALAS,1USALRL,1USAOHO,2GERBOC,3POLUJK)              1388900100003 
REFERENCE  (J,PRL,81,57,199807)                                   1388900100004 
AUTHOR     (W.P.Abfalterer,F.B.Bateman,F.S.Dietrich,Ch.Elster,    1388900100005 
           R.W.Finlay,W.Gloeckle,J.Golak,R.C.Haight,D.Hueber,     1388900100006 
           G.L.Morgan,H.Witala)                                   1388900100007 
TITLE      Inadequacies of the Nonrelativistic 3N Hamiltonian in  1388900100008 
            Describing the n + d Total Cross Section              1388900100009 
FACILITY   (MESON,1USALAS) LANSCE/WNR facility.                   1388900100010 
INC-SOURCE (EVAP) 800 MeV protons on tungsten target              1388900100011 
SAMPLE     Deionized water, 0.999 g/cm2 thick, and heavy water,   1388900100012 
            1.106 g/cm2 thick,aluminum cylinders. Heavy water     1388900100013 
            enriched to 99.9% 2H.                                 1388900100014 
METHOD     (TOF)                                                  1388900100015 
DETECTOR   (SCIN) Plastic scintillation counters.                 1388900100016 
CORRECTION Corrected for dead time, background, and density       1388900100017 
            variations with temperature.                          1388900100018 
ERR-ANALYS (ERR-S) Uncertainties given are statistical.  In       1388900100019 
            addition there is an estimated 1% systematic          1388900100020 
            uncertainty.                                          1388900100021 
STATUS     Data received by email from F.Dietrich, 2004/2/11.     1388900100022 
           (APRVD) Approved by F. Dietrich, 24 February 2004.     1388900100023 
HISTORY    (20040212C)                                            1388900100024 
ENDBIB              22          0                                 1388900100025 
NOCOMMON             0          0                                 1388900100026 
ENDSUBENT           25          0                                 1388900199999 
SUBENT        13889002   20040212                             00001388900200001 
BIB                  2          3                                 1388900200002 
REACTION   ((1-H-2(N,TOT),,SIG)-(1-H-1(N,TOT),,SIG))              1388900200003 
STATUS     (DEP,13569005) Source of data used to correct for      1388900200004 
            oxygen content of samples.                            1388900200005 
ENDBIB               3          0                                 1388900200006 
NOCOMMON             0          0                                 1388900200007 
DATA                 3        101                                 1388900200008 
EN         DATA       ERR-S                                       1388900200009 
MEV        B          B                                           1388900200010 
  9.16       9.664E-02   1.69E-03                                 1388900200011 
  9.53       9.732E-02   1.70E-03                                 1388900200012 
  9.92       1.020E-01   1.84E-03                                 1388900200013 
 10.33       1.069E-01   1.88E-03                                 1388900200014 
 10.75       1.112E-01   1.64E-03                                 1388900200015 
 11.19       1.097E-01   2.34E-03                                 1388900200016 
 11.64       1.118E-01   2.49E-03                                 1388900200017 
 12.12       1.185E-01   2.11E-03                                 1388900200018 
 12.61       1.143E-01   2.03E-03                                 1388900200019 
 13.13       1.170E-01   2.06E-03                                 1388900200020 
 13.66       1.186E-01   2.06E-03                                 1388900200021 
 14.22       1.205E-01   2.00E-03                                 1388900200022 
 14.80       1.142E-01   2.13E-03                                 1388900200023 
 15.41       1.217E-01   1.94E-03                                 1388900200024 
 16.04       1.218E-01   1.81E-03                                 1388900200025 
 16.69       1.225E-01   1.71E-03                                 1388900200026 
 17.37       1.189E-01   1.77E-03                                 1388900200027 
 18.08       1.192E-01   1.64E-03                                 1388900200028 
 18.82       1.168E-01   1.63E-03                                 1388900200029 
 19.59       1.173E-01   1.55E-03                                 1388900200030 
 20.39       1.164E-01   1.00E-03                                 1388900200031 
 21.22       1.150E-01   9.47E-04                                 1388900200032 
 22.08       1.114E-01   8.89E-04                                 1388900200033 
 22.99       1.105E-01   8.44E-04                                 1388900200034 
 23.92       1.092E-01   8.00E-04                                 1388900200035 
 24.90       1.061E-01   7.64E-04                                 1388900200036 
 25.92       1.021E-01   7.28E-04                                 1388900200037 
 26.97       1.008E-01   6.92E-04                                 1388900200038 
 28.07       9.806E-02   6.57E-04                                 1388900200039 
 29.22       9.573E-02   6.26E-04                                 1388900200040 
 30.41       9.382E-02   5.98E-04                                 1388900200041 
 31.65       8.994E-02   5.69E-04                                 1388900200042 
 32.95       8.678E-02   5.41E-04                                 1388900200043 
 34.29       8.520E-02   5.13E-04                                 1388900200044 
 35.69       8.265E-02   4.88E-04                                 1388900200045 
 37.15       7.917E-02   4.65E-04                                 1388900200046 
 38.66       7.706E-02   4.43E-04                                 1388900200047 
 40.24       7.424E-02   4.22E-04                                 1388900200048 
 41.88       7.111E-02   4.01E-04                                 1388900200049 
 43.59       6.841E-02   3.82E-04                                 1388900200050 
 45.37       6.586E-02   3.64E-04                                 1388900200051 
 47.23       6.359E-02   3.47E-04                                 1388900200052 
 49.15       6.075E-02   3.32E-04                                 1388900200053 
 51.16       5.857E-02   3.17E-04                                 1388900200054 
 53.25       5.655E-02   3.04E-04                                 1388900200055 
 55.42       5.359E-02   2.91E-04                                 1388900200056 
 57.68       5.119E-02   2.79E-04                                 1388900200057 
 60.04       4.973E-02   2.68E-04                                 1388900200058 
 62.49       4.747E-02   2.58E-04                                 1388900200059 
 65.04       4.605E-02   2.48E-04                                 1388900200060 
 67.69       4.340E-02   2.39E-04                                 1388900200061 
 70.46       4.180E-02   2.30E-04                                 1388900200062 
 73.33       4.001E-02   2.23E-04                                 1388900200063 
 76.33       3.861E-02   2.15E-04                                 1388900200064 
 79.44       3.692E-02   2.08E-04                                 1388900200065 
 82.68       3.562E-02   2.02E-04                                 1388900200066 
 86.06       3.434E-02   1.96E-04                                 1388900200067 
 89.57       3.334E-02   1.91E-04                                 1388900200068 
 93.23       3.182E-02   1.86E-04                                 1388900200069 
 97.03       3.065E-02   1.81E-04                                 1388900200070 
101.0        2.972E-02   1.77E-04                                 1388900200071 
105.1        2.887E-02   1.73E-04                                 1388900200072 
109.4        2.812E-02   1.69E-04                                 1388900200073 
113.9        2.733E-02   1.66E-04                                 1388900200074 
118.5        2.664E-02   1.62E-04                                 1388900200075 
123.4        2.579E-02   1.60E-04                                 1388900200076 
128.4        2.563E-02   1.57E-04                                 1388900200077 
133.6        2.485E-02   1.55E-04                                 1388900200078 
139.1        2.438E-02   1.53E-04                                 1388900200079 
144.8        2.390E-02   1.51E-04                                 1388900200080 
150.7        2.358E-02   1.50E-04                                 1388900200081 
156.8        2.332E-02   1.49E-04                                 1388900200082 
163.2        2.313E-02   1.48E-04                                 1388900200083 
169.9        2.303E-02   1.47E-04                                 1388900200084 
176.8        2.279E-02   1.46E-04                                 1388900200085 
184.0        2.246E-02   1.46E-04                                 1388900200086 
191.5        2.229E-02   1.46E-04                                 1388900200087 
199.4        2.249E-02   1.46E-04                                 1388900200088 
207.5        2.244E-02   1.46E-04                                 1388900200089 
216.0        2.227E-02   1.46E-04                                 1388900200090 
224.8        2.260E-02   1.47E-04                                 1388900200091 
234.0        2.270E-02   1.48E-04                                 1388900200092 
243.5        2.243E-02   1.48E-04                                 1388900200093 
253.5        2.274E-02   1.50E-04                                 1388900200094 
263.8        2.265E-02   1.51E-04                                 1388900200095 
274.6        2.267E-02   1.52E-04                                 1388900200096 
285.8        2.320E-02   1.53E-04                                 1388900200097 
297.4        2.319E-02   1.55E-04                                 1388900200098 
309.6        2.358E-02   1.56E-04                                 1388900200099 
322.2        2.377E-02   1.57E-04                                 1388900200100 
335.4        2.410E-02   1.58E-04                                 1388900200101 
349.0        2.466E-02   1.59E-04                                 1388900200102 
363.3        2.499E-02   1.60E-04                                 1388900200103 
378.1        2.509E-02   1.60E-04                                 1388900200104 
393.6        2.560E-02   1.61E-04                                 1388900200105 
409.6        2.632E-02   1.61E-04                                 1388900200106 
426.3        2.699E-02   1.62E-04                                 1388900200107 
443.7        2.772E-02   1.63E-04                                 1388900200108 
461.9        2.851E-02   1.66E-04                                 1388900200109 
480.7        2.931E-02   1.72E-04                                 1388900200110 
500.3        3.015E-02   1.81E-04                                 1388900200111 
ENDDATA            103          0                                 1388900200112 
ENDSUBENT          111          0                                 1388900299999 
ENDENTRY             2          0                                 1388999999999 
