ENTRY            13896   20221025                             150513896000    1 
SUBENT        13896001   20221025                             150513896001    1 
BIB                 13         26                                 13896001    2 
TITLE      95Mo(n,a) cross section from 1 eV to 500 keV: A test   13896001    3 
            of the alpha+nucleus optical potential used in        13896001    4 
            calculating reaction rates for explosive              13896001    5 
            nucleosynthesis                                       13896001    6 
AUTHOR     (W.Rapp, P.E.Koehler, F.Kaeppeler, S.Raman)            13896001    7 
INSTITUTE  (1USAORL,2GERKFK)                                      13896001    8 
REFERENCE  (J,PR/C,68,015802,200307)  Main reference              13896001    9 
REL-REF    (O,14797004,P.E.Kohler,J,PR/C,105,054306,2022)         13896001   10 
            Resonance parameters updated                          13896001   11 
FACILITY   (LINAC,1USAORL) ORELA                                  13896001   12 
INC-SOURCE (PHOTO) Neutrons from electrons on tantalum target     13896001   13 
SAMPLE     Two metallic foils containing 96.8% enriched 95Mo,     13896001   14 
           placed back to back on either side of an Al foil.      13896001   15 
DETECTOR   (IOCH) Compensated ionization chamber used as alpha    13896001   16 
            detector and another as a flux monitor.               13896001   17 
MONITOR    (3-LI-6(N,T)2-HE-4,,SIG)                               13896001   18 
MONIT-REF  (,A.D.Carlson+,R,NISTIR-5177,1993) ENDF standard       13896001   19 
CORRECTION Corrected for:                                         13896001   20 
           . counting loss,                                       13896001   21 
           . time-independent background,                         13896001   22 
           . alpha straggling in samples and imperfect charge     13896001   23 
             collection,                                          13896001   24 
HISTORY    (20040518C)                                            13896001   25 
           (20120225U) On. BIB updated (formal correction)        13896001   26 
           (20221018A) S.H. Inserted data for 95Mo(n,a) reaction, 13896001   27 
            deleted STATUS in sub 1                               13896001   28 
ENDBIB              26          0                                 13896001   29 
NOCOMMON             0          0                                 13896001   30 
ENDSUBENT           29          0                                 1389600199999 
SUBENT        13896002   20221025                             150513896002    1 
BIB                  4          5                                 13896002    2 
REACTION   (42-MO-95(N,A)40-ZR-92,,SIG)                           13896002    3 
STATUS     (TABLE) Data partially presented in fig.2 of the       13896002    4 
                   main reference sent by author P.E.K.           13896002    5 
ERR-ANALYS (ERR-S) Statistical uncertainty                        13896002    6 
HISTORY    (20221018A) S.H. Inserted data from author             13896002    7 
ENDBIB               5          0                                 13896002    8 
NOCOMMON             0          0                                 13896002    9 
DATA                 3       1702                                 13896002   10 
EN         DATA       ERR-S                                       13896002   11 
EV         B          B                                           13896002   12 
  10032.050  0.0000334  0.0000116                                 13896002   13 
   9785.150  0.0000355  0.0000118                                 13896002   14 
   9547.256  0.0000486  0.0000121                                 13896002   15 
   9402.950  0.0000601  0.0000222                                 13896002   16 
   9346.143  0.0000230  0.0000250                                 13896002   17 
   9289.849  0.0000344  0.0000269                                 13896002   18 
   9234.061  0.0000645  0.0000261                                 13896002   19 
   9178.775  0.0000375  0.0000239                                 13896002   20 
   9123.984  0.0001028  0.0000273                                 13896002   21 
   9069.682  0.0000641  0.0000264                                 13896002   22 
   9015.862  0.0000587  0.0000251                                 13896002   23 
   8962.521  0.0000734  0.0000303                                 13896002   24 
   8909.652  0.0000783  0.0000285                                 13896002   25 
   8857.250  0.0000453  0.0000267                                 13896002   26 
   8805.309  0.0000398  0.0000273                                 13896002   27 
   8753.822  0.0000915  0.0000313                                 13896002   28 
   8702.786  0.0000555  0.0000289                                 13896002   29 
   8652.195  0.0000400  0.0000269                                 13896002   30 
   8602.045  0.0000447  0.0000257                                 13896002   31 
   8552.328  0.0000781  0.0000306                                 13896002   32 
   8503.042  0.0000628  0.0000322                                 13896002   33 
   8454.181  0.0000544  0.0000265                                 13896002   34 
   8405.739  0.0000321  0.0000250                                 13896002   35 
   8357.712  0.0000408  0.0000238                                 13896002   36 
   8310.096  0.0000645  0.0000259                                 13896002   37 
   8262.887  0.0000466  0.0000287                                 13896002   38 
   8216.077  0.0000304  0.0000262                                 13896002   39 
   8169.664  0.0000317  0.0000278                                 13896002   40 
   8123.644  0.0000480  0.0000292                                 13896002   41 
   8078.012  0.0000785  0.0000303                                 13896002   42 
   8032.762  0.0000466  0.0000299                                 13896002   43 
   7987.893  0.0000397  0.0000302                                 13896002   44 
   7943.397  0.0000493  0.0000292                                 13896002   45 
   7899.273  0.0000307  0.0000276                                 13896002   46 
   7855.516  0.0000412  0.0000279                                 13896002   47 
   7812.120  0.0000169  0.0000287                                 13896002   48 
   7769.084  0.0000869  0.0000319                                 13896002   49 
   7726.402  0.0000591  0.0000272                                 13896002   50 
   7684.071  0.0000174  0.0000246                                 13896002   51 
   7642.086  0.0000098  0.0000222                                 13896002   52 
   7600.446  0.0000492  0.0000292                                 13896002   53 
   7538.619  0.0000173  0.0000190                                 13896002   54 
   7457.351  0.0000182  0.0000199                                 13896002   55 
   7377.390  0.0000066  0.0000186                                 13896002   56 
   7298.708  0.0000285  0.0000178                                 13896002   57 
   7221.277  0.0000068  0.0000179                                 13896002   58 
   7145.073  0.0000025  0.0000192                                 13896002   59 
   7070.069  0.0000071  0.0000196                                 13896002   60 
   6996.239  0.0000105  0.0000199                                 13896002   61 
   6923.561  0.0000077  0.0000209                                 13896002   62 
   6852.008  0.0000139  0.0000192                                 13896002   63 
   6781.559  0.0000157  0.0000209                                 13896002   64 
   6712.191  0.0000288  0.0000229                                 13896002   65 
   6643.882  0.0000235  0.0000234                                 13896002   66 
   6576.611  0.0000412  0.0000244                                 13896002   67 
   6510.356  0.0000199  0.0000209                                 13896002   68 
   6445.097  0.0000397  0.0000240                                 13896002   69 
   6380.814  0.0000374  0.0000268                                 13896002   70 
   6317.489  0.0000445  0.0000233                                 13896002   71 
   6255.102  0.0000119  0.0000210                                 13896002   72 
   6193.634  0.0000206  0.0000243                                 13896002   73 
   6133.067  0.0000213  0.0000222                                 13896002   74 
   6073.385  0.0000077  0.0000210                                 13896002   75 
   6014.570  0.0000128  0.0000212                                 13896002   76 
   5956.604  0.0000036  0.0000222                                 13896002   77 
   5899.474  0.0000271  0.0000243                                 13896002   78 
   5843.161  0.0000227  0.0000235                                 13896002   79 
   5787.650  0.0000217  0.0000244                                 13896002   80 
   5732.927  0.0000151  0.0000215                                 13896002   81 
   5678.976  0.0000406  0.0000221                                 13896002   82 
   5639.011  0.0000498  0.0000286                                 13896002   83 
   5612.602  0.0000497  0.0000317                                 13896002   84 
   5586.377  0.0000556  0.0000325                                 13896002   85 
   5560.336  0.0000597  0.0000345                                 13896002   86 
   5534.478  0.0000513  0.0000327                                 13896002   87 
   5508.798  0.0001411  0.0000363                                 13896002   88 
   5483.297  0.0000658  0.0000341                                 13896002   89 
   5457.973  0.0000417  0.0000322                                 13896002   90 
   5432.824  0.0000374  0.0000294                                 13896002   91 
   5407.848  0.0000483  0.0000278                                 13896002   92 
   5383.044  0.0000592  0.0000347                                 13896002   93 
   5358.410  0.0000923  0.0000347                                 13896002   94 
   5333.945  0.0000400  0.0000358                                 13896002   95 
   5309.647  0.0000320  0.0000333                                 13896002   96 
   5285.515  0.0000596  0.0000393                                 13896002   97 
   5261.547  0.0000505  0.0000342                                 13896002   98 
   5237.742  0.0000227  0.0000389                                 13896002   99 
   5214.098  0.0000258  0.0000278                                 13896002  100 
   5190.613  0.0000692  0.0000344                                 13896002  101 
   5167.287  0.0000796  0.0000359                                 13896002  102 
   5144.118  0.0000670  0.0000374                                 13896002  103 
   5121.104  0.0000232  0.0000383                                 13896002  104 
   5098.244  0.0000732  0.0000332                                 13896002  105 
   5075.538  0.0000629  0.0000335                                 13896002  106 
   5052.981  0.0001283  0.0000394                                 13896002  107 
   5030.576  0.0000738  0.0000348                                 13896002  108 
   5008.319  0.0001683  0.0000417                                 13896002  109 
   4986.209  0.0002493  0.0000513                                 13896002  110 
   4964.246  0.0002334  0.0000488                                 13896002  111 
   4942.428  0.0001308  0.0000394                                 13896002  112 
   4920.752  0.0001664  0.0000440                                 13896002  113 
   4899.220  0.0001636  0.0000444                                 13896002  114 
   4877.828  0.0002318  0.0000521                                 13896002  115 
   4856.576  0.0002591  0.0000521                                 13896002  116 
   4835.463  0.0001373  0.0000378                                 13896002  117 
   4814.486  0.0001808  0.0000439                                 13896002  118 
   4793.646  0.0001095  0.0000418                                 13896002  119 
   4772.942  0.0002475  0.0000560                                 13896002  120 
   4752.371  0.0001500  0.0000400                                 13896002  121 
   4731.933  0.0001712  0.0000440                                 13896002  122 
   4711.626  0.0001774  0.0000430                                 13896002  123 
   4691.450  0.0001369  0.0000469                                 13896002  124 
   4671.403  0.0000337  0.0000384                                 13896002  125 
   4651.484  0.0000224  0.0000397                                 13896002  126 
   4631.693  0.0000898  0.0000393                                 13896002  127 
   4612.027  0.0000491  0.0000359                                 13896002  128 
   4592.487  0.0000238  0.0000346                                 13896002  129 
   4573.070  0.0000771  0.0000348                                 13896002  130 
   4553.776  0.0000268  0.0000362                                 13896002  131 
   4534.604  0.0000455  0.0000356                                 13896002  132 
   4515.553  0.0000252  0.0000358                                 13896002  133 
   4496.623  0.0000355  0.0000385                                 13896002  134 
   4468.448  0.0000091  0.0000255                                 13896002  135 
   4431.292  0.0000248  0.0000274                                 13896002  136 
   4394.597  0.0000260  0.0000264                                 13896002  137 
   4358.357  0.0000300  0.0000282                                 13896002  138 
   4322.563  0.0000656  0.0000335                                 13896002  139 
   4287.208  0.0000373  0.0000284                                 13896002  140 
   4252.285  0.0000354  0.0000286                                 13896002  141 
   4217.787  0.0000759  0.0000295                                 13896002  142 
   4183.708  0.0000452  0.0000278                                 13896002  143 
   4150.039  0.0000614  0.0000274                                 13896002  144 
   4116.775  0.0000281  0.0000278                                 13896002  145 
   4083.910  0.0000600  0.0000310                                 13896002  146 
   4051.437  0.0000267  0.0000280                                 13896002  147 
   4019.349  0.0000522  0.0000322                                 13896002  148 
   3987.642  0.0000166  0.0000277                                 13896002  149 
   3956.307  0.0000096  0.0000284                                 13896002  150 
   3925.341  0.0000276  0.0000275                                 13896002  151 
   3894.737  0.0000186  0.0000274                                 13896002  152 
   3864.490  0.0000304  0.0000281                                 13896002  153 
   3843.526  0.0000056  0.0000391                                 13896002  154 
   3831.623  0.0000834  0.0000422                                 13896002  155 
   3819.775  0.0000457  0.0000449                                 13896002  156 
   3807.982  0.0000337  0.0000491                                 13896002  157 
   3796.244  0.0000819  0.0000428                                 13896002  158 
   3784.560  0.0000336  0.0000392                                 13896002  159 
   3772.929  0.0000752  0.0000467                                 13896002  160 
   3761.353  0.0000430  0.0000428                                 13896002  161 
   3749.829  0.0000727  0.0000458                                 13896002  162 
   3738.358  0.0000617  0.0000424                                 13896002  163 
   3726.940  0.0001459  0.0000454                                 13896002  164 
   3715.574  0.0000837  0.0000378                                 13896002  165 
   3704.260  0.0001395  0.0000481                                 13896002  166 
   3692.997  0.0000638  0.0000494                                 13896002  167 
   3681.787  0.0001007  0.0000464                                 13896002  168 
   3670.627  0.0001126  0.0000464                                 13896002  169 
   3659.517  0.0000944  0.0000464                                 13896002  170 
   3648.458  0.0001490  0.0000502                                 13896002  171 
   3637.448  0.0000792  0.0000471                                 13896002  172 
   3626.489  0.0000617  0.0000461                                 13896002  173 
   3615.579  0.0000625  0.0000412                                 13896002  174 
   3604.719  0.0000327  0.0000489                                 13896002  175 
   3593.907  0.0000458  0.0000380                                 13896002  176 
   3583.144  0.0000698  0.0000560                                 13896002  177 
   3572.428  0.0001023  0.0000435                                 13896002  178 
   3561.762  0.0000646  0.0000426                                 13896002  179 
   3551.142  0.0000681  0.0000494                                 13896002  180 
   3540.570  0.0000922  0.0000509                                 13896002  181 
   3530.045  0.0000607  0.0000490                                 13896002  182 
   3519.568  0.0000840  0.0000496                                 13896002  183 
   3501.344  0.0000027  0.0000261                                 13896002  184 
   3475.553  0.0000162  0.0000273                                 13896002  185 
   3450.047  0.0000213  0.0000291                                 13896002  186 
   3424.820  0.0000208  0.0000303                                 13896002  187 
   3399.869  0.0000090  0.0000265                                 13896002  188 
   3375.190  0.0000138  0.0000284                                 13896002  189 
   3350.778 -0.0000032  0.0000271                                 13896002  190 
   3326.631  0.0000150  0.0000278                                 13896002  191 
   3309.883  0.0000343  0.0000526                                 13896002  192 
   3300.368  0.0000093  0.0000487                                 13896002  193 
   3290.896  0.0000949  0.0000443                                 13896002  194 
   3281.464  0.0000367  0.0000547                                 13896002  195 
   3272.072  0.0001002  0.0000505                                 13896002  196 
   3262.721  0.0000820  0.0000419                                 13896002  197 
   3253.410  0.0001164  0.0000552                                 13896002  198 
   3244.138  0.0001197  0.0000472                                 13896002  199 
   3234.906  0.0002090  0.0000578                                 13896002  200 
   3225.714  0.0002155  0.0000597                                 13896002  201 
   3216.561  0.0002576  0.0000698                                 13896002  202 
   3207.446  0.0001700  0.0000508                                 13896002  203 
   3198.370  0.0002583  0.0000649                                 13896002  204 
   3189.333  0.0002581  0.0000714                                 13896002  205 
   3180.333  0.0001962  0.0000562                                 13896002  206 
   3171.372  0.0002629  0.0000658                                 13896002  207 
   3162.449  0.0002248  0.0000649                                 13896002  208 
   3153.563  0.0001118  0.0000563                                 13896002  209 
   3144.715  0.0000945  0.0000527                                 13896002  210 
   3135.904  0.0001003  0.0000435                                 13896002  211 
   3127.130  0.0000617  0.0000506                                 13896002  212 
   3118.393  0.0001992  0.0000637                                 13896002  213 
   3109.692  0.0000064  0.0000475                                 13896002  214 
   3101.028  0.0001837  0.0000603                                 13896002  215 
   3092.399  0.0001307  0.0000521                                 13896002  216 
   3083.807  0.0001942  0.0000616                                 13896002  217 
   3075.250  0.0001124  0.0000478                                 13896002  218 
   3066.729  0.0001239  0.0000587                                 13896002  219 
   3058.244  0.0001275  0.0000504                                 13896002  220 
   3049.794  0.0001180  0.0000504                                 13896002  221 
   3041.378  0.0000557  0.0000519                                 13896002  222 
   3032.997  0.0000228  0.0000555                                 13896002  223 
   3024.651  0.0001310  0.0000537                                 13896002  224 
   3016.340  0.0000392  0.0000446                                 13896002  225 
   3008.062  0.0001304  0.0000501                                 13896002  226 
   2999.819  0.0000812  0.0000486                                 13896002  227 
   2991.609  0.0000504  0.0000506                                 13896002  228 
   2982.414  0.0000555  0.0000452                                 13896002  229 
   2972.246  0.0000719  0.0000441                                 13896002  230 
   2962.130  0.0000418  0.0000528                                 13896002  231 
   2952.066  0.0000588  0.0000465                                 13896002  232 
   2942.053  0.0000850  0.0000494                                 13896002  233 
   2932.091  0.0000306  0.0000512                                 13896002  234 
   2922.179  0.0000431  0.0000474                                 13896002  235 
   2912.318  0.0000307  0.0000524                                 13896002  236 
   2902.506  0.0000525  0.0000439                                 13896002  237 
   2892.744  0.0000617  0.0000420                                 13896002  238 
   2883.031  0.0000899  0.0000427                                 13896002  239 
   2873.367  0.0000765  0.0000491                                 13896002  240 
   2863.751  0.0000801  0.0000496                                 13896002  241 
   2854.184  0.0000871  0.0000432                                 13896002  242 
   2844.665  0.0000697  0.0000414                                 13896002  243 
   2835.193  0.0000742  0.0000499                                 13896002  244 
   2825.768  0.0000042  0.0000444                                 13896002  245 
   2816.390  0.0000944  0.0000531                                 13896002  246 
   2807.059  0.0000559  0.0000435                                 13896002  247 
   2797.774  0.0000834  0.0000524                                 13896002  248 
   2783.933  0.0000230  0.0000325                                 13896002  249 
   2765.637  0.0000153  0.0000337                                 13896002  250 
   2747.521  0.0000032  0.0000338                                 13896002  251 
   2729.582 -0.0000110  0.0000305                                 13896002  252 
   2711.819  0.0000089  0.0000339                                 13896002  253 
   2694.228  0.0000174  0.0000368                                 13896002  254 
   2676.808  0.0000102  0.0000314                                 13896002  255 
   2659.556  0.0000329  0.0000339                                 13896002  256 
   2642.471  0.0000169  0.0000352                                 13896002  257 
   2625.550  0.0000041  0.0000315                                 13896002  258 
   2608.790  0.0000171  0.0000303                                 13896002  259 
   2592.191  0.0000245  0.0000351                                 13896002  260 
   2575.750  0.0000091  0.0000348                                 13896002  261 
   2559.464  0.0000136  0.0000341                                 13896002  262 
   2548.156  0.0000289  0.0000588                                 13896002  263 
   2541.728 -0.0000122  0.0000538                                 13896002  264 
   2535.324  0.0000828  0.0000475                                 13896002  265 
   2528.944  0.0000082  0.0000589                                 13896002  266 
   2522.589  0.0001143  0.0000692                                 13896002  267 
   2516.257  0.0001761  0.0000651                                 13896002  268 
   2509.949  0.0003079  0.0000798                                 13896002  269 
   2503.665  0.0002257  0.0000667                                 13896002  270 
   2497.404  0.0002360  0.0000704                                 13896002  271 
   2491.167  0.0003774  0.0000863                                 13896002  272 
   2484.953  0.0004229  0.0000893                                 13896002  273 
   2478.762  0.0005580  0.0001095                                 13896002  274 
   2472.594  0.0007533  0.0001289                                 13896002  275 
   2466.450  0.0006835  0.0001208                                 13896002  276 
   2460.329  0.0007976  0.0001268                                 13896002  277 
   2454.229  0.0006375  0.0001104                                 13896002  278 
   2448.153  0.0005445  0.0001033                                 13896002  279 
   2442.099  0.0006231  0.0001101                                 13896002  280 
   2436.068  0.0004005  0.0000866                                 13896002  281 
   2430.059  0.0004203  0.0000889                                 13896002  282 
   2424.073  0.0005038  0.0001027                                 13896002  283 
   2418.108  0.0005541  0.0001070                                 13896002  284 
   2412.165  0.0004592  0.0000953                                 13896002  285 
   2406.244  0.0006814  0.0001207                                 13896002  286 
   2400.345  0.0004318  0.0000932                                 13896002  287 
   2394.468  0.0004901  0.0001000                                 13896002  288 
   2388.613  0.0004775  0.0000997                                 13896002  289 
   2382.778  0.0003518  0.0000858                                 13896002  290 
   2376.965  0.0002992  0.0000879                                 13896002  291 
   2371.173  0.0001570  0.0000630                                 13896002  292 
   2365.403  0.0002466  0.0000677                                 13896002  293 
   2359.653  0.0001656  0.0000616                                 13896002  294 
   2353.924  0.0001946  0.0000607                                 13896002  295 
   2348.216  0.0000486  0.0000598                                 13896002  296 
   2342.530  0.0000847  0.0000693                                 13896002  297 
   2336.863  0.0001249  0.0000657                                 13896002  298 
   2331.217  0.0000630  0.0000585                                 13896002  299 
   2325.592  0.0000079  0.0000577                                 13896002  300 
   2319.986  0.0000098  0.0000622                                 13896002  301 
   2314.402 -0.0000120  0.0000528                                 13896002  302 
   2304.677  0.0000109  0.0000380                                 13896002  303 
   2290.889  0.0000120  0.0000370                                 13896002  304 
   2277.226  0.0000032  0.0000355                                 13896002  305 
   2263.684  0.0000173  0.0000356                                 13896002  306 
   2250.262  0.0000092  0.0000363                                 13896002  307 
   2236.960  0.0000105  0.0000370                                 13896002  308 
   2223.775  0.0000044  0.0000382                                 13896002  309 
   2210.707  0.0000237  0.0000384                                 13896002  310 
   2197.753  0.0000312  0.0000391                                 13896002  311 
   2184.913  0.0000118  0.0000400                                 13896002  312 
   2172.185  0.0000448  0.0000414                                 13896002  313 
   2159.568  0.0000454  0.0000399                                 13896002  314 
   2147.060  0.0000366  0.0000410                                 13896002  315 
   2134.661  0.0000485  0.0000358                                 13896002  316 
   2126.045  0.0000762  0.0000605                                 13896002  317 
   2121.146  0.0000499  0.0000739                                 13896002  318 
   2116.263  0.0000232  0.0000504                                 13896002  319 
   2111.397  0.0000459  0.0000625                                 13896002  320 
   2106.548 -0.0000131  0.0000576                                 13896002  321 
   2101.715  0.0000838  0.0000621                                 13896002  322 
   2096.899  0.0000269  0.0000611                                 13896002  323 
   2092.100  0.0000276  0.0000578                                 13896002  324 
   2087.317  0.0000657  0.0000637                                 13896002  325 
   2082.550  0.0001112  0.0000682                                 13896002  326 
   2077.800  0.0001467  0.0000751                                 13896002  327 
   2073.066  0.0000700  0.0000676                                 13896002  328 
   2068.348  0.0000523  0.0000791                                 13896002  329 
   2063.646  0.0001724  0.0000666                                 13896002  330 
   2058.960  0.0000856  0.0000671                                 13896002  331 
   2054.290  0.0000466  0.0000590                                 13896002  332 
   2049.636  0.0000442  0.0000587                                 13896002  333 
   2044.998 -0.0000130  0.0000570                                 13896002  334 
   2040.376  0.0001044  0.0000648                                 13896002  335 
   2035.769  0.0001082  0.0000683                                 13896002  336 
   2031.178  0.0000329  0.0000575                                 13896002  337 
   2026.602  0.0000067  0.0000619                                 13896002  338 
   2022.042  0.0000071  0.0000601                                 13896002  339 
   2017.497 -0.0000119  0.0000523                                 13896002  340 
   2012.967  0.0000647  0.0000526                                 13896002  341 
   2008.453  0.0000074  0.0000609                                 13896002  342 
   2003.954  0.0001723  0.0000693                                 13896002  343 
   1999.469  0.0001556  0.0000642                                 13896002  344 
   1995.001  0.0000815  0.0000653                                 13896002  345 
   1990.546  0.0000432  0.0000597                                 13896002  346 
   1986.107  0.0001532  0.0000562                                 13896002  347 
   1981.683  0.0001866  0.0000703                                 13896002  348 
   1977.273  0.0001073  0.0000547                                 13896002  349 
   1972.878  0.0002242  0.0000800                                 13896002  350 
   1968.499  0.0002452  0.0000758                                 13896002  351 
   1964.133  0.0002460  0.0000730                                 13896002  352 
   1959.782  0.0002096  0.0000724                                 13896002  353 
   1955.445  0.0002459  0.0000711                                 13896002  354 
   1951.123  0.0002080  0.0000650                                 13896002  355 
   1946.814  0.0000886  0.0000730                                 13896002  356 
   1942.521  0.0001874  0.0000747                                 13896002  357 
   1938.241  0.0001233  0.0000829                                 13896002  358 
   1933.976  0.0000695  0.0000556                                 13896002  359 
   1929.724  0.0002949  0.0000790                                 13896002  360 
   1925.487  0.0001751  0.0000700                                 13896002  361 
   1921.264  0.0001632  0.0000695                                 13896002  362 
   1917.054  0.0000693  0.0000721                                 13896002  363 
   1912.858  0.0001061  0.0000636                                 13896002  364 
   1908.677  0.0000753  0.0000691                                 13896002  365 
   1904.508  0.0001631  0.0000816                                 13896002  366 
   1900.354  0.0000683  0.0000779                                 13896002  367 
   1896.213  0.0001529  0.0000883                                 13896002  368 
   1892.085  0.0001388  0.0000734                                 13896002  369 
   1887.971  0.0000702  0.0000691                                 13896002  370 
   1883.870  0.0000868  0.0000599                                 13896002  371 
   1879.783  0.0000458  0.0000693                                 13896002  372 
   1875.708  0.0000057  0.0000658                                 13896002  373 
   1871.648  0.0001283  0.0000594                                 13896002  374 
   1867.600  0.0000097  0.0000687                                 13896002  375 
   1863.566  0.0000310  0.0000611                                 13896002  376 
   1859.544  0.0000284  0.0000720                                 13896002  377 
   1855.536  0.0000467  0.0000618                                 13896002  378 
   1851.540  0.0000494  0.0000656                                 13896002  379 
   1847.558  0.0000731  0.0000708                                 13896002  380 
   1843.588 -0.0000118  0.0000520                                 13896002  381 
   1839.631 -0.0000133  0.0000587                                 13896002  382 
   1835.687  0.0000092  0.0000684                                 13896002  383 
   1831.755  0.0000067  0.0000642                                 13896002  384 
   1827.836  0.0000491  0.0000632                                 13896002  385 
   1823.930  0.0000095  0.0000696                                 13896002  386 
   1820.036  0.0001392  0.0000630                                 13896002  387 
   1816.154  0.0000288  0.0000717                                 13896002  388 
   1809.391  0.0000201  0.0000420                                 13896002  389 
   1799.796  0.0000207  0.0000447                                 13896002  390 
   1790.276  0.0000127  0.0000432                                 13896002  391 
   1780.832  0.0000213  0.0000440                                 13896002  392 
   1771.462 -0.0000132  0.0000368                                 13896002  393 
   1762.166  0.0000050  0.0000427                                 13896002  394 
   1752.943  0.0000222  0.0000417                                 13896002  395 
   1743.792  0.0000049  0.0000440                                 13896002  396 
   1734.713  0.0000050  0.0000439                                 13896002  397 
   1725.704  0.0000371  0.0000447                                 13896002  398 
   1716.766  0.0000243  0.0000421                                 13896002  399 
   1707.897  0.0000384  0.0000427                                 13896002  400 
   1699.096  0.0000110  0.0000414                                 13896002  401 
   1690.363  0.0000139  0.0000430                                 13896002  402 
   1681.697  0.0000222  0.0000464                                 13896002  403 
   1673.098  0.0000428  0.0000430                                 13896002  404 
   1664.564  0.0000240  0.0000450                                 13896002  405 
   1656.096  0.0000410  0.0000482                                 13896002  406 
   1647.692  0.0000128  0.0000425                                 13896002  407 
   1639.352  0.0000121  0.0000443                                 13896002  408 
   1631.075  0.0000347  0.0000456                                 13896002  409 
   1622.861 -0.0000062  0.0000442                                 13896002  410 
   1614.708  0.0000118  0.0000421                                 13896002  411 
   1606.617  0.0000034  0.0000419                                 13896002  412 
   1598.586  0.0000041  0.0000444                                 13896002  413 
   1590.616  0.0000019  0.0000399                                 13896002  414 
   1582.705  0.0000142  0.0000467                                 13896002  415 
   1574.852 -0.0000053  0.0000425                                 13896002  416 
   1567.058  0.0000127  0.0000448                                 13896002  417 
   1559.322 -0.0000145  0.0000403                                 13896002  418 
   1551.643  0.0000046  0.0000434                                 13896002  419 
   1544.021  0.0000029  0.0000438                                 13896002  420 
   1536.454  0.0000127  0.0000465                                 13896002  421 
   1530.816  0.0000363  0.0000646                                 13896002  422 
   1527.074  0.0000443  0.0000625                                 13896002  423 
   1523.346  0.0000754  0.0000612                                 13896002  424 
   1519.632  0.0000613  0.0000680                                 13896002  425 
   1515.931  0.0000614  0.0000686                                 13896002  426 
   1512.244  0.0001992  0.0000672                                 13896002  427 
   1508.570  0.0001315  0.0000793                                 13896002  428 
   1504.910  0.0000973  0.0000695                                 13896002  429 
   1501.262  0.0000479  0.0000819                                 13896002  430 
   1497.628  0.0000431  0.0000750                                 13896002  431 
   1494.008  0.0001373  0.0000761                                 13896002  432 
   1490.400  0.0001363  0.0000807                                 13896002  433 
   1486.805  0.0001432  0.0000782                                 13896002  434 
   1483.224  0.0001250  0.0000799                                 13896002  435 
   1479.655  0.0000242  0.0000714                                 13896002  436 
   1476.100  0.0001106  0.0000702                                 13896002  437 
   1472.557  0.0000806  0.0000674                                 13896002  438 
   1469.026 -0.0000154  0.0000608                                 13896002  439 
   1465.509  0.0000859  0.0000637                                 13896002  440 
   1462.004  0.0000973  0.0000730                                 13896002  441 
   1458.511  0.0000045  0.0000638                                 13896002  442 
   1455.031  0.0000207  0.0000719                                 13896002  443 
   1451.564  0.0000113  0.0000688                                 13896002  444 
   1446.386  0.0000032  0.0000460                                 13896002  445 
   1439.525  0.0000162  0.0000540                                 13896002  446 
   1432.713  0.0000059  0.0000531                                 13896002  447 
   1425.948  0.0000029  0.0000540                                 13896002  448 
   1419.232  0.0000034  0.0000459                                 13896002  449 
   1412.563  0.0000277  0.0000541                                 13896002  450 
   1405.941  0.0000043  0.0000488                                 13896002  451 
   1401.005  0.0000391  0.0000725                                 13896002  452 
   1397.729  0.0000475  0.0000723                                 13896002  453 
   1394.464  0.0001071  0.0000743                                 13896002  454 
   1391.211  0.0000483  0.0000690                                 13896002  455 
   1387.969  0.0000632  0.0000676                                 13896002  456 
   1384.738  0.0000228  0.0000637                                 13896002  457 
   1381.519  0.0000660  0.0000743                                 13896002  458 
   1378.311  0.0000050  0.0000679                                 13896002  459 
   1375.114  0.0000275  0.0000793                                 13896002  460 
   1371.928  0.0000844  0.0000782                                 13896002  461 
   1368.753 -0.0000167  0.0000659                                 13896002  462 
   1365.589  0.0000241  0.0000711                                 13896002  463 
   1362.436  0.0000394  0.0000642                                 13896002  464 
   1359.294  0.0000273  0.0000740                                 13896002  465 
   1356.163  0.0000720  0.0000686                                 13896002  466 
   1353.043  0.0000475  0.0000820                                 13896002  467 
   1349.933  0.0000923  0.0000844                                 13896002  468 
   1346.834  0.0000240  0.0000735                                 13896002  469 
   1343.746  0.0000494  0.0000749                                 13896002  470 
   1340.668  0.0000660  0.0000740                                 13896002  471 
   1337.602  0.0000829  0.0000750                                 13896002  472 
   1334.545  0.0000679  0.0000853                                 13896002  473 
   1331.499  0.0000070  0.0000704                                 13896002  474 
   1328.463  0.0000270  0.0000760                                 13896002  475 
   1325.438  0.0000255  0.0000783                                 13896002  476 
   1322.423  0.0000045  0.0000712                                 13896002  477 
   1319.419 -0.0000158  0.0000621                                 13896002  478 
   1316.424  0.0000393  0.0000652                                 13896002  479 
   1311.952  0.0000293  0.0000557                                 13896002  480 
   1306.024  0.0000249  0.0000531                                 13896002  481 
   1300.136  0.0000346  0.0000550                                 13896002  482 
   1294.287 -0.0000169  0.0000471                                 13896002  483 
   1288.478 -0.0000068  0.0000478                                 13896002  484 
   1282.708  0.0000049  0.0000500                                 13896002  485 
   1276.977  0.0000017  0.0000503                                 13896002  486 
   1271.285 -0.0000067  0.0000497                                 13896002  487 
   1265.630  0.0000119  0.0000499                                 13896002  488 
   1260.012  0.0000375  0.0000560                                 13896002  489 
   1254.433  0.0000518  0.0000582                                 13896002  490 
   1248.890  0.0000040  0.0000567                                 13896002  491 
   1243.383  0.0000164  0.0000538                                 13896002  492 
   1237.913  0.0000164  0.0000542                                 13896002  493 
   1232.479  0.0000139  0.0000509                                 13896002  494 
   1227.081  0.0000251  0.0000558                                 13896002  495 
   1221.719  0.0000029  0.0000491                                 13896002  496 
   1216.391  0.0000152  0.0000507                                 13896002  497 
   1211.098  0.0000047  0.0000516                                 13896002  498 
   1205.839  0.0000151  0.0000530                                 13896002  499 
   1200.615  0.0000408  0.0000527                                 13896002  500 
   1195.425  0.0000605  0.0000528                                 13896002  501 
   1190.268  0.0000681  0.0000551                                 13896002  502 
   1186.678  0.0000676  0.0001030                                 13896002  503 
   1184.633  0.0000591  0.0000781                                 13896002  504 
   1182.595  0.0001216  0.0000863                                 13896002  505 
   1180.561  0.0001178  0.0000801                                 13896002  506 
   1178.533  0.0000438  0.0000921                                 13896002  507 
   1176.510  0.0000931  0.0000791                                 13896002  508 
   1174.492  0.0003024  0.0001158                                 13896002  509 
   1172.479  0.0002822  0.0001013                                 13896002  510 
   1170.472  0.0003694  0.0001056                                 13896002  511 
   1168.469  0.0004904  0.0001164                                 13896002  512 
   1166.472  0.0003235  0.0000945                                 13896002  513 
   1164.480  0.0004007  0.0001163                                 13896002  514 
   1162.492  0.0008198  0.0001632                                 13896002  515 
   1160.510  0.0008773  0.0001678                                 13896002  516 
   1158.533  0.0011356  0.0001909                                 13896002  517 
   1156.562  0.0012620  0.0001933                                 13896002  518 
   1154.595  0.0012243  0.0001960                                 13896002  519 
   1152.633  0.0011236  0.0001941                                 13896002  520 
   1150.676  0.0013500  0.0002099                                 13896002  521 
   1148.725  0.0009313  0.0001691                                 13896002  522 
   1146.777  0.0009866  0.0001691                                 13896002  523 
   1144.836  0.0013591  0.0002201                                 13896002  524 
   1142.898  0.0009724  0.0001726                                 13896002  525 
   1140.966  0.0011345  0.0002015                                 13896002  526 
   1139.039  0.0010924  0.0001876                                 13896002  527 
   1137.117  0.0012811  0.0002145                                 13896002  528 
   1135.200  0.0009716  0.0001871                                 13896002  529 
   1133.287  0.0008601  0.0001615                                 13896002  530 
   1131.379  0.0009153  0.0001804                                 13896002  531 
   1129.476  0.0009415  0.0001735                                 13896002  532 
   1127.578  0.0007003  0.0001480                                 13896002  533 
   1125.685  0.0002285  0.0001083                                 13896002  534 
   1123.796  0.0006212  0.0001532                                 13896002  535 
   1121.912  0.0005892  0.0001499                                 13896002  536 
   1120.033  0.0005793  0.0001507                                 13896002  537 
   1118.158  0.0005365  0.0001349                                 13896002  538 
   1116.289  0.0002982  0.0001113                                 13896002  539 
   1114.423  0.0002504  0.0001157                                 13896002  540 
   1112.563  0.0001349  0.0001116                                 13896002  541 
   1110.708  0.0000419  0.0000984                                 13896002  542 
   1108.856  0.0000113  0.0000928                                 13896002  543 
   1107.010  0.0000477  0.0001099                                 13896002  544 
   1103.790  0.0000460  0.0000717                                 13896002  545 
   1099.214  0.0000278  0.0000584                                 13896002  546 
   1094.666  0.0000058  0.0000597                                 13896002  547 
   1090.146 -0.0000078  0.0000574                                 13896002  548 
   1085.655  0.0000254  0.0000559                                 13896002  549 
   1081.191  0.0000292  0.0000563                                 13896002  550 
   1076.755  0.0000457  0.0000598                                 13896002  551 
   1072.346  0.0000063  0.0000596                                 13896002  552 
   1067.964 -0.0000071  0.0000547                                 13896002  553 
   1063.609  0.0000056  0.0000583                                 13896002  554 
   1059.280 -0.0000192  0.0000535                                 13896002  555 
   1054.977  0.0000291  0.0000604                                 13896002  556 
   1050.701  0.0000058  0.0000580                                 13896002  557 
   1046.451  0.0000294  0.0000576                                 13896002  558 
   1042.227  0.0000314  0.0000618                                 13896002  559 
   1038.028 -0.0000073  0.0000571                                 13896002  560 
   1033.854 -0.0000189  0.0000527                                 13896002  561 
   1029.705  0.0000063  0.0000568                                 13896002  562 
   1025.582  0.0000060  0.0000564                                 13896002  563 
   1021.483  0.0000496  0.0000597                                 13896002  564 
   1017.409  0.0000564  0.0000589                                 13896002  565 
   1013.359  0.0000632  0.0000578                                 13896002  566 
   1009.333  0.0000419  0.0000532                                 13896002  567 
   1006.529 -0.0000199  0.0000873                                 13896002  568 
   1004.932  0.0000462  0.0000957                                 13896002  569 
   1003.339  0.0000792  0.0001002                                 13896002  570 
   1001.750  0.0001682  0.0001111                                 13896002  571 
   1000.164  0.0002149  0.0000922                                 13896002  572 
    998.582  0.0001878  0.0000831                                 13896002  573 
    997.004  0.0003015  0.0001100                                 13896002  574 
    995.430  0.0002245  0.0001106                                 13896002  575 
    993.859  0.0003347  0.0001171                                 13896002  576 
    992.292  0.0008598  0.0001801                                 13896002  577 
    990.729  0.0005268  0.0001318                                 13896002  578 
    989.170  0.0004468  0.0001238                                 13896002  579 
    987.614  0.0007593  0.0001658                                 13896002  580 
    986.062  0.0008420  0.0001652                                 13896002  581 
    984.513  0.0007398  0.0001574                                 13896002  582 
    982.968  0.0006139  0.0001454                                 13896002  583 
    981.427  0.0009108  0.0001738                                 13896002  584 
    979.889  0.0005939  0.0001362                                 13896002  585 
    978.355  0.0005886  0.0001359                                 13896002  586 
    976.825  0.0006723  0.0001491                                 13896002  587 
    975.298  0.0003261  0.0001250                                 13896002  588 
    973.775  0.0005570  0.0001323                                 13896002  589 
    972.255  0.0003846  0.0001217                                 13896002  590 
    970.739  0.0006087  0.0001451                                 13896002  591 
    969.226  0.0001920  0.0001018                                 13896002  592 
    967.718  0.0004950  0.0001239                                 13896002  593 
    966.212  0.0004332  0.0001255                                 13896002  594 
    964.710  0.0003683  0.0001137                                 13896002  595 
    963.211  0.0002662  0.0001170                                 13896002  596 
    961.716  0.0001578  0.0001032                                 13896002  597 
    960.225  0.0001386  0.0001161                                 13896002  598 
    958.737  0.0000765  0.0001125                                 13896002  599 
    957.252  0.0001337  0.0000960                                 13896002  600 
    955.771  0.0001350  0.0000913                                 13896002  601 
    954.293  0.0000723  0.0001041                                 13896002  602 
    952.819  0.0000102  0.0000949                                 13896002  603 
    951.348 -0.0000189  0.0000833                                 13896002  604 
    949.514  0.0000664  0.0000816                                 13896002  605 
    947.321  0.0000216  0.0000846                                 13896002  606 
    945.135  0.0000431  0.0000873                                 13896002  607 
    942.956  0.0000018  0.0000778                                 13896002  608 
    940.785  0.0000477  0.0000907                                 13896002  609 
    938.622  0.0000714  0.0000827                                 13896002  610 
    936.466  0.0000247  0.0000858                                 13896002  611 
    934.317  0.0000229  0.0000763                                 13896002  612 
    932.176  0.0000029  0.0000806                                 13896002  613 
    930.042 -0.0000003  0.0000816                                 13896002  614 
    927.916  0.0000728  0.0000775                                 13896002  615 
    925.796  0.0000819  0.0000890                                 13896002  616 
    923.684  0.0000268  0.0000797                                 13896002  617 
    921.580  0.0000491  0.0000904                                 13896002  618 
    919.831  0.0000586  0.0001017                                 13896002  619 
    918.436  0.0000505  0.0001208                                 13896002  620 
    917.044  0.0001828  0.0000921                                 13896002  621 
    915.655  0.0003959  0.0001346                                 13896002  622 
    914.269  0.0003295  0.0001201                                 13896002  623 
    912.887  0.0004481  0.0001306                                 13896002  624 
    911.507  0.0003233  0.0001192                                 13896002  625 
    910.131  0.0004743  0.0001272                                 13896002  626 
    908.758  0.0004772  0.0001429                                 13896002  627 
    907.388  0.0005967  0.0001590                                 13896002  628 
    906.021  0.0008104  0.0001719                                 13896002  629 
    904.657  0.0006530  0.0001514                                 13896002  630 
    903.296  0.0007161  0.0001602                                 13896002  631 
    901.938  0.0006363  0.0001433                                 13896002  632 
    900.583  0.0007852  0.0001662                                 13896002  633 
    899.232  0.0005788  0.0001338                                 13896002  634 
    897.883  0.0010721  0.0001954                                 13896002  635 
    896.538  0.0005034  0.0001343                                 13896002  636 
    895.195  0.0006045  0.0001477                                 13896002  637 
    893.855  0.0007006  0.0001585                                 13896002  638 
    892.519  0.0006601  0.0001533                                 13896002  639 
    891.185  0.0005768  0.0001451                                 13896002  640 
    889.855  0.0005979  0.0001456                                 13896002  641 
    888.527  0.0004980  0.0001286                                 13896002  642 
    887.203  0.0005473  0.0001335                                 13896002  643 
    885.881  0.0004557  0.0001260                                 13896002  644 
    884.562  0.0004626  0.0001237                                 13896002  645 
    883.246  0.0004710  0.0001259                                 13896002  646 
    881.934  0.0001268  0.0001199                                 13896002  647 
    880.624  0.0001894  0.0001239                                 13896002  648 
    879.317  0.0001260  0.0001183                                 13896002  649 
    878.013  0.0001685  0.0001328                                 13896002  650 
    876.711  0.0001527  0.0001041                                 13896002  651 
    875.413  0.0001324  0.0001232                                 13896002  652 
    874.118  0.0000869  0.0001323                                 13896002  653 
    872.825 -0.0000224  0.0000985                                 13896002  654 
    871.536  0.0000111  0.0000963                                 13896002  655 
    869.286  0.0000328  0.0000703                                 13896002  656 
    866.086  0.0000081  0.0000707                                 13896002  657 
    862.905 -0.0000229  0.0000640                                 13896002  658 
    859.740  0.0000032  0.0000621                                 13896002  659 
    856.594 -0.0000226  0.0000630                                 13896002  660 
    853.464  0.0000201  0.0000689                                 13896002  661 
    850.352  0.0000055  0.0000681                                 13896002  662 
    847.256 -0.0000072  0.0000655                                 13896002  663 
    844.178 -0.0000077  0.0000636                                 13896002  664 
    841.116  0.0000048  0.0000665                                 13896002  665 
    838.071  0.0000214  0.0000718                                 13896002  666 
    835.042  0.0000185  0.0000637                                 13896002  667 
    832.030  0.0000065  0.0000681                                 13896002  668 
    829.034 -0.0000106  0.0000645                                 13896002  669 
    826.054  0.0000071  0.0000632                                 13896002  670 
    823.090  0.0000191  0.0000695                                 13896002  671 
    820.142  0.0000667  0.0000690                                 13896002  672 
    817.210 -0.0000102  0.0000684                                 13896002  673 
    814.294  0.0000320  0.0000697                                 13896002  674 
    811.393  0.0000202  0.0000705                                 13896002  675 
    808.508 -0.0000220  0.0000614                                 13896002  676 
    805.638 -0.0000217  0.0000604                                 13896002  677 
    802.783 -0.0000091  0.0000666                                 13896002  678 
    799.943  0.0000191  0.0000676                                 13896002  679 
    797.119  0.0000064  0.0000683                                 13896002  680 
    794.309 -0.0000225  0.0000626                                 13896002  681 
    791.514  0.0000332  0.0000689                                 13896002  682 
    788.734  0.0000052  0.0000737                                 13896002  683 
    785.969  0.0000087  0.0000683                                 13896002  684 
    783.218  0.0000058  0.0000715                                 13896002  685 
    780.482  0.0000191  0.0000694                                 13896002  686 
    777.759  0.0000086  0.0000712                                 13896002  687 
    775.051  0.0000049  0.0000682                                 13896002  688 
    772.357  0.0000200  0.0000671                                 13896002  689 
    769.678 -0.0000088  0.0000677                                 13896002  690 
    767.012  0.0000070  0.0000707                                 13896002  691 
    764.360  0.0000202  0.0000736                                 13896002  692 
    761.721 -0.0000098  0.0000679                                 13896002  693 
    759.097  0.0000083  0.0000778                                 13896002  694 
    756.485  0.0000341  0.0000756                                 13896002  695 
    753.888 -0.0000086  0.0000738                                 13896002  696 
    751.303  0.0000227  0.0000775                                 13896002  697 
    748.732  0.0000057  0.0000760                                 13896002  698 
    746.174  0.0000218  0.0000741                                 13896002  699 
    743.630  0.0000415  0.0000793                                 13896002  700 
    741.098  0.0000221  0.0000781                                 13896002  701 
    738.579  0.0000254  0.0000813                                 13896002  702 
    736.073  0.0000408  0.0000818                                 13896002  703 
    733.579  0.0000180  0.0000726                                 13896002  704 
    731.099 -0.0000228  0.0000638                                 13896002  705 
    728.630  0.0000062  0.0000736                                 13896002  706 
    726.175  0.0000226  0.0000754                                 13896002  707 
    723.732 -0.0000097  0.0000715                                 13896002  708 
    721.301  0.0000064  0.0000707                                 13896002  709 
    718.882  0.0000081  0.0000752                                 13896002  710 
    716.475  0.0000663  0.0000746                                 13896002  711 
    714.081  0.0000856  0.0000743                                 13896002  712 
    711.698  0.0000246  0.0000748                                 13896002  713 
    709.328  0.0000241  0.0000683                                 13896002  714 
    706.969  0.0000454  0.0000711                                 13896002  715 
    704.622  0.0000869  0.0000732                                 13896002  716 
    702.286  0.0000613  0.0000798                                 13896002  717 
    699.962  0.0000470  0.0000681                                 13896002  718 
    697.650  0.0001041  0.0000684                                 13896002  719 
    695.349  0.0000246  0.0000690                                 13896002  720 
    693.060  0.0000052  0.0000791                                 13896002  721 
    690.781 -0.0000096  0.0000715                                 13896002  722 
    688.514  0.0000083  0.0000780                                 13896002  723 
    686.259 -0.0000093  0.0000716                                 13896002  724 
    684.014  0.0000221  0.0000792                                 13896002  725 
    681.780 -0.0000101  0.0000718                                 13896002  726 
    679.557  0.0000069  0.0000779                                 13896002  727 
    677.345  0.0000539  0.0000783                                 13896002  728 
    675.144 -0.0000107  0.0000784                                 13896002  729 
    672.953 -0.0000081  0.0000747                                 13896002  730 
    670.774 -0.0000098  0.0000787                                 13896002  731 
    668.604  0.0000242  0.0000850                                 13896002  732 
    666.445 -0.0000263  0.0000733                                 13896002  733 
    664.297  0.0000234  0.0000788                                 13896002  734 
    662.159 -0.0000118  0.0000747                                 13896002  735 
    660.031 -0.0000246  0.0000686                                 13896002  736 
    657.914  0.0000085  0.0000757                                 13896002  737 
    655.807  0.0000532  0.0000781                                 13896002  738 
    653.710 -0.0000249  0.0000695                                 13896002  739 
    651.622  0.0000255  0.0000815                                 13896002  740 
    649.545  0.0000216  0.0000763                                 13896002  741 
    647.478 -0.0000255  0.0000710                                 13896002  742 
    645.421 -0.0000073  0.0000745                                 13896002  743 
    643.373 -0.0000254  0.0000709                                 13896002  744 
    641.335 -0.0000095  0.0000772                                 13896002  745 
    639.307  0.0000079  0.0000800                                 13896002  746 
    637.289 -0.0000273  0.0000759                                 13896002  747 
    635.280  0.0000131  0.0000747                                 13896002  748 
    633.280  0.0000066  0.0000776                                 13896002  749 
    631.290  0.0000570  0.0000888                                 13896002  750 
    629.309  0.0000408  0.0000836                                 13896002  751 
    627.338 -0.0000272  0.0000759                                 13896002  752 
    625.375  0.0000057  0.0000773                                 13896002  753 
    623.423 -0.0000107  0.0000813                                 13896002  754 
    621.479  0.0000238  0.0000841                                 13896002  755 
    619.544  0.0000555  0.0000804                                 13896002  756 
    617.618  0.0000061  0.0000800                                 13896002  757 
    615.701  0.0000073  0.0000750                                 13896002  758 
    613.793  0.0000270  0.0000864                                 13896002  759 
    611.894  0.0000038  0.0000771                                 13896002  760 
    610.004 -0.0000086  0.0000727                                 13896002  761 
    608.123 -0.0000103  0.0000798                                 13896002  762 
    606.250 -0.0000084  0.0000778                                 13896002  763 
    604.386 -0.0000097  0.0000737                                 13896002  764 
    602.530  0.0000279  0.0000785                                 13896002  765 
    600.683  0.0000208  0.0000798                                 13896002  766 
    598.844 -0.0000092  0.0000737                                 13896002  767 
    597.014  0.0000220  0.0000823                                 13896002  768 
    595.193 -0.0000078  0.0000801                                 13896002  769 
    593.379 -0.0000099  0.0000776                                 13896002  770 
    591.574 -0.0000264  0.0000736                                 13896002  771 
    589.777  0.0000030  0.0000807                                 13896002  772 
    587.988  0.0000286  0.0000858                                 13896002  773 
    586.208  0.0000591  0.0000865                                 13896002  774 
    584.435  0.0000554  0.0000794                                 13896002  775 
    582.671 -0.0000101  0.0000787                                 13896002  776 
    580.914  0.0000436  0.0000880                                 13896002  777 
    579.165 -0.0000275  0.0000767                                 13896002  778 
    577.425 -0.0000283  0.0000788                                 13896002  779 
    575.692 -0.0000103  0.0000788                                 13896002  780 
    573.967 -0.0000268  0.0000746                                 13896002  781 
    572.249  0.0000191  0.0000810                                 13896002  782 
    570.540  0.0000099  0.0000750                                 13896002  783 
    568.837 -0.0000101  0.0000810                                 13896002  784 
    567.143  0.0000054  0.0000817                                 13896002  785 
    565.877  0.0000089  0.0001134                                 13896002  786 
    565.036  0.0000446  0.0001294                                 13896002  787 
    564.196  0.0000831  0.0001183                                 13896002  788 
    563.358  0.0001048  0.0001039                                 13896002  789 
    562.522  0.0001829  0.0001243                                 13896002  790 
    561.688  0.0002978  0.0001317                                 13896002  791 
    560.856  0.0001069  0.0001162                                 13896002  792 
    560.026  0.0004987  0.0001475                                 13896002  793 
    559.197  0.0002416  0.0001189                                 13896002  794 
    558.370  0.0003117  0.0001385                                 13896002  795 
    557.546  0.0005693  0.0001549                                 13896002  796 
    556.723  0.0005201  0.0001473                                 13896002  797 
    555.901  0.0006180  0.0001519                                 13896002  798 
    555.082  0.0007180  0.0001692                                 13896002  799 
    554.264  0.0004164  0.0001399                                 13896002  800 
    553.448  0.0005426  0.0001769                                 13896002  801 
    552.634  0.0007171  0.0001628                                 13896002  802 
    551.822  0.0004887  0.0001626                                 13896002  803 
    551.012  0.0003765  0.0001415                                 13896002  804 
    550.203  0.0004533  0.0001579                                 13896002  805 
    549.396  0.0003029  0.0001515                                 13896002  806 
    548.591  0.0002844  0.0001297                                 13896002  807 
    547.788  0.0001598  0.0001420                                 13896002  808 
    546.987  0.0002655  0.0001447                                 13896002  809 
    546.187  0.0001897  0.0001259                                 13896002  810 
    545.389  0.0002155  0.0001372                                 13896002  811 
    544.593  0.0001111  0.0001439                                 13896002  812 
    543.798  0.0000408  0.0001282                                 13896002  813 
    543.005  0.0001184  0.0001290                                 13896002  814 
    542.214 -0.0000269  0.0001058                                 13896002  815 
    541.425  0.0000115  0.0001231                                 13896002  816 
    540.244  0.0000065  0.0000849                                 13896002  817 
    538.676  0.0000277  0.0000935                                 13896002  818 
    537.114 -0.0000267  0.0000741                                 13896002  819 
    535.559  0.0000461  0.0000973                                 13896002  820 
    534.011  0.0000069  0.0000907                                 13896002  821 
    532.470 -0.0000094  0.0000881                                 13896002  822 
    530.935 -0.0000108  0.0000818                                 13896002  823 
    529.407  0.0000094  0.0000892                                 13896002  824 
    527.886 -0.0000309  0.0000863                                 13896002  825 
    526.371 -0.0000307  0.0000855                                 13896002  826 
    524.863  0.0000082  0.0000937                                 13896002  827 
    523.361  0.0000273  0.0000920                                 13896002  828 
    521.865  0.0000684  0.0000961                                 13896002  829 
    520.376 -0.0000311  0.0000867                                 13896002  830 
    518.893  0.0000093  0.0000867                                 13896002  831 
    517.417 -0.0000117  0.0000811                                 13896002  832 
    515.947  0.0000306  0.0000845                                 13896002  833 
    514.483 -0.0000133  0.0000822                                 13896002  834 
    513.025  0.0000333  0.0000986                                 13896002  835 
    511.574  0.0000249  0.0000893                                 13896002  836 
    510.129  0.0000051  0.0000898                                 13896002  837 
    508.690  0.0000574  0.0000922                                 13896002  838 
    507.256  0.0000268  0.0000921                                 13896002  839 
    505.829 -0.0000131  0.0000866                                 13896002  840 
    504.408  0.0000068  0.0000863                                 13896002  841 
    502.993 -0.0000308  0.0000857                                 13896002  842 
    501.584  0.0000282  0.0000957                                 13896002  843 
    500.181  0.0000073  0.0000886                                 13896002  844 
    498.784 -0.0000121  0.0000847                                 13896002  845 
    497.392  0.0000434  0.0000975                                 13896002  846 
    496.007  0.0000069  0.0000919                                 13896002  847 
    494.627 -0.0000104  0.0000909                                 13896002  848 
    493.253  0.0000274  0.0000968                                 13896002  849 
    491.884  0.0000070  0.0000925                                 13896002  850 
    490.522  0.0000276  0.0000863                                 13896002  851 
    489.165 -0.0000304  0.0000848                                 13896002  852 
    487.813  0.0000044  0.0000809                                 13896002  853 
    486.467 -0.0000111  0.0000906                                 13896002  854 
    485.127  0.0000261  0.0000902                                 13896002  855 
    483.792  0.0000295  0.0000994                                 13896002  856 
    482.463  0.0000635  0.0000947                                 13896002  857 
    481.139  0.0000264  0.0000999                                 13896002  858 
    479.821  0.0000803  0.0000960                                 13896002  859 
    478.508  0.0000870  0.0000963                                 13896002  860 
    477.592  0.0000171  0.0001488                                 13896002  861 
    477.070  0.0001764  0.0002018                                 13896002  862 
    476.549  0.0001660  0.0001448                                 13896002  863 
    476.028  0.0000601  0.0001449                                 13896002  864 
    475.509  0.0000159  0.0001586                                 13896002  865 
    474.990  0.0001639  0.0001581                                 13896002  866 
    474.472  0.0002199  0.0001569                                 13896002  867 
    473.955  0.0001601  0.0001830                                 13896002  868 
    473.439  0.0003714  0.0001385                                 13896002  869 
    472.924  0.0002015  0.0001504                                 13896002  870 
    472.409  0.0003602  0.0001528                                 13896002  871 
    471.895  0.0004526  0.0001670                                 13896002  872 
    471.382  0.0003632  0.0001829                                 13896002  873 
    470.870  0.0002234  0.0001589                                 13896002  874 
    470.359  0.0005724  0.0001927                                 13896002  875 
    469.849  0.0004451  0.0002037                                 13896002  876 
    469.339  0.0007301  0.0001965                                 13896002  877 
    468.831  0.0003640  0.0001731                                 13896002  878 
    468.323  0.0006232  0.0001737                                 13896002  879 
    467.816  0.0002617  0.0001597                                 13896002  880 
    467.310  0.0007453  0.0001947                                 13896002  881 
    466.804  0.0006042  0.0001934                                 13896002  882 
    466.300  0.0005285  0.0001671                                 13896002  883 
    465.796  0.0003752  0.0001562                                 13896002  884 
    465.293  0.0002081  0.0001508                                 13896002  885 
    464.791  0.0005060  0.0001793                                 13896002  886 
    464.290  0.0001732  0.0001600                                 13896002  887 
    463.789  0.0000126  0.0001546                                 13896002  888 
    463.289  0.0001796  0.0001395                                 13896002  889 
    462.790 -0.0000305  0.0001340                                 13896002  890 
    462.292  0.0000991  0.0001575                                 13896002  891 
    461.795  0.0002673  0.0001643                                 13896002  892 
    461.299  0.0001217  0.0001603                                 13896002  893 
    460.803  0.0000119  0.0001434                                 13896002  894 
    460.308  0.0000694  0.0001740                                 13896002  895 
    459.814  0.0000152  0.0001592                                 13896002  896 
    459.321  0.0001576  0.0001602                                 13896002  897 
    458.459  0.0000071  0.0000893                                 13896002  898 
    457.233  0.0000310  0.0000957                                 13896002  899 
    456.012  0.0000103  0.0001009                                 13896002  900 
    454.795  0.0000274  0.0000947                                 13896002  901 
    453.584 -0.0000136  0.0000971                                 13896002  902 
    452.377 -0.0000109  0.0000934                                 13896002  903 
    451.175 -0.0000101  0.0001013                                 13896002  904 
    449.978  0.0000460  0.0000905                                 13896002  905 
    448.785  0.0000516  0.0001081                                 13896002  906 
    447.598 -0.0000101  0.0000974                                 13896002  907 
    446.415  0.0000084  0.0001026                                 13896002  908 
    445.236  0.0000299  0.0000942                                 13896002  909 
    444.063  0.0000089  0.0000956                                 13896002  910 
    442.894 -0.0000122  0.0000993                                 13896002  911 
    441.729 -0.0000334  0.0000928                                 13896002  912 
    440.570 -0.0000126  0.0000929                                 13896002  913 
    439.414  0.0000082  0.0001082                                 13896002  914 
    438.264 -0.0000114  0.0000995                                 13896002  915 
    437.117  0.0000304  0.0001017                                 13896002  916 
    435.976 -0.0000325  0.0000905                                 13896002  917 
    434.838  0.0000081  0.0001033                                 13896002  918 
    433.706 -0.0000334  0.0000928                                 13896002  919 
    432.577  0.0000266  0.0001017                                 13896002  920 
    431.453 -0.0000325  0.0000908                                 13896002  921 
    430.334 -0.0000088  0.0000956                                 13896002  922 
    429.218  0.0000468  0.0000979                                 13896002  923 
    428.107  0.0000253  0.0001005                                 13896002  924 
    427.001 -0.0000337  0.0000938                                 13896002  925 
    425.899 -0.0000126  0.0000997                                 13896002  926 
    424.800  0.0000495  0.0001017                                 13896002  927 
    423.707 -0.0000344  0.0000961                                 13896002  928 
    422.617 -0.0000124  0.0000943                                 13896002  929 
    421.532 -0.0000139  0.0001063                                 13896002  930 
    420.450  0.0000899  0.0001120                                 13896002  931 
    419.373 -0.0000131  0.0000961                                 13896002  932 
    418.300 -0.0000361  0.0001004                                 13896002  933 
    417.232  0.0000325  0.0001067                                 13896002  934 
    416.167  0.0000795  0.0001115                                 13896002  935 
    415.106 -0.0000143  0.0001014                                 13896002  936 
    414.050 -0.0000128  0.0001033                                 13896002  937 
    412.997  0.0000077  0.0001041                                 13896002  938 
    411.948 -0.0000349  0.0000974                                 13896002  939 
    410.904  0.0000074  0.0001086                                 13896002  940 
    409.863 -0.0000106  0.0001024                                 13896002  941 
    408.826 -0.0000137  0.0001041                                 13896002  942 
    407.794 -0.0000129  0.0001035                                 13896002  943 
    406.765  0.0000119  0.0001149                                 13896002  944 
    405.740 -0.0000163  0.0001154                                 13896002  945 
    404.719  0.0000085  0.0001242                                 13896002  946 
    403.702  0.0000587  0.0001191                                 13896002  947 
    402.183 -0.0000324  0.0000931                                 13896002  948 
    400.171  0.0000113  0.0000930                                 13896002  949 
    398.175 -0.0000031  0.0000886                                 13896002  950 
    396.193  0.0000488  0.0000982                                 13896002  951 
    394.226  0.0000501  0.0001233                                 13896002  952 
    392.274 -0.0000251  0.0001206                                 13896002  953 
    390.336  0.0000223  0.0000973                                 13896002  954 
    388.413 -0.0000248  0.0000766                                 13896002  955 
    386.503 -0.0000252  0.0000755                                 13896002  956 
    384.608 -0.0000252  0.0000719                                 13896002  957 
    382.727  0.0000118  0.0000794                                 13896002  958 
    380.859 -0.0000123  0.0000785                                 13896002  959 
    379.005  0.0000205  0.0000821                                 13896002  960 
    377.165  0.0000198  0.0000801                                 13896002  961 
    375.338  0.0000074  0.0000777                                 13896002  962 
    373.524 -0.0000064  0.0000731                                 13896002  963 
    371.723  0.0000108  0.0000816                                 13896002  964 
    369.935  0.0000217  0.0000857                                 13896002  965 
    368.161  0.0000100  0.0000832                                 13896002  966 
    366.398  0.0000077  0.0000818                                 13896002  967 
    364.649 -0.0000035  0.0000824                                 13896002  968 
    362.912  0.0000484  0.0000869                                 13896002  969 
    361.833  0.0000560  0.0001786                                 13896002  970 
    361.402  0.0001602  0.0001469                                 13896002  971 
    360.973  0.0000080  0.0001709                                 13896002  972 
    360.544  0.0000529  0.0001674                                 13896002  973 
    360.116  0.0001997  0.0001601                                 13896002  974 
    359.688  0.0001620  0.0001876                                 13896002  975 
    359.262  0.0001053  0.0001682                                 13896002  976 
    358.836  0.0002564  0.0001757                                 13896002  977 
    358.411  0.0002226  0.0001969                                 13896002  978 
    357.987  0.0005518  0.0001943                                 13896002  979 
    357.563  0.0001670  0.0002106                                 13896002  980 
    357.140  0.0002656  0.0001800                                 13896002  981 
    356.718  0.0000642  0.0001868                                 13896002  982 
    356.297  0.0002635  0.0001757                                 13896002  983 
    355.876  0.0001241  0.0002231                                 13896002  984 
    355.457  0.0002450  0.0001665                                 13896002  985 
    355.038  0.0001658  0.0001869                                 13896002  986 
    354.619 -0.0000414  0.0001631                                 13896002  987 
    354.202  0.0000603  0.0002009                                 13896002  988 
    353.785  0.0000084  0.0001829                                 13896002  989 
    353.369  0.0002925  0.0002003                                 13896002  990 
    352.953  0.0002650  0.0001844                                 13896002  991 
    352.539  0.0001209  0.0002121                                 13896002  992 
    352.125  0.0000644  0.0002031                                 13896002  993 
    351.712 -0.0000461  0.0001812                                 13896002  994 
    351.299  0.0000083  0.0002203                                 13896002  995 
    350.271  0.0000099  0.0000981                                 13896002  996 
    348.636  0.0000412  0.0001016                                 13896002  997 
    347.012 -0.0000323  0.0000988                                 13896002  998 
    345.399  0.0000100  0.0000990                                 13896002  999 
    343.798 -0.0000237  0.0001012                                 13896002 1000 
    342.207 -0.0000149  0.0001018                                 13896002 1001 
    340.628 -0.0000169  0.0001017                                 13896002 1002 
    339.060  0.0000176  0.0001026                                 13896002 1003 
    337.502 -0.0000058  0.0001083                                 13896002 1004 
    335.955 -0.0000054  0.0001002                                 13896002 1005 
    334.994  0.0001812  0.0002083                                 13896002 1006 
    334.610  0.0000087  0.0002053                                 13896002 1007 
    334.228  0.0000091  0.0002031                                 13896002 1008 
    333.846  0.0000151  0.0002196                                 13896002 1009 
    333.464  0.0001340  0.0002411                                 13896002 1010 
    333.083  0.0006153  0.0002568                                 13896002 1011 
    332.703  0.0001315  0.0002099                                 13896002 1012 
    332.324  0.0002927  0.0002008                                 13896002 1013 
    331.945  0.0006191  0.0002441                                 13896002 1014 
    331.567  0.0001532  0.0002200                                 13896002 1015 
    331.189  0.0001298  0.0002182                                 13896002 1016 
    330.812  0.0002524  0.0002308                                 13896002 1017 
    330.436  0.0002971  0.0002161                                 13896002 1018 
    330.060  0.0001911  0.0002133                                 13896002 1019 
    329.685  0.0003253  0.0001851                                 13896002 1020 
    329.311  0.0002151  0.0002006                                 13896002 1021 
    328.937  0.0001765  0.0001880                                 13896002 1022 
    328.564  0.0001889  0.0001810                                 13896002 1023 
    328.192  0.0000694  0.0002003                                 13896002 1024 
    327.820  0.0001750  0.0002164                                 13896002 1025 
    327.449  0.0000650  0.0001916                                 13896002 1026 
    327.078  0.0000630  0.0001731                                 13896002 1027 
    326.709  0.0001240  0.0002190                                 13896002 1028 
    326.339  0.0001215  0.0002067                                 13896002 1029 
    325.971  0.0000117  0.0001920                                 13896002 1030 
    325.603  0.0000601  0.0001789                                 13896002 1031 
    325.235  0.0001318  0.0002213                                 13896002 1032 
    324.868 -0.0000432  0.0001702                                 13896002 1033 
    324.502  0.0000240  0.0001960                                 13896002 1034 
    324.137 -0.0000454  0.0001789                                 13896002 1035 
    323.772  0.0000676  0.0001729                                 13896002 1036 
    323.407  0.0000697  0.0002065                                 13896002 1037 
    323.044 -0.0000445  0.0001748                                 13896002 1038 
    322.681 -0.0000419  0.0001654                                 13896002 1039 
    322.318  0.0002074  0.0001987                                 13896002 1040 
    321.956  0.0000103  0.0001886                                 13896002 1041 
    321.595  0.0000515  0.0001660                                 13896002 1042 
    320.695 -0.0000151  0.0000921                                 13896002 1043 
    319.262  0.0000347  0.0000868                                 13896002 1044 
    317.838  0.0000088  0.0000906                                 13896002 1045 
    316.425  0.0000397  0.0000962                                 13896002 1046 
    315.020  0.0000084  0.0000945                                 13896002 1047 
    313.625 -0.0000184  0.0000904                                 13896002 1048 
    312.239  0.0000769  0.0000909                                 13896002 1049 
    310.863  0.0000131  0.0000527                                 13896002 1050 
    309.495 -0.0000071  0.0000556                                 13896002 1051 
    307.703  0.0000164  0.0000453                                 13896002 1052 
    305.045 -0.0000212  0.0000394                                 13896002 1053 
    302.395  0.0000212  0.0000460                                 13896002 1054 
    299.779 -0.0000095  0.0000458                                 13896002 1055 
    297.197  0.0000445  0.0000466                                 13896002 1056 
    294.649 -0.0000161  0.0000470                                 13896002 1057 
    292.132  0.0000037  0.0000462                                 13896002 1058 
    289.648  0.0000174  0.0000486                                 13896002 1059 
    287.196  0.0000172  0.0000480                                 13896002 1060 
    284.774  0.0000103  0.0000481                                 13896002 1061 
    282.383  0.0000119  0.0000464                                 13896002 1062 
    280.022 -0.0000247  0.0000491                                 13896002 1063 
    277.691 -0.0000098  0.0000480                                 13896002 1064 
    275.388  0.0000103  0.0000467                                 13896002 1065 
    273.114  0.0000111  0.0000495                                 13896002 1066 
    270.868 -0.0000102  0.0000492                                 13896002 1067 
    268.650 -0.0000020  0.0000493                                 13896002 1068 
    266.459 -0.0000003  0.0000504                                 13896002 1069 
    264.294  0.0000166  0.0000502                                 13896002 1070 
    262.156  0.0000122  0.0000519                                 13896002 1071 
    260.044  0.0000129  0.0000481                                 13896002 1072 
    257.957  0.0000191  0.0000519                                 13896002 1073 
    255.895  0.0000214  0.0000491                                 13896002 1074 
    253.858 -0.0000077  0.0000512                                 13896002 1075 
    251.844  0.0000029  0.0000491                                 13896002 1076 
    249.855 -0.0000099  0.0000516                                 13896002 1077 
    247.889  0.0000112  0.0000522                                 13896002 1078 
    245.947  0.0000124  0.0000533                                 13896002 1079 
    244.027  0.0000040  0.0000504                                 13896002 1080 
    242.129 -0.0000097  0.0000529                                 13896002 1081 
    240.254  0.0000060  0.0000523                                 13896002 1082 
    238.400 -0.0000037  0.0000543                                 13896002 1083 
    236.568  0.0000114  0.0000567                                 13896002 1084 
    234.756 -0.0000113  0.0000575                                 13896002 1085 
    232.966  0.0000040  0.0000591                                 13896002 1086 
    231.196 -0.0000349  0.0000570                                 13896002 1087 
    229.445  0.0000042  0.0000585                                 13896002 1088 
    227.715 -0.0000202  0.0000590                                 13896002 1089 
    226.004  0.0000141  0.0000607                                 13896002 1090 
    224.313 -0.0000117  0.0000539                                 13896002 1091 
    222.640 -0.0000184  0.0000547                                 13896002 1092 
    220.986  0.0000123  0.0000562                                 13896002 1093 
    219.350  0.0000236  0.0000571                                 13896002 1094 
    217.733  0.0000202  0.0000538                                 13896002 1095 
    216.133  0.0000133  0.0000603                                 13896002 1096 
    214.551 -0.0000196  0.0000602                                 13896002 1097 
    212.986  0.0000053  0.0000568                                 13896002 1098 
    211.438  0.0000069  0.0000570                                 13896002 1099 
    209.907  0.0000274  0.0000548                                 13896002 1100 
    208.393  0.0000458  0.0000545                                 13896002 1101 
    206.895  0.0000135  0.0000582                                 13896002 1102 
    205.413  0.0000274  0.0000580                                 13896002 1103 
    203.946  0.0000257  0.0000564                                 13896002 1104 
    203.038  0.0000129  0.0001148                                 13896002 1105 
    202.676 -0.0000208  0.0001241                                 13896002 1106 
    202.316 -0.0000194  0.0001249                                 13896002 1107 
    201.956  0.0001890  0.0001090                                 13896002 1108 
    201.597  0.0000992  0.0001140                                 13896002 1109 
    201.239 -0.0000533  0.0001172                                 13896002 1110 
    200.349 -0.0000203  0.0000614                                 13896002 1111 
    198.937 -0.0000107  0.0000610                                 13896002 1112 
    197.539  0.0000218  0.0000621                                 13896002 1113 
    196.156  0.0000158  0.0000663                                 13896002 1114 
    194.788  0.0000072  0.0000645                                 13896002 1115 
    193.434  0.0000039  0.0000659                                 13896002 1116 
    192.094  0.0000058  0.0000634                                 13896002 1117 
    190.768 -0.0000040  0.0000609                                 13896002 1118 
    189.455  0.0000245  0.0000610                                 13896002 1119 
    188.156  0.0000223  0.0000604                                 13896002 1120 
    186.871 -0.0000137  0.0000632                                 13896002 1121 
    185.598 -0.0000246  0.0000613                                 13896002 1122 
    184.339  0.0000090  0.0000629                                 13896002 1123 
    183.092 -0.0000121  0.0000639                                 13896002 1124 
    181.858 -0.0000080  0.0000627                                 13896002 1125 
    180.636  0.0000193  0.0000649                                 13896002 1126 
    179.427  0.0000139  0.0000591                                 13896002 1127 
    178.229  0.0000068  0.0000643                                 13896002 1128 
    177.044 -0.0000098  0.0000660                                 13896002 1129 
    175.870  0.0000020  0.0000671                                 13896002 1130 
    174.708 -0.0000225  0.0000617                                 13896002 1131 
    173.558 -0.0000037  0.0000675                                 13896002 1132 
    172.419  0.0000327  0.0000660                                 13896002 1133 
    171.291  0.0000254  0.0000684                                 13896002 1134 
    170.174  0.0000245  0.0000632                                 13896002 1135 
    169.068 -0.0000045  0.0000638                                 13896002 1136 
    167.972  0.0000212  0.0000679                                 13896002 1137 
    166.887  0.0000037  0.0000724                                 13896002 1138 
    165.813  0.0000064  0.0000703                                 13896002 1139 
    164.749 -0.0000141  0.0000809                                 13896002 1140 
    163.696  0.0000181  0.0000719                                 13896002 1141 
    162.652  0.0000615  0.0000709                                 13896002 1142 
    161.618 -0.0000061  0.0000685                                 13896002 1143 
    160.595  0.0000495  0.0000691                                 13896002 1144 
    159.580  0.0000364  0.0000692                                 13896002 1145 
    158.576  0.0000580  0.0000711                                 13896002 1146 
    157.581 -0.0000025  0.0000646                                 13896002 1147 
    156.595  0.0000125  0.0000683                                 13896002 1148 
    155.618 -0.0000174  0.0000667                                 13896002 1149 
    154.651 -0.0000038  0.0000698                                 13896002 1150 
    153.692  0.0000097  0.0000704                                 13896002 1151 
    152.743  0.0000260  0.0000720                                 13896002 1152 
    151.802 -0.0000022  0.0000660                                 13896002 1153 
    150.870  0.0000135  0.0000698                                 13896002 1154 
    149.946 -0.0000423  0.0000693                                 13896002 1155 
    149.031  0.0000165  0.0000725                                 13896002 1156 
    148.124  0.0000331  0.0000708                                 13896002 1157 
    147.226  0.0000227  0.0000733                                 13896002 1158 
    146.336 -0.0000334  0.0000713                                 13896002 1159 
    145.453  0.0000064  0.0000729                                 13896002 1160 
    144.579 -0.0000149  0.0000719                                 13896002 1161 
    143.712 -0.0000142  0.0000791                                 13896002 1162 
    142.854  0.0000179  0.0000790                                 13896002 1163 
    142.003  0.0000179  0.0000747                                 13896002 1164 
    141.159 -0.0000305  0.0000739                                 13896002 1165 
    140.323  0.0000228  0.0000777                                 13896002 1166 
    139.494  0.0000815  0.0000723                                 13896002 1167 
    138.673  0.0000079  0.0000784                                 13896002 1168 
    137.859 -0.0000170  0.0000787                                 13896002 1169 
    137.052  0.0000214  0.0000735                                 13896002 1170 
    136.252  0.0000124  0.0000721                                 13896002 1171 
    135.460  0.0000386  0.0000730                                 13896002 1172 
    134.674 -0.0000043  0.0000761                                 13896002 1173 
    133.895 -0.0000138  0.0000788                                 13896002 1174 
    133.122 -0.0000201  0.0000770                                 13896002 1175 
    132.356 -0.0000091  0.0000795                                 13896002 1176 
    131.597 -0.0000266  0.0000794                                 13896002 1177 
    130.845 -0.0000267  0.0000775                                 13896002 1178 
    130.099  0.0000185  0.0000774                                 13896002 1179 
    129.359  0.0000627  0.0000780                                 13896002 1180 
    128.625 -0.0000397  0.0000776                                 13896002 1181 
    127.898  0.0000285  0.0000780                                 13896002 1182 
    127.177  0.0000283  0.0000833                                 13896002 1183 
    126.462 -0.0000275  0.0000794                                 13896002 1184 
    125.753  0.0000108  0.0000772                                 13896002 1185 
    125.050  0.0000403  0.0000808                                 13896002 1186 
    124.352  0.0000537  0.0000808                                 13896002 1187 
    123.661 -0.0000054  0.0000808                                 13896002 1188 
    122.975  0.0000331  0.0000799                                 13896002 1189 
    122.295  0.0000983  0.0001004                                 13896002 1190 
    121.621  0.0000168  0.0001134                                 13896002 1191 
    120.952  0.0000093  0.0001292                                 13896002 1192 
    120.289 -0.0000234  0.0001404                                 13896002 1193 
    119.631  0.0000315  0.0001043                                 13896002 1194 
    118.979  0.0000402  0.0000794                                 13896002 1195 
    118.331  0.0000076  0.0000859                                 13896002 1196 
    117.690 -0.0000037  0.0000812                                 13896002 1197 
    117.053 -0.0000164  0.0000831                                 13896002 1198 
    116.421 -0.0000157  0.0000859                                 13896002 1199 
    115.795 -0.0000177  0.0000876                                 13896002 1200 
    115.174 -0.0000246  0.0000890                                 13896002 1201 
    114.557  0.0000005  0.0000829                                 13896002 1202 
    113.946 -0.0000503  0.0000805                                 13896002 1203 
    113.339 -0.0000413  0.0000842                                 13896002 1204 
    112.737 -0.0000175  0.0000848                                 13896002 1205 
    112.140  0.0000338  0.0000865                                 13896002 1206 
    111.548  0.0000170  0.0000849                                 13896002 1207 
    110.961  0.0000183  0.0000863                                 13896002 1208 
    110.378  0.0000443  0.0000883                                 13896002 1209 
    109.799 -0.0000183  0.0000901                                 13896002 1210 
    109.226 -0.0000146  0.0000880                                 13896002 1211 
    108.656  0.0000253  0.0000953                                 13896002 1212 
    108.091 -0.0000060  0.0000946                                 13896002 1213 
    107.531  0.0000437  0.0000867                                 13896002 1214 
    106.975 -0.0000160  0.0000916                                 13896002 1215 
    106.423  0.0000427  0.0000883                                 13896002 1216 
    105.875  0.0000085  0.0000818                                 13896002 1217 
    105.332 -0.0000300  0.0000931                                 13896002 1218 
    104.793  0.0000597  0.0000905                                 13896002 1219 
    104.258 -0.0000042  0.0000864                                 13896002 1220 
    103.727 -0.0000289  0.0000887                                 13896002 1221 
    103.200 -0.0000522  0.0000909                                 13896002 1222 
    102.677 -0.0000364  0.0000898                                 13896002 1223 
    102.158  0.0000462  0.0000930                                 13896002 1224 
    101.643  0.0000228  0.0000937                                 13896002 1225 
    101.132  0.0000358  0.0000919                                 13896002 1226 
    100.625  0.0000481  0.0000965                                 13896002 1227 
    100.121  0.0001285  0.0001074                                 13896002 1228 
     99.621  0.0001261  0.0001053                                 13896002 1229 
     99.125  0.0000954  0.0001022                                 13896002 1230 
     98.633 -0.0000188  0.0000957                                 13896002 1231 
     98.144  0.0000096  0.0000974                                 13896002 1232 
     97.659 -0.0000029  0.0000948                                 13896002 1233 
     97.178  0.0000291  0.0000931                                 13896002 1234 
     96.700  0.0000298  0.0000959                                 13896002 1235 
     96.226  0.0000224  0.0000926                                 13896002 1236 
     95.755 -0.0000357  0.0000998                                 13896002 1237 
     95.287 -0.0000030  0.0000940                                 13896002 1238 
     94.823  0.0000061  0.0000974                                 13896002 1239 
     94.363  0.0000445  0.0000900                                 13896002 1240 
     93.906  0.0000009  0.0000986                                 13896002 1241 
     93.452  0.0000238  0.0001008                                 13896002 1242 
     93.001  0.0000364  0.0000985                                 13896002 1243 
     92.553  0.0000238  0.0001001                                 13896002 1244 
     92.109 -0.0000049  0.0001024                                 13896002 1245 
     91.668  0.0000563  0.0001056                                 13896002 1246 
     91.230 -0.0000341  0.0001234                                 13896002 1247 
     90.796  0.0000470  0.0001597                                 13896002 1248 
     90.364  0.0000218  0.0002090                                 13896002 1249 
     89.935 -0.0000108  0.0002663                                 13896002 1250 
     89.510  0.0000283  0.0002432                                 13896002 1251 
     89.087  0.0000140  0.0001506                                 13896002 1252 
     88.668  0.0000210  0.0001119                                 13896002 1253 
     88.251 -0.0000055  0.0001054                                 13896002 1254 
     87.838 -0.0000641  0.0001028                                 13896002 1255 
     87.427 -0.0000372  0.0001008                                 13896002 1256 
     87.019 -0.0000506  0.0001048                                 13896002 1257 
     86.614 -0.0000193  0.0001083                                 13896002 1258 
     86.212  0.0000079  0.0001162                                 13896002 1259 
     85.812  0.0000257  0.0001251                                 13896002 1260 
     85.416  0.0000470  0.0001323                                 13896002 1261 
     85.022  0.0000048  0.0001386                                 13896002 1262 
     84.631  0.0000190  0.0001217                                 13896002 1263 
     84.242 -0.0000282  0.0001062                                 13896002 1264 
     83.856  0.0000333  0.0001064                                 13896002 1265 
     83.473  0.0000078  0.0001088                                 13896002 1266 
     83.093 -0.0000221  0.0001026                                 13896002 1267 
     82.715  0.0000539  0.0000990                                 13896002 1268 
     82.339  0.0000391  0.0001007                                 13896002 1269 
     81.967  0.0000828  0.0001011                                 13896002 1270 
     81.596  0.0000172  0.0001070                                 13896002 1271 
     81.229  0.0000754  0.0001062                                 13896002 1272 
     80.863 -0.0000352  0.0001051                                 13896002 1273 
     80.500  0.0000095  0.0001030                                 13896002 1274 
     80.140  0.0000250  0.0001030                                 13896002 1275 
     79.782  0.0000078  0.0001072                                 13896002 1276 
     79.426 -0.0000032  0.0001056                                 13896002 1277 
     79.073 -0.0000364  0.0001133                                 13896002 1278 
     78.722  0.0000053  0.0001064                                 13896002 1279 
     78.374  0.0000197  0.0001114                                 13896002 1280 
     78.027 -0.0000055  0.0001116                                 13896002 1281 
     77.683  0.0000267  0.0001070                                 13896002 1282 
     77.342  0.0000547  0.0001188                                 13896002 1283 
     77.002  0.0001207  0.0001172                                 13896002 1284 
     76.665  0.0000248  0.0001089                                 13896002 1285 
     76.330 -0.0000373  0.0001108                                 13896002 1286 
     75.997 -0.0000082  0.0001158                                 13896002 1287 
     75.667  0.0000954  0.0001087                                 13896002 1288 
     75.338  0.0000239  0.0001087                                 13896002 1289 
     75.012  0.0000224  0.0001107                                 13896002 1290 
     74.688  0.0000272  0.0001134                                 13896002 1291 
     74.365 -0.0000005  0.0001067                                 13896002 1292 
     74.045 -0.0000442  0.0001108                                 13896002 1293 
     73.727 -0.0000263  0.0001134                                 13896002 1294 
     73.411  0.0000588  0.0000956                                 13896002 1295 
     73.083  0.0000527  0.0000634                                 13896002 1296 
     72.538  0.0000134  0.0000500                                 13896002 1297 
     71.923 -0.0000224  0.0000596                                 13896002 1298 
     71.316  0.0000073  0.0000574                                 13896002 1299 
     70.717  0.0000236  0.0000567                                 13896002 1300 
     70.125  0.0000452  0.0000612                                 13896002 1301 
     69.541  0.0000523  0.0000563                                 13896002 1302 
     68.963 -0.0000103  0.0000588                                 13896002 1303 
     68.393  0.0000402  0.0000609                                 13896002 1304 
     67.831  0.0000218  0.0000676                                 13896002 1305 
     67.275 -0.0000142  0.0000787                                 13896002 1306 
     66.725  0.0000527  0.0000738                                 13896002 1307 
     66.183  0.0000306  0.0000633                                 13896002 1308 
     65.647 -0.0000238  0.0000611                                 13896002 1309 
     65.118  0.0000212  0.0000654                                 13896002 1310 
     64.595  0.0000029  0.0000635                                 13896002 1311 
     64.078 -0.0000432  0.0000642                                 13896002 1312 
     63.567  0.0000134  0.0000626                                 13896002 1313 
     63.063  0.0000253  0.0000624                                 13896002 1314 
     62.564  0.0000371  0.0000620                                 13896002 1315 
     62.072  0.0000171  0.0000600                                 13896002 1316 
     61.585  0.0000424  0.0000600                                 13896002 1317 
     61.104 -0.0000105  0.0000662                                 13896002 1318 
     60.628  0.0000393  0.0000613                                 13896002 1319 
     60.158  0.0000274  0.0000623                                 13896002 1320 
     59.694  0.0000297  0.0000631                                 13896002 1321 
     59.235  0.0000538  0.0000601                                 13896002 1322 
     58.781  0.0000130  0.0000699                                 13896002 1323 
     58.332 -0.0000425  0.0000693                                 13896002 1324 
     57.888  0.0000449  0.0000661                                 13896002 1325 
     57.450 -0.0000251  0.0000668                                 13896002 1326 
     57.016 -0.0000340  0.0000723                                 13896002 1327 
     56.588 -0.0000296  0.0000687                                 13896002 1328 
     56.164 -0.0000004  0.0000682                                 13896002 1329 
     55.745 -0.0000132  0.0000693                                 13896002 1330 
     55.330 -0.0000167  0.0000676                                 13896002 1331 
     54.920 -0.0000012  0.0000695                                 13896002 1332 
     54.515  0.0001278  0.0000660                                 13896002 1333 
     54.114  0.0000667  0.0000671                                 13896002 1334 
     53.718  0.0000286  0.0000708                                 13896002 1335 
     53.326 -0.0000842  0.0000736                                 13896002 1336 
     52.938 -0.0000257  0.0000720                                 13896002 1337 
     52.554  0.0000391  0.0000673                                 13896002 1338 
     52.175  0.0000254  0.0000728                                 13896002 1339 
     51.799  0.0000032  0.0000695                                 13896002 1340 
     51.428 -0.0000335  0.0000730                                 13896002 1341 
     51.061 -0.0000265  0.0000692                                 13896002 1342 
     50.697  0.0000219  0.0000703                                 13896002 1343 
     50.338 -0.0000274  0.0000715                                 13896002 1344 
     49.982  0.0000939  0.0000692                                 13896002 1345 
     49.630  0.0000032  0.0000721                                 13896002 1346 
     49.282 -0.0000263  0.0000727                                 13896002 1347 
     48.937 -0.0000136  0.0000714                                 13896002 1348 
     48.596  0.0000082  0.0000766                                 13896002 1349 
     48.259  0.0000363  0.0000749                                 13896002 1350 
     47.925 -0.0000528  0.0000764                                 13896002 1351 
     47.594  0.0000110  0.0000763                                 13896002 1352 
     47.267  0.0000192  0.0000750                                 13896002 1353 
     46.943  0.0001024  0.0000766                                 13896002 1354 
     46.623  0.0000852  0.0000705                                 13896002 1355 
     46.306  0.0000344  0.0000774                                 13896002 1356 
     45.992  0.0001490  0.0000741                                 13896002 1357 
     45.797  0.0002837  0.0001483                                 13896002 1358 
     45.720  0.0001368  0.0001508                                 13896002 1359 
     45.642  0.0000102  0.0001432                                 13896002 1360 
     45.565  0.0000424  0.0001543                                 13896002 1361 
     45.488  0.0001578  0.0001355                                 13896002 1362 
     45.412  0.0000489  0.0001244                                 13896002 1363 
     45.335  0.0001167  0.0001354                                 13896002 1364 
     45.259  0.0002607  0.0001248                                 13896002 1365 
     45.183  0.0004341  0.0001381                                 13896002 1366 
     45.107  0.0004856  0.0001324                                 13896002 1367 
     45.031  0.0004173  0.0001194                                 13896002 1368 
     44.956  0.0004783  0.0001513                                 13896002 1369 
     44.880  0.0008221  0.0001678                                 13896002 1370 
     44.805  0.0010342  0.0001902                                 13896002 1371 
     44.730  0.0009688  0.0001804                                 13896002 1372 
     44.655  0.0011013  0.0001947                                 13896002 1373 
     44.581  0.0010689  0.0001962                                 13896002 1374 
     44.506  0.0005620  0.0001399                                 13896002 1375 
     44.432  0.0007302  0.0001623                                 13896002 1376 
     44.358  0.0006092  0.0001621                                 13896002 1377 
     44.284  0.0003994  0.0001206                                 13896002 1378 
     44.210  0.0003367  0.0001403                                 13896002 1379 
     44.137  0.0002835  0.0001417                                 13896002 1380 
     44.064  0.0004296  0.0001327                                 13896002 1381 
     43.990  0.0002444  0.0001199                                 13896002 1382 
     43.917  0.0002401  0.0001509                                 13896002 1383 
     43.845  0.0001971  0.0001423                                 13896002 1384 
     43.772  0.0002080  0.0001335                                 13896002 1385 
     43.700  0.0004796  0.0001573                                 13896002 1386 
     43.627  0.0000356  0.0001427                                 13896002 1387 
     43.555  0.0001110  0.0001657                                 13896002 1388 
     43.483  0.0000599  0.0001486                                 13896002 1389 
     43.412  0.0001010  0.0001491                                 13896002 1390 
     43.340  0.0000351  0.0001606                                 13896002 1391 
     43.269 -0.0000081  0.0001524                                 13896002 1392 
     43.198  0.0000778  0.0001662                                 13896002 1393 
     43.127  0.0000813  0.0001392                                 13896002 1394 
     43.056 -0.0000059  0.0001590                                 13896002 1395 
     42.985 -0.0000534  0.0001718                                 13896002 1396 
     42.915  0.0002227  0.0001388                                 13896002 1397 
     42.845  0.0002830  0.0001496                                 13896002 1398 
     42.774 -0.0000073  0.0001580                                 13896002 1399 
     42.461 -0.0000026  0.0000569                                 13896002 1400 
     41.912  0.0000131  0.0000589                                 13896002 1401 
     41.374  0.0000351  0.0000572                                 13896002 1402 
     40.846  0.0000086  0.0000590                                 13896002 1403 
     40.328 -0.0000048  0.0000566                                 13896002 1404 
     39.820  0.0000029  0.0000598                                 13896002 1405 
     39.322  0.0000363  0.0000607                                 13896002 1406 
     38.833  0.0000166  0.0000605                                 13896002 1407 
     38.352  0.0000267  0.0000614                                 13896002 1408 
     37.881  0.0000427  0.0000628                                 13896002 1409 
     37.418 -0.0000233  0.0000647                                 13896002 1410 
     36.964 -0.0000069  0.0000665                                 13896002 1411 
     36.518  0.0000711  0.0000633                                 13896002 1412 
     36.080  0.0000358  0.0000642                                 13896002 1413 
     35.650  0.0000281  0.0000632                                 13896002 1414 
     35.228  0.0000442  0.0000663                                 13896002 1415 
     34.812  0.0000094  0.0000620                                 13896002 1416 
     34.405 -0.0000016  0.0000682                                 13896002 1417 
     34.004 -0.0000282  0.0000657                                 13896002 1418 
     33.610  0.0000286  0.0000653                                 13896002 1419 
     33.224  0.0000247  0.0000680                                 13896002 1420 
     32.843 -0.0000343  0.0000710                                 13896002 1421 
     32.470  0.0000913  0.0000646                                 13896002 1422 
     32.102  0.0000434  0.0000654                                 13896002 1423 
     31.741 -0.0000266  0.0000701                                 13896002 1424 
     31.386  0.0000092  0.0000688                                 13896002 1425 
     31.037 -0.0000064  0.0000711                                 13896002 1426 
     30.693 -0.0000051  0.0000704                                 13896002 1427 
     30.355  0.0000180  0.0000717                                 13896002 1428 
     30.023  0.0000075  0.0000715                                 13896002 1429 
     29.696  0.0000085  0.0000730                                 13896002 1430 
     29.375  0.0000515  0.0000719                                 13896002 1431 
     29.059 -0.0000049  0.0000742                                 13896002 1432 
     28.748 -0.0000057  0.0000756                                 13896002 1433 
     28.441 -0.0000114  0.0000730                                 13896002 1434 
     28.140  0.0000299  0.0000795                                 13896002 1435 
     27.843 -0.0000266  0.0001013                                 13896002 1436 
     27.551  0.0000073  0.0001099                                 13896002 1437 
     27.264 -0.0000710  0.0000828                                 13896002 1438 
     26.981 -0.0000587  0.0000762                                 13896002 1439 
     26.703 -0.0000187  0.0000767                                 13896002 1440 
     26.428 -0.0000609  0.0000781                                 13896002 1441 
     26.158  0.0000929  0.0000736                                 13896002 1442 
     25.893  0.0000017  0.0000712                                 13896002 1443 
     25.654 -0.0000245  0.0000560                                 13896002 1444 
     25.398  0.0000906  0.0000552                                 13896002 1445 
     25.144  0.0000685  0.0000571                                 13896002 1446 
     24.893 -0.0000529  0.0000635                                 13896002 1447 
     24.646 -0.0000392  0.0000669                                 13896002 1448 
     24.403  0.0000237  0.0000630                                 13896002 1449 
     24.164  0.0000447  0.0000612                                 13896002 1450 
     23.927  0.0000563  0.0000592                                 13896002 1451 
     23.695 -0.0000543  0.0000660                                 13896002 1452 
     23.465 -0.0000422  0.0000666                                 13896002 1453 
     23.239  0.0000304  0.0000622                                 13896002 1454 
     23.017  0.0000216  0.0000583                                 13896002 1455 
     22.797  0.0000493  0.0000593                                 13896002 1456 
     22.581 -0.0000835  0.0000678                                 13896002 1457 
     22.367  0.0000193  0.0000615                                 13896002 1458 
     22.157 -0.0001204  0.0000715                                 13896002 1459 
     21.949 -0.0000394  0.0000671                                 13896002 1460 
     21.745  0.0000452  0.0000614                                 13896002 1461 
     21.543 -0.0000273  0.0000670                                 13896002 1462 
     21.344 -0.0000077  0.0000683                                 13896002 1463 
     21.148  0.0000422  0.0000668                                 13896002 1464 
     20.955 -0.0000246  0.0000702                                 13896002 1465 
     20.764  0.0000581  0.0000666                                 13896002 1466 
     20.576 -0.0000232  0.0000707                                 13896002 1467 
     20.390 -0.0000100  0.0000713                                 13896002 1468 
     20.207  0.0000344  0.0000702                                 13896002 1469 
     20.026  0.0000146  0.0000685                                 13896002 1470 
     19.848 -0.0000402  0.0000691                                 13896002 1471 
     19.672  0.0000037  0.0000680                                 13896002 1472 
     19.498 -0.0000551  0.0000719                                 13896002 1473 
     19.327 -0.0000205  0.0000737                                 13896002 1474 
     19.158  0.0001142  0.0000645                                 13896002 1475 
     18.991 -0.0000523  0.0000763                                 13896002 1476 
     18.827 -0.0000088  0.0000790                                 13896002 1477 
     18.664 -0.0000219  0.0000754                                 13896002 1478 
     18.504 -0.0000859  0.0000815                                 13896002 1479 
     18.345 -0.0000019  0.0000772                                 13896002 1480 
     18.189  0.0000402  0.0000710                                 13896002 1481 
     18.035  0.0000296  0.0000725                                 13896002 1482 
     17.882 -0.0000299  0.0000776                                 13896002 1483 
     17.732 -0.0000112  0.0000770                                 13896002 1484 
     17.583  0.0000342  0.0000754                                 13896002 1485 
     17.436  0.0000756  0.0000773                                 13896002 1486 
     17.291  0.0000025  0.0000785                                 13896002 1487 
     17.148  0.0000793  0.0000744                                 13896002 1488 
     17.007 -0.0000372  0.0000821                                 13896002 1489 
     16.867 -0.0000639  0.0000788                                 13896002 1490 
     16.729  0.0000003  0.0000790                                 13896002 1491 
     16.593  0.0000520  0.0000793                                 13896002 1492 
     16.459  0.0000390  0.0000774                                 13896002 1493 
     16.326 -0.0000010  0.0000796                                 13896002 1494 
     16.194 -0.0000406  0.0000847                                 13896002 1495 
     16.065 -0.0000376  0.0000816                                 13896002 1496 
     15.937 -0.0001652  0.0000893                                 13896002 1497 
     15.810 -0.0000009  0.0000797                                 13896002 1498 
     15.685 -0.0000669  0.0000816                                 13896002 1499 
     15.561  0.0000047  0.0000847                                 13896002 1500 
     15.439 -0.0000797  0.0000863                                 13896002 1501 
     15.318  0.0000154  0.0000795                                 13896002 1502 
     15.199 -0.0000163  0.0000842                                 13896002 1503 
     15.081  0.0000269  0.0000823                                 13896002 1504 
     14.964 -0.0000400  0.0000868                                 13896002 1505 
     14.849  0.0001010  0.0000758                                 13896002 1506 
     14.735 -0.0000064  0.0000871                                 13896002 1507 
     14.622 -0.0000497  0.0000833                                 13896002 1508 
     14.511  0.0001493  0.0000837                                 13896002 1509 
     14.401 -0.0000217  0.0000864                                 13896002 1510 
     14.292 -0.0000293  0.0000850                                 13896002 1511 
     14.184  0.0000385  0.0000869                                 13896002 1512 
     14.078 -0.0000435  0.0000912                                 13896002 1513 
     13.973  0.0000297  0.0000806                                 13896002 1514 
     13.869  0.0001050  0.0000837                                 13896002 1515 
     13.766 -0.0000574  0.0000914                                 13896002 1516 
     13.664  0.0000309  0.0000867                                 13896002 1517 
     13.564 -0.0000702  0.0000938                                 13896002 1518 
     13.464  0.0000686  0.0000847                                 13896002 1519 
     13.366 -0.0000231  0.0000926                                 13896002 1520 
     13.268  0.0000595  0.0000899                                 13896002 1521 
     13.172 -0.0000441  0.0000965                                 13896002 1522 
     13.077 -0.0000161  0.0000919                                 13896002 1523 
     12.983  0.0000644  0.0000912                                 13896002 1524 
     12.890 -0.0000568  0.0000978                                 13896002 1525 
     12.797 -0.0000123  0.0000932                                 13896002 1526 
     12.706 -0.0000427  0.0000949                                 13896002 1527 
     12.616  0.0001077  0.0000854                                 13896002 1528 
     12.527  0.0000288  0.0000936                                 13896002 1529 
     12.438  0.0000748  0.0000886                                 13896002 1530 
     12.351  0.0001140  0.0000911                                 13896002 1531 
     12.264  0.0001047  0.0000912                                 13896002 1532 
     12.179  0.0000708  0.0000943                                 13896002 1533 
     12.094 -0.0000072  0.0000964                                 13896002 1534 
     12.010 -0.0000057  0.0000952                                 13896002 1535 
     11.927  0.0000155  0.0000996                                 13896002 1536 
     11.845 -0.0000437  0.0000941                                 13896002 1537 
     11.764  0.0000591  0.0000980                                 13896002 1538 
     11.684  0.0001097  0.0000958                                 13896002 1539 
     11.604 -0.0000808  0.0001004                                 13896002 1540 
     11.525  0.0001361  0.0000971                                 13896002 1541 
     11.447 -0.0000267  0.0000998                                 13896002 1542 
     11.370  0.0000605  0.0000966                                 13896002 1543 
     11.294  0.0000278  0.0000979                                 13896002 1544 
     11.218 -0.0000134  0.0001057                                 13896002 1545 
     11.143  0.0000035  0.0000965                                 13896002 1546 
     11.069  0.0000545  0.0000978                                 13896002 1547 
     10.996 -0.0001241  0.0001066                                 13896002 1548 
     10.923  0.0000579  0.0000983                                 13896002 1549 
     10.851 -0.0000160  0.0001042                                 13896002 1550 
     10.780 -0.0000596  0.0001088                                 13896002 1551 
     10.709 -0.0000044  0.0000964                                 13896002 1552 
     10.640  0.0000151  0.0001050                                 13896002 1553 
     10.570 -0.0000426  0.0001095                                 13896002 1554 
     10.502 -0.0000939  0.0001078                                 13896002 1555 
     10.434  0.0000241  0.0001053                                 13896002 1556 
     10.367  0.0000501  0.0001014                                 13896002 1557 
     10.300  0.0000089  0.0001050                                 13896002 1558 
     10.235 -0.0000356  0.0001067                                 13896002 1559 
     10.169  0.0000738  0.0001099                                 13896002 1560 
     10.105 -0.0000342  0.0001057                                 13896002 1561 
     10.041 -0.0000273  0.0001093                                 13896002 1562 
      9.977  0.0000113  0.0001141                                 13896002 1563 
      9.914 -0.0000912  0.0001126                                 13896002 1564 
      9.852  0.0000321  0.0001015                                 13896002 1565 
      9.791  0.0000672  0.0001093                                 13896002 1566 
      9.729 -0.0001003  0.0001180                                 13896002 1567 
      9.669 -0.0000255  0.0001165                                 13896002 1568 
      9.609  0.0001113  0.0001129                                 13896002 1569 
      9.550  0.0001851  0.0001009                                 13896002 1570 
      9.491  0.0001307  0.0001110                                 13896002 1571 
      9.433  0.0002903  0.0001055                                 13896002 1572 
      9.375  0.0001445  0.0001084                                 13896002 1573 
      9.318 -0.0000379  0.0001179                                 13896002 1574 
      9.261 -0.0001140  0.0001187                                 13896002 1575 
      9.205 -0.0000171  0.0001157                                 13896002 1576 
      9.149  0.0000163  0.0001146                                 13896002 1577 
      9.094  0.0002439  0.0001096                                 13896002 1578 
      9.039 -0.0000357  0.0001208                                 13896002 1579 
      8.985  0.0001885  0.0001194                                 13896002 1580 
      8.931  0.0001129  0.0001182                                 13896002 1581 
      8.878  0.0000002  0.0001141                                 13896002 1582 
      8.825 -0.0000080  0.0001243                                 13896002 1583 
      8.773  0.0001496  0.0001181                                 13896002 1584 
      8.721 -0.0000296  0.0001181                                 13896002 1585 
      8.670 -0.0000003  0.0001146                                 13896002 1586 
      8.619  0.0000908  0.0001162                                 13896002 1587 
      8.569 -0.0000763  0.0001203                                 13896002 1588 
      8.519  0.0001831  0.0001201                                 13896002 1589 
      8.469  0.0000218  0.0001215                                 13896002 1590 
      8.420  0.0000614  0.0001201                                 13896002 1591 
      8.371  0.0000216  0.0001198                                 13896002 1592 
      8.323  0.0000659  0.0001145                                 13896002 1593 
      8.275 -0.0000724  0.0001316                                 13896002 1594 
      8.227  0.0000278  0.0001244                                 13896002 1595 
      8.180  0.0000280  0.0001238                                 13896002 1596 
      8.134  0.0000590  0.0001264                                 13896002 1597 
      8.087  0.0000868  0.0001153                                 13896002 1598 
      8.042  0.0001125  0.0001208                                 13896002 1599 
      7.996 -0.0000181  0.0001289                                 13896002 1600 
      7.951  0.0000895  0.0001236                                 13896002 1601 
      7.906 -0.0000138  0.0001326                                 13896002 1602 
      7.862 -0.0001659  0.0001360                                 13896002 1603 
      7.807 -0.0000543  0.0001062                                 13896002 1604 
      7.742  0.0001525  0.0001017                                 13896002 1605 
      7.678  0.0000587  0.0001055                                 13896002 1606 
      7.614  0.0000170  0.0001051                                 13896002 1607 
      7.551  0.0001600  0.0000971                                 13896002 1608 
      7.489 -0.0000124  0.0001089                                 13896002 1609 
      7.428  0.0000017  0.0001069                                 13896002 1610 
      7.368  0.0000659  0.0001078                                 13896002 1611 
      7.308  0.0002209  0.0001043                                 13896002 1612 
      7.249 -0.0000226  0.0001061                                 13896002 1613 
      7.191  0.0000712  0.0001035                                 13896002 1614 
      7.133  0.0000034  0.0001071                                 13896002 1615 
      7.076  0.0000855  0.0001180                                 13896002 1616 
      7.020  0.0000968  0.0001100                                 13896002 1617 
      6.965 -0.0001670  0.0001171                                 13896002 1618 
      6.910  0.0000038  0.0001146                                 13896002 1619 
      6.855  0.0001325  0.0001058                                 13896002 1620 
      6.802 -0.0000182  0.0001108                                 13896002 1621 
      6.749  0.0000749  0.0001093                                 13896002 1622 
      6.696 -0.0000025  0.0001192                                 13896002 1623 
      6.645 -0.0000160  0.0001189                                 13896002 1624 
      6.594 -0.0000149  0.0001168                                 13896002 1625 
      6.543  0.0000922  0.0001139                                 13896002 1626 
      6.493  0.0000866  0.0001128                                 13896002 1627 
      6.444 -0.0000175  0.0001159                                 13896002 1628 
      6.395  0.0000987  0.0001127                                 13896002 1629 
      6.345  0.0000246  0.0001003                                 13896002 1630 
      6.266  0.0000784  0.0000621                                 13896002 1631 
      6.172  0.0000384  0.0000645                                 13896002 1632 
      6.081  0.0000813  0.0000632                                 13896002 1633 
      5.992 -0.0000386  0.0000654                                 13896002 1634 
      5.905  0.0000531  0.0000615                                 13896002 1635 
      5.820  0.0000185  0.0000660                                 13896002 1636 
      5.736  0.0001808  0.0000647                                 13896002 1637 
      5.655  0.0000995  0.0000627                                 13896002 1638 
      5.575  0.0000339  0.0000656                                 13896002 1639 
      5.496  0.0000104  0.0000670                                 13896002 1640 
      5.420  0.0001248  0.0000634                                 13896002 1641 
      5.345  0.0001541  0.0000634                                 13896002 1642 
      5.271  0.0001072  0.0000664                                 13896002 1643 
      5.199 -0.0000118  0.0000702                                 13896002 1644 
      5.129  0.0000197  0.0000702                                 13896002 1645 
      5.060  0.0000190  0.0000736                                 13896002 1646 
      4.992  0.0000098  0.0000731                                 13896002 1647 
      4.926  0.0000302  0.0000735                                 13896002 1648 
      4.861 -0.0000094  0.0000766                                 13896002 1649 
      4.797  0.0001197  0.0000656                                 13896002 1650 
      4.734 -0.0000328  0.0000781                                 13896002 1651 
      4.673  0.0000954  0.0000722                                 13896002 1652 
      4.613 -0.0000352  0.0000746                                 13896002 1653 
      4.554  0.0000918  0.0000715                                 13896002 1654 
      4.496 -0.0000581  0.0000780                                 13896002 1655 
      4.439  0.0000199  0.0000791                                 13896002 1656 
      4.384  0.0000432  0.0000798                                 13896002 1657 
      4.329  0.0000367  0.0000796                                 13896002 1658 
      4.276  0.0000392  0.0000808                                 13896002 1659 
      4.223 -0.0000282  0.0000831                                 13896002 1660 
      4.171 -0.0001096  0.0000814                                 13896002 1661 
      4.121  0.0000108  0.0000800                                 13896002 1662 
      4.071  0.0001156  0.0000748                                 13896002 1663 
      4.022  0.0000190  0.0000839                                 13896002 1664 
      3.974 -0.0000477  0.0000883                                 13896002 1665 
      3.927 -0.0000861  0.0000880                                 13896002 1666 
      3.880  0.0000388  0.0000911                                 13896002 1667 
      3.835  0.0000417  0.0000878                                 13896002 1668 
      3.790  0.0000125  0.0000872                                 13896002 1669 
      3.746  0.0001608  0.0000805                                 13896002 1670 
      3.703 -0.0000709  0.0000888                                 13896002 1671 
      3.660  0.0000483  0.0000870                                 13896002 1672 
      3.619  0.0000589  0.0000860                                 13896002 1673 
      3.578  0.0000667  0.0000894                                 13896002 1674 
      3.537 -0.0000707  0.0000920                                 13896002 1675 
      3.498 -0.0000231  0.0000934                                 13896002 1676 
      3.459  0.0000290  0.0000958                                 13896002 1677 
      3.421 -0.0000300  0.0000971                                 13896002 1678 
      3.383 -0.0000215  0.0000950                                 13896002 1679 
      3.346  0.0000201  0.0000887                                 13896002 1680 
      3.309 -0.0001100  0.0000994                                 13896002 1681 
      3.273  0.0000866  0.0000938                                 13896002 1682 
      3.238  0.0000529  0.0000938                                 13896002 1683 
      3.203 -0.0001421  0.0001007                                 13896002 1684 
      3.169 -0.0000276  0.0000993                                 13896002 1685 
      3.136  0.0000293  0.0000962                                 13896002 1686 
      3.102  0.0001138  0.0000971                                 13896002 1687 
      3.070  0.0000541  0.0000997                                 13896002 1688 
      3.038  0.0002269  0.0000968                                 13896002 1689 
      3.006 -0.0000136  0.0001042                                 13896002 1690 
      2.975 -0.0000282  0.0001012                                 13896002 1691 
      2.945  0.0000508  0.0001019                                 13896002 1692 
      2.914  0.0001382  0.0000995                                 13896002 1693 
      2.885  0.0002122  0.0001029                                 13896002 1694 
      2.856  0.0001047  0.0000999                                 13896002 1695 
      2.827  0.0000240  0.0001052                                 13896002 1696 
      2.771  0.0002246  0.0000598                                 13896002 1697 
      2.581  0.0000410  0.0000182                                 13896002 1698 
      2.392  0.0000534  0.0000181                                 13896002 1699 
      2.224  0.0000252  0.0000198                                 13896002 1700 
      2.073  0.0000677  0.0000201                                 13896002 1701 
      1.936  0.0000666  0.0000212                                 13896002 1702 
      1.813  0.0000103  0.0000232                                 13896002 1703 
      1.701 -0.0000204  0.0000231                                 13896002 1704 
      1.599 -0.0000103  0.0000247                                 13896002 1705 
      1.506  0.0000238  0.0000264                                 13896002 1706 
      1.421  0.0001294  0.0000257                                 13896002 1707 
      1.343  0.0000868  0.0000264                                 13896002 1708 
      1.271  0.0000375  0.0000298                                 13896002 1709 
      1.205  0.0001202  0.0000273                                 13896002 1710 
      1.144  0.0000743  0.0000320                                 13896002 1711 
      1.087  0.0000843  0.0000307                                 13896002 1712 
      1.035  0.0000152  0.0000309                                 13896002 1713 
      0.986  0.0000478  0.0000339                                 13896002 1714 
ENDDATA           1704          0                                 13896002 1715 
ENDSUBENT         1714          0                                 1389600299999 
SUBENT        13896003   20040518                             00001389600300001 
BIB                  3         12                                 1389600300002 
REACTION   (42-MO-95(N,A)40-ZR-92,,SIG,,AV)                       1389600300003 
ERR-ANALYS (DATA-ERR) No information on source of uncertainties   1389600300004 
            given.                                                1389600300005 
           Uncertainties in cross section include contributions   1389600300006 
           from:                                                  1389600300007 
           . number of atoms in Mo sample (0.4%),                 1389600300008 
           . number of atoms in 6Li sample (2.5%),                1389600300009 
           . 6Li(n,t) cross section (2.0%),                       1389600300010 
           . ratio of counts from 6Li and 95Mo,                   1389600300011 
           . correction for absorption losses (2.0%),             1389600300012 
           . statistics (2.7-16.2%).                              1389600300013 
STATUS     Data taken from Table III in reference.                1389600300014 
ENDBIB              12          0                                 1389600300015 
NOCOMMON             0          0                                 1389600300016 
DATA                 4         15                                 1389600300017 
EN-MEAN    EN-RSL     DATA       DATA-ERR                         1389600300018 
KEV        KEV        MICRO-B    MICRO-B                          1389600300019 
  1.5        0.5       89.6         4.4                           1389600300020 
  2.5        0.5      104.4         5.1                           1389600300021 
  3.5        0.5       72.0         4.9                           1389600300022 
  4.5        0.5       87.0         5.8                           1389600300023 
  6.25       1.25      30.6         3.5                           1389600300024 
  8.75       1.25      47.8         3.8                           1389600300025 
 12.5        2.5       30.1         2.6                           1389600300026 
 20.0        5.        24.0         1.7                           1389600300027 
 32.5        7.5       14.4         1.1                           1389600300028 
 50.        10.        13.6         1.0                           1389600300029 
 70.        10.        13.1         1.1                           1389600300030 
150.        50.        10.94        0.78                          1389600300031 
250.        50.        11.2         1.1                           1389600300032 
350.        50.         5.62        0.83                          1389600300033 
450.        50.         4.25        0.85                          1389600300034 
ENDDATA             17          0                                 1389600300035 
ENDSUBENT           34          0                                 1389600399999 
SUBENT        13896004   20230425                             150513896004    1 
BIB                  6         14                                 13896004    2 
REACTION  1(42-MO-95(N,0),,EN)                                    13896004    3 
          2(42-MO-95(N,0),,J)                                     13896004    4 
          3(42-MO-95(N,0),,PTY)                                   13896004    5 
          4(42-MO-95(N,A),,WID)                                   13896004    6 
          5(42-MO-95(N,A),,WID/STR)                               13896004    7 
ANALYSIS   Data fitted using R-matrix code SAMMY.                 13896004    8 
ASSUMED    (ASSUM1,42-MO-95(N,EL),,WID,,2G)                       13896004    9 
           (ASSUM2,42-MO-95(N,G),,WID)                            13896004   10 
ERR-ANALYS (DATA-ERR) No information on source of uncertainties   13896004   11 
STATUS     (TABLE,,W.Rapp+,J,PR/C,68,015802,200307)               13896004   12 
            Data taken from Table II in reference.                13896004   13 
           (SPSDD,14797004) Corrected data published              13896004   14 
HISTORY    (20120225A) On. REACTION(#5) corrected, RESULT deleted.13896004   15 
           (20230422A) STATUS updated                             13896004   16 
ENDBIB              14          0                                 13896004   17 
NOCOMMON             0          0                                 13896004   18 
DATA                15         54                                 13896004   19 
DATA      1DATA      2DATA      3DATA      4DATA-ERR  4DATA-MAX  413896004   20 
DATA      5DATA-ERR  5DATA-MAX  5ASSUM1     ASSUM1-ERR ASSUM2     13896004   21 
ASSUM2-ERR SPIN J     PARITY                                      13896004   22 
EV         NO-DIM     NO-DIM     MICRO-EV   MICRO-EV   MICRO-EV   13896004   23 
MICRO-EV   MICRO-EV   MICRO-EV   MILLI-EV   MILLI-EV   MILLI-EV   13896004   24 
MILLI-EV   NO-DIM     NO-DIM                                      13896004   25 
  -9.90                           12.3        1.2                 13896004   26 
                                   2.72                160.       13896004   27 
             2.        1.                                         13896004   28 
  44.69                            0.0349     0.0021              13896004   29 
  0.0108     0.0010              200.        10.       150.       13896004   30 
 10.         3.        1.                                         13896004   31 
 110.5                                                  11.       13896004   32 
                        0.0028     0.16       0.02     310.       13896004   33 
 80.         1.       -1.                                         13896004   34 
 117.8                -1.                                7.9      13896004   35 
                        0.0030     0.15       0.02     200.       13896004   36 
120.         2.                                                   13896004   37 
 159.49                                                  0.24     13896004   38 
                        0.010     15.         1.       166.       13896004   39 
 20.         3.        1.                                         13896004   40 
 218.28     4.                                           2.4      13896004   41 
                        0.0097     1.3        0.1      160.       13896004   42 
                      -1.                                         13896004   43 
 245.84     2.         1.                                3.9      13896004   44 
                        0.0061     0.50       0.05     160.       13896004   45 
                                                                  13896004   46 
 263.59     3.         1.                                3.1      13896004   47 
                        0.013      1.4        0.2      160.       13896004   48 
                                                                  13896004   49 
 330.92     3.                    14.6        3.0                 13896004   50 
  0.152      0.032                 3.4        0.5      160.       13896004   51 
                      -1.                                         13896004   52 
 357.75                            0.382      0.084               13896004   53 
  0.146      0.032               320.        60.       145.       13896004   54 
 20.         3.        1.                                         13896004   55 
 418.2      2.         1.                               13.       13896004   56 
                        0.040      1.00       0.14     160.       13896004   57 
                                                                  13896004   58 
 468.68     2.                    18.8        1.7                 13896004   59 
  0.597      0.055                11.         1.       160.       13896004   60 
                      -1.                                         13896004   61 
 554.08                            5.26       0.41                13896004   62 
  0.990      0.078               110.        20.       160.       13896004   63 
             2.        1.                                         13896004   64 
 595.67     3.         1.                               16.       13896004   65 
                        0.041      0.84       0.20     160.       13896004   66 
                                                                  13896004   67 
 630.01     4.                                           1.6      13896004   68 
                        0.092     20.         3.       160.       13896004   69 
                      -1.                                         13896004   70 
 661.78                                                  1.5      13896004   71 
                        0.079     18.0        1.5      160.       13896004   72 
             3.        1.                                         13896004   73 
 680.19                                                  0.19     13896004   74 
                        0.094    830.        50.       145.       13896004   75 
 15.         3.        1.                                         13896004   76 
 702.62     2.         1.         14.6        9.9                 13896004   77 
  0.130      0.088                 2.9        0.3      160.       13896004   78 
                                                                  13896004   79 
 708.25     3.         1.          3.4        2.4                 13896004   80 
  0.132      0.092                13.4        0.8      160.       13896004   81 
                                                                  13896004   82 
 745.46     3.                                          10.       13896004   83 
                        0.17       5.5        2.0      160.       13896004   84 
                      -1.                                         13896004   85 
 769.83                                                  1.6      13896004   86 
                        0.12      28.         3.       160.       13896004   87 
             3.        1.                                         13896004   88 
 898.27                           18.0        1.0                 13896004   89 
  4.84       0.24                265.        30.       175.       13896004   90 
 20.         2.        1.                                         13896004   91 
 932.13     3.         1.                               16.       13896004   92 
                        0.18       3.5        0.3      160.       13896004   93 
                                                                  13896004   94 
 956.50     2.         1.                               46.       13896004   95 
                        0.21       1.5        0.7      160.       13896004   96 
                                                                  13896004   97 
 981.23                           54.5        3.1                 13896004   98 
  4.92       0.28                 37.         6.       160.       13896004   99 
             2.        1.                                         13896004  100 
1011.1      3.                                           3.8      13896004  101 
                        0.14      12.6        1.0      160.       13896004  102 
                      -1.                                         13896004  103 
1023.8                                                   0.60     13896004  104 
                        0.13     110.        20.       160.       13896004  105 
             3.        1.                                         13896004  106 
1035.7      3.         1.                                4.0      13896004  107 
                        0.15      13.2        1.0      160.       13896004  108 
                                                                  13896004  109 
1059.2      2.         1.                                7.5      13896004  110 
                        0.20       9.2        0.8      160.       13896004  111 
                                                                  13896004  112 
1122.5      3.         1.         74.         31.                 13896004  113 
  0.91       0.38                  4.0        0.6      160.       13896004  114 
                                                                  13896004  115 
1144.6                            45.2        2.3                 13896004  116 
 12.29       0.62                250.        50.       160.       13896004  117 
             2.        1.                                         13896004  118 
1170.5      3.         1.         10.3        5.5                 13896004  119 
  0.60       0.32                 20.6        1.8      160.       13896004  120 
                                                                  13896004  121 
1203.4                                                   0.80     13896004  122 
                        0.19     131.         9.       160.       13896004  123 
             3.        1.                                         13896004  124 
1296.9      3.         1.                                6.7      13896004  125 
                        0.22      11.         1.       160.       13896004  126 
                                                                  13896004  127 
1340.7      3.         1.          3.3        1.8                 13896004  128 
  0.63       0.34                 88.                  160.       13896004  129 
                                                                  13896004  130 
1360.6      3.         1.                               28.       13896004  131 
                        0.50       6.0        0.8      160.       13896004  132 
                                                                  13896004  133 
1386.7      3.         1.         11.5        7.6                 13896004  134 
  0.39       0.26                 11.6        1.0      160.       13896004  135 
                                                                  13896004  136 
1419.3      3.         1.                                0.97     13896004  137 
                        0.43     620.        70.       170.       13896004  138 
 12.                                                              13896004  139 
1437.0      3.         1.                                6.2      13896004  140 
                        0.28      15.6        1.4      160.       13896004  141 
                                                                  13896004  142 
1495.5      5.         1.          4.77       0.91                13896004  143 
  2.40       0.46                360.                  160.       13896004  144 
                                                                  13896004  145 
1570.0      3.         1.                                5.0      13896004  146 
                        0.18      12.         1.       160.       13896004  147 
                                                                  13896004  148 
1576.8      3.         1.                                3.7      13896004  149 
                        0.12      10.4        0.8      160.       13896004  150 
                                                                  13896004  151 
1589.5      5.         1.                                0.85     13896004  152 
                        0.33     215.                  160.       13896004  153 
                                                                  13896004  154 
1677.4      3.         1.          2.5        1.8                 13896004  155 
  0.51       0.37                100.        25.       160.       13896004  156 
                                                                  13896004  157 
1704.1      3.         1.          4.0        3.2                 13896004  158 
  0.44       0.34                 42.8        6.4      160.       13896004  159 
                                                                  13896004  160 
1766.1      5.         1.                                1.4      13896004  161 
                        0.62     270.                  160.       13896004  162 
                                                                  13896004  163 
1788.0      3.         1.                                3.0      13896004  164 
                        0.42      62.        10.       160.       13896004  165 
                                                                  13896004  166 
1841.7      3.         1.          6.2        3.8                 13896004  167 
  0.62       0.38                 38.8        5.2      160.       13896004  168 
                                                                  13896004  169 
1853.3      3.         1.         13.        10.                  13896004  170 
  0.26       0.20                  6.4        0.8      160.       13896004  171 
                                                                  13896004  172 
1925.1      3.         1.         22.        13.                  13896004  173 
  2.0        1.2                  36.0        4.6      160.       13896004  174 
                                                                  13896004  175 
1950.2      3.         1.         14.7        3.5                 13896004  176 
  6.0        1.4                 390.       110.       144.       13896004  177 
 20.                                                              13896004  178 
1961.3      3.         1.                               18.       13896004  179 
                        1.3       27.6        2.8      160.       13896004  180 
                                                                  13896004  181 
2048.1      3.         1.          7.0        2.6                 13896004  182 
  2.31       0.84                245.       100.       160.       13896004  183 
                                                                  13896004  184 
2112.2      3.         1.         14.9        6.4                 13896004  185 
  2.11       0.91                 60.         8.       160.       13896004  186 
                                                                  13896004  187 
ENDDATA            168          0                                 13896004  188 
ENDSUBENT          187          0                                 1389600499999 
ENDENTRY             4          0                                 1389699999999 
