ENTRY            13904   20040726                             00001390400000001 
SUBENT        13904001   20040726                             00001390400100001 
BIB                 11         13                                 1390400100002 
INSTITUTE  (1USAFSU)                                              1390400100003 
REFERENCE  (J,PR,181,1618,196905)                                 1390400100004 
AUTHOR     (J.W.Dawson,R.K.Sheline)                               1390400100005 
TITLE      Low-Lying States in Rb86 from (d,p), (d,t), and        1390400100006 
            (n,gamma) Reactions                                   1390400100007 
FACILITY   (REAC,1USALAS) Omega West reactor.                     1390400100008 
INC-SOURCE (THCOL)                                                1390400100009 
SAMPLE     200 mg of RbNO2, enriched to >99% 86Rb, and 37.9 g of  1390400100010 
            natural Rb2CO3.                                       1390400100011 
DETECTOR   (GELI) Ge(Li) detector inside a NaI annulus.           1390400100012 
ERR-ANALYS No information on uncertainties.                       1390400100013 
STATUS     (COREL,C0973001) (d,p) and (d,t) data.                 1390400100014 
HISTORY    (20040726C)                                            1390400100015 
ENDBIB              13          0                                 1390400100016 
COMMON               1          3                                 1390400100017 
EN-DUMMY                                                          1390400100018 
EV                                                                1390400100019 
  0.0253                                                          1390400100020 
ENDCOMMON            3          0                                 1390400100021 
ENDSUBENT           20          0                                 1390400199999 
SUBENT        13904002   20040726                             00001390400200001 
BIB                  3          5                                 1390400200002 
REACTION   (37-RB-85(N,G)37-RB-86,,SPC,,MXW)                      1390400200003 
            High energy gammas.                                   1390400200004 
MONITOR    Gamma ray energy and intensity based on 14N(n,gamma)15N1390400200005 
            reaction.                                             1390400200006 
STATUS     Data taken from Table IV in article.                   1390400200007 
ENDBIB               5          0                                 1390400200008 
NOCOMMON             0          0                                 1390400200009 
DATA                 3         39                                 1390400200010 
E          DATA       DATA-ERR                                    1390400200011 
KEV        PC/INC     PC/INC                                      1390400200012 
8651.5       0.35       0.08                                      1390400200013 
8161.9       0.08       0.03                                      1390400200014 
8094.2       0.30       0.10                                      1390400200015 
7776.5       0.04       0.02                                      1390400200016 
7672.7       0.12       0.04                                      1390400200017 
7624.4       2.05       0.40                                      1390400200018 
7544.5       0.24       0.06                                      1390400200019 
7455.6       0.13       0.04                                      1390400200020 
7346.2       1.10       0.25                                      1390400200021 
7261.5       0.24       0.06                                      1390400200022 
7212.4       0.30       0.07                                      1390400200023 
7181.0       0.11       0.04                                      1390400200024 
6943.0       0.20       0.05                                      1390400200025 
6831.8       1.10       0.25                                      1390400200026 
6759.7       0.17       0.05                                      1390400200027 
6735.8       0.11       0.04                                      1390400200028 
6725.1       0.17       0.04                                      1390400200029 
6698.1       0.19       0.05                                      1390400200030 
6520.7       1.17       0.25                                      1390400200031 
6503.9       0.32       0.08                                      1390400200032 
6471.7       0.67       0.16                                      1390400200033 
6385.2       0.43       0.10                                      1390400200034 
6352.1       0.38       0.10                                      1390400200035 
6319.3       0.07       0.03                                      1390400200036 
6297.9       0.09       0.03                                      1390400200037 
6247.7       0.07       0.03                                      1390400200038 
6189.1       0.68       0.15                                      1390400200039 
6173.5       0.12       0.04                                      1390400200040 
6142.1       0.18       0.05                                      1390400200041 
6082.1       0.11       0.04                                      1390400200042 
6064.7       0.84       0.15                                      1390400200043 
6053.1       0.26       0.07                                      1390400200044 
5980.3       0.72       0.15                                      1390400200045 
5932.3       0.12       0.04                                      1390400200046 
5885.9       0.40       0.10                                      1390400200047 
5841.0       0.15       0.07                                      1390400200048 
5823.4       0.03       0.01                                      1390400200049 
5800.9       0.33       0.10                                      1390400200050 
5760.9       0.97       0.25                                      1390400200051 
ENDDATA             41          0                                 1390400200052 
ENDSUBENT           51          0                                 1390400299999 
SUBENT        13904003   20040726                             00001390400300001 
BIB                  3          7                                 1390400300002 
REACTION   (37-RB-85(N,G)37-RB-86,,SPC,,MXW)                      1390400300003 
            Low energy gammas.                                    1390400300004 
MONITOR    Gamma ray energy calibrated using standard radio-      1390400300005 
            active sources. Gamma ray intensity determined        1390400300006 
            relative to gold thermal capture cross section        1390400300007 
            with 411-keV radiation.                               1390400300008 
STATUS     Data taken from Table V in article.                    1390400300009 
ENDBIB               7          0                                 1390400300010 
NOCOMMON             0          0                                 1390400300011 
DATA                 4         47                                 1390400300012 
E          E-ERR      DATA       DATA-ERR                         1390400300013 
KEV        KEV        PC/INC     PC/INC                           1390400300014 
  53.9       1.5       1.4        0.6                             1390400300015 
  60.9       1.5       2.3        1.0                             1390400300016 
  85.9       1.5       1.2        0.5                             1390400300017 
  89.6       1.5       0.2        0.1                             1390400300018 
  96.3       1.5       0.6        0.2                             1390400300019 
 114.1       0.5       1.3        0.4                             1390400300020 
 120.3       0.5       0.7        0.3                             1390400300021 
 139.3       1.0       0.8        0.3                             1390400300022 
 165.7       0.5       2.0        0.5                             1390400300023 
 176.1       1.5       0.7        0.3                             1390400300024 
 198.8       1.0       0.7        0.3                             1390400300025 
 223.9       1.0       0.8        0.3                             1390400300026 
 232.4       1.0       0.2        0.1                             1390400300027 
 240.4       1.0       1.0        0.3                             1390400300028 
 284.4       1.0       0.3        0.1                             1390400300029 
 315.9       0.5       0.3        0.1                             1390400300030 
 323.1       0.5       0.5        0.2                             1390400300031 
 361.8       0.5       1.4        0.5                             1390400300032 
 421.5       0.5       5.7        1.5                             1390400300033 
 487.9       0.5      10.9        3.0                             1390400300034 
 514.8       0.5       1.5        0.5                             1390400300035 
 525.2       1.0       0.4        0.2                             1390400300036 
 530.0       1.0       0.7        0.3                             1390400300037 
 536.7       0.5       3.1        1.0                             1390400300038 
 538.9       0.5       3.1        1.0                             1390400300039 
 555.3       0.5       8.0        2.0                             1390400300040 
 557.0       0.5      19.2        5.0                             1390400300041 
 564.9       1.0       0.6        0.2                             1390400300042 
 639.4       0.5       2.9        0.8                             1390400300043 
 669.1       1.0       0.8        0.3                             1390400300044 
 691.9       1.0       2.3        0.6                             1390400300045 
 727.8       1.0       1.2        0.3                             1390400300046 
 748.6       1.0       0.6        0.2                             1390400300047 
 817.3       1.5       0.7        0.2                             1390400300048 
 873.3       0.5       7.5        2.0                             1390400300049 
 882.0       0.5       1.4        0.5                             1390400300050 
 913.8       1.0       1.9        0.5                             1390400300051 
 945.6       1.0       0.8        0.3                             1390400300052 
1026.9       0.5       7.5        1.8                             1390400300053 
1032.8       0.5       5.9        1.8                             1390400300054 
1105.7       1.0       4.7        1.5                             1390400300055 
1177.8       1.0       1.0        0.3                             1390400300056 
1221.0       1.0       1.1        0.3                             1390400300057 
1305.4       0.5       4.9        1.5                             1390400300058 
1390.2       1.0       2.0        0.5                             1390400300059 
1440.0       1.0       1.0        0.3                             1390400300060 
1667.9       1.5       2.0        0.5                             1390400300061 
ENDDATA             49          0                                 1390400300062 
ENDSUBENT           61          0                                 1390400399999 
ENDENTRY             3          0                                 1390499999999 
