ENTRY            13903   20040816                             00001390300000001 
SUBENT        13903001   20040816                             00001390300100001 
BIB                 10         15                                 1390300100002 
INSTITUTE  (1USATNL,1USADKE,2FR BRC)                              1390300100003 
REFERENCE  (J,PR/C,68,044610,2003)                                1390300100004 
AUTHOR     (M.M.Nagadi,C.R.Howell,W.Tornow,G.J.Weisel,            1390300100005 
           M.A.Al-Ohali,R.T.Braun,H.R.Setze,Z.Chen,R.L.Walter,    1390300100006 
           J.P.Delaroche,P.Romain)                                1390300100007 
TITLE      Dispersive optical-model and coupled-channel           1390300100008 
            descriptions of neutron scattering from 27Al and 59Co 1390300100009 
            up to 80 MeV                                          1390300100010 
FACILITY   (ACCEL,1USATNL)                                        1390300100011 
SAMPLE     Cylindrical samples, >99.9% pure.                      1390300100012 
METHOD     (TOF)                                                  1390300100013 
ERR-ANALYS (DATA-ERR) No information on source of uncertainties.  1390300100014 
STATUS     Data received by email, G. Weisel, 2004/7/13.          1390300100015 
           No reply received from G. Weisel to author proof.      1390300100016 
HISTORY    (20040713C)                                            1390300100017 
ENDBIB              15          0                                 1390300100018 
NOCOMMON             0          0                                 1390300100019 
ENDSUBENT           18          0                                 1390300199999 
SUBENT        13903002   20040713                             00001390300200001 
BIB                  6          9                                 1390300200002 
REACTION   (13-AL-27(N,EL)13-AL-27,,DA)                           1390300200003 
INC-SOURCE (D-D)                                                  1390300200004 
DETECTOR   (SCIN) Liquid organic scintillators: 2 primary         1390300200005 
            detectors, 3rd used as a monitor, and 4th to monitor  1390300200006 
            time distribution of source neutrons.                 1390300200007 
MONITOR    (1-H-1(N,EL)1-H-1,,DA)                                 1390300200008 
CORRECTION Corrected for finite geometry, flux attenuation, and   1390300200009 
            multiple scattering using code EFFIGY15.              1390300200010 
ERR-ANALYS Normalization uncertainties about 4%.                  1390300200011 
ENDBIB               9          0                                 1390300200012 
COMMON               2          3                                 1390300200013 
EN         EN-RSL                                                 1390300200014 
MEV        MEV                                                    1390300200015 
 15.431      0.067                                                1390300200016 
ENDCOMMON            3          0                                 1390300200017 
DATA                 3         35                                 1390300200018 
ANG-CM     DATA-CM    DATA-ERR                                    1390300200019 
ADEG       MB/SR      MB/SR                                       1390300200020 
 18.50     633.96      11.47                                      1390300200021 
 21.35     525.73      16.16                                      1390300200022 
 24.20     345.71       6.81                                      1390300200023 
 27.04     279.66      10.29                                      1390300200024 
 29.87     165.33       6.81                                      1390300200025 
 32.73      99.44       4.33                                      1390300200026 
 35.74      51.17       2.26                                      1390300200027 
 39.30      26.80       1.27                                      1390300200028 
 43.58      16.67       0.47                                      1390300200029 
 47.42      22.68       1.28                                      1390300200030 
 50.51      33.54       1.76                                      1390300200031 
 54.30      51.34       1.13                                      1390300200032 
 58.07      63.69       1.41                                      1390300200033 
 61.87      64.75       1.32                                      1390300200034 
 66.66      64.71       2.24                                      1390300200035 
 71.52      54.46       1.60                                      1390300200036 
 76.43      35.09       1.44                                      1390300200037 
 81.44      26.88       0.79                                      1390300200038 
 86.58      17.66       0.32                                      1390300200039 
 91.82      14.23       0.34                                      1390300200040 
 96.99      13.37       0.29                                      1390300200041 
102.01      13.76       0.14                                      1390300200042 
106.94      14.76       0.31                                      1390300200043 
111.83      14.96       0.64                                      1390300200044 
116.71      14.39       0.63                                      1390300200045 
121.58      13.53       0.47                                      1390300200046 
126.48      13.34       0.29                                      1390300200047 
131.37      12.33       0.15                                      1390300200048 
136.22      12.58       0.35                                      1390300200049 
141.00      10.66       0.28                                      1390300200050 
145.76      10.00       0.16                                      1390300200051 
150.62       8.12       0.21                                      1390300200052 
154.63       7.84       0.20                                      1390300200053 
155.65       7.75       0.23                                      1390300200054 
160.74       9.91       0.15                                      1390300200055 
ENDDATA             37          0                                 1390300200056 
ENDSUBENT           55          0                                 1390300299999 
SUBENT        13903003   20040713                             00001390300300001 
BIB                  5         10                                 1390300300002 
REACTION   (13-AL-27(N,EL)13-AL-27,,POL/DA,,ANA)                  1390300300003 
INC-SOURCE (ATOMI,D-D). Average beam polarization 0.54.           1390300300004 
DETECTOR   (SCIN) Liquid organic scintillators: 2 primary         1390300300005 
            detectors, and 3rd to monitor time distribution of    1390300300006 
            source neutrons.                                      1390300300007 
CORRECTION Corrected for finite geometry, flux attenuation, and   1390300300008 
            multiple scattering using code JANE.                  1390300300009 
ERR-ANALYS Relative uncertainties about 5%.                       1390300300010 
           Scale uncertainty of about 3% associated with the      1390300300011 
            determination of the beam polarization.               1390300300012 
ENDBIB              10          0                                 1390300300013 
COMMON               4          3                                 1390300300014 
EN         EN-RSL     POL-BM     POL-BM-ERR                       1390300300015 
MEV        MEV        NO-DIM     NO-DIM                           1390300300016 
 15.425      0.344      0.54       0.02                           1390300300017 
ENDCOMMON            3          0                                 1390300300018 
DATA                 3         15                                 1390300300019 
ANG-CM     DATA-CM    DATA-ERR                                    1390300300020 
ADEG       NO-DIM     NO-DIM                                      1390300300021 
 25.38     -0.227      0.027                                      1390300300022 
 30.21     -0.331      0.043                                      1390300300023 
 35.06     -0.479      0.051                                      1390300300024 
 38.33     -0.757      0.065                                      1390300300025 
 42.33     -0.623      0.064                                      1390300300026 
 47.33     -0.146      0.066                                      1390300300027 
 52.27     -0.040      0.038                                      1390300300028 
 61.86     -0.140      0.045                                      1390300300029 
 71.61     -0.342      0.039                                      1390300300030 
 81.55     -0.568      0.058                                      1390300300031 
 91.88     -0.404      0.077                                      1390300300032 
103.94      0.306      0.061                                      1390300300033 
116.71      0.429      0.079                                      1390300300034 
129.43      0.101      0.069                                      1390300300035 
141.02      0.000      0.097                                      1390300300036 
ENDDATA             17          0                                 1390300300037 
ENDSUBENT           36          0                                 1390300399999 
SUBENT        13903004   20040713                             00001390300400001 
BIB                  6          9                                 1390300400002 
REACTION   (27-CO-59(N,EL)27-CO-59,,DA)                           1390300400003 
INC-SOURCE (D-D)                                                  1390300400004 
DETECTOR   (SCIN) Liquid organic scintillators: 2 primary         1390300400005 
            detectors, 3rd used as a monitor, and 4th to monitor  1390300400006 
            time distribution of source neutrons.                 1390300400007 
MONITOR    (1-H-1(N,EL)1-H-1,,DA)                                 1390300400008 
CORRECTION Corrected for finite geometry, flux attenuation, and   1390300400009 
            multiple scattering using code EFFIGY15.              1390300400010 
ERR-ANALYS Normalization uncertainties about 4%.                  1390300400011 
ENDBIB               9          0                                 1390300400012 
NOCOMMON             0          0                                 1390300400013 
DATA                 5        190                                 1390300400014 
EN         EN-RSL     ANG-CM     DATA-CM    DATA-ERR              1390300400015 
MEV        MEV        ADEG       MB/SR      MB/SR                 1390300400016 
  9.953      0.083     17.90     1790.48     37.64                1390300400017 
  9.953      0.083     21.61     1446.95     35.78                1390300400018 
  9.953      0.083     24.42     1155.51     33.06                1390300400019 
  9.953      0.083     27.23      861.33     26.53                1390300400020 
  9.953      0.083     30.05      619.01     17.81                1390300400021 
  9.953      0.083     33.81      408.37     14.35                1390300400022 
  9.953      0.083     37.57      227.88      8.99                1390300400023 
  9.953      0.083     41.34      117.50      5.29                1390300400024 
  9.953      0.083     45.11       61.31      4.07                1390300400025 
  9.953      0.083     49.09       25.09      1.80                1390300400026 
  9.953      0.083     53.87        8.57      1.05                1390300400027 
  9.953      0.083     59.57        5.42      0.57                1390300400028 
  9.953      0.083     64.23        8.42      0.79                1390300400029 
  9.953      0.083     67.17       10.84      0.74                1390300400030 
  9.953      0.083     70.01       13.46      0.61                1390300400031 
  9.953      0.083     73.81       16.65      0.52                1390300400032 
  9.953      0.083     77.67       17.82      0.55                1390300400033 
  9.953      0.083     81.55       20.94      0.59                1390300400034 
  9.953      0.083     85.41       22.39      0.60                1390300400035 
  9.953      0.083     89.27       22.19      0.63                1390300400036 
  9.953      0.083     93.19       22.19      0.64                1390300400037 
  9.953      0.083     97.09       19.89      0.59                1390300400038 
  9.953      0.083    100.96       17.88      0.56                1390300400039 
  9.953      0.083    104.88       15.93      0.53                1390300400040 
  9.953      0.083    108.82       12.31      0.40                1390300400041 
  9.953      0.083    112.82       10.47      0.50                1390300400042 
  9.953      0.083    122.04        7.55      0.43                1390300400043 
  9.953      0.083    126.17        7.21      0.42                1390300400044 
  9.953      0.083    130.28        7.56      0.42                1390300400045 
  9.953      0.083    134.41        7.82      0.43                1390300400046 
  9.953      0.083    138.51        8.70      0.49                1390300400047 
  9.953      0.083    142.58       10.58      0.53                1390300400048 
  9.953      0.083    145.58       12.08      0.56                1390300400049 
  9.953      0.083    148.53       13.79      0.61                1390300400050 
  9.953      0.083    152.37       17.31      0.61                1390300400051 
  9.953      0.083    156.21       20.11      0.62                1390300400052 
  9.953      0.083    160.03       22.49      0.87                1390300400053 
 11.944      0.074     17.73     1576.88     34.01                1390300400054 
 11.944      0.074     21.42     1212.34     34.49                1390300400055 
 11.944      0.074     24.19      900.26     27.95                1390300400056 
 11.944      0.074     26.99      633.49     19.63                1390300400057 
 11.944      0.074     29.80      441.40     15.10                1390300400058 
 11.944      0.074     33.56      249.03      9.19                1390300400059 
 11.944      0.074     37.44      129.23      5.52                1390300400060 
 11.944      0.074     41.50       55.85      2.45                1390300400061 
 11.944      0.074     45.92       29.45      1.73                1390300400062 
 11.944      0.074     50.42       16.96      0.81                1390300400063 
 11.944      0.074     54.58       12.98      0.84                1390300400064 
 11.944      0.074     58.57        9.22      0.48                1390300400065 
 11.944      0.074     62.88        6.98      0.47                1390300400066 
 11.944      0.074     66.46        5.73      0.27                1390300400067 
 11.944      0.074     70.11        7.20      0.33                1390300400068 
 11.944      0.074     74.41       10.40      0.46                1390300400069 
 11.944      0.074     78.23       15.33      0.47                1390300400070 
 11.944      0.074     81.94       19.21      0.47                1390300400071 
 11.944      0.074     85.65       22.15      0.36                1390300400072 
 11.944      0.074     89.40       22.96      0.43                1390300400073 
 11.944      0.074     93.18       22.08      0.45                1390300400074 
 11.944      0.074     97.01       19.80      0.49                1390300400075 
 11.944      0.074    100.90       16.33      0.46                1390300400076 
 11.944      0.074    104.85       13.06      0.39                1390300400077 
 11.944      0.074    108.90       10.14      0.32                1390300400078 
 11.944      0.074    113.03        8.65      0.29                1390300400079 
 11.944      0.074    117.22        7.96      0.28                1390300400080 
 11.944      0.074    122.41        7.61      0.34                1390300400081 
 11.944      0.074    126.49        8.47      0.36                1390300400082 
 11.944      0.074    130.51        9.39      0.38                1390300400083 
 11.944      0.074    134.48       10.91      0.41                1390300400084 
 11.944      0.074    138.39       11.86      0.39                1390300400085 
 11.944      0.074    142.27       12.64      0.31                1390300400086 
 11.944      0.074    148.14       13.70      0.45                1390300400087 
 11.944      0.074    152.06       14.64      0.43                1390300400088 
 11.944      0.074    156.00       14.87      0.44                1390300400089 
 11.944      0.074    159.93       16.26      0.44                1390300400090 
 15.425      0.069     17.55     1408.33     37.00                1390300400091 
 15.425      0.069     21.21      976.96     28.72                1390300400092 
 15.425      0.069     23.97      709.23     25.95                1390300400093 
 15.425      0.069     26.76      444.47     12.89                1390300400094 
 15.425      0.069     29.57      324.10     12.98                1390300400095 
 15.425      0.069     33.50      143.68      5.57                1390300400096 
 15.425      0.069     37.93       62.49      2.12                1390300400097 
 15.425      0.069     42.74       37.35      1.21                1390300400098 
 15.425      0.069     47.13       35.42      1.39                1390300400099 
 15.425      0.069     50.90       32.74      0.91                1390300400100 
 15.425      0.069     54.49       27.35      1.08                1390300400101 
 15.425      0.069     58.16       18.78      0.73                1390300400102 
 15.425      0.069     62.40       10.47      0.52                1390300400103 
 15.425      0.069     66.34        7.05      0.26                1390300400104 
 15.425      0.069     70.28        9.02      0.49                1390300400105 
 15.425      0.069     74.51       15.72      0.59                1390300400106 
 15.425      0.069     78.15       21.67      0.56                1390300400107 
 15.425      0.069     81.76       25.61      0.52                1390300400108 
 15.425      0.069     85.41       27.86      0.42                1390300400109 
 15.425      0.069     89.12       26.15      0.52                1390300400110 
 15.425      0.069     92.88       22.81      0.54                1390300400111 
 15.425      0.069     96.70       18.05      0.51                1390300400112 
 15.425      0.069    100.64       12.76      0.38                1390300400113 
 15.425      0.069    104.78        9.59      0.28                1390300400114 
 15.425      0.069    109.11        7.82      0.23                1390300400115 
 15.425      0.069    113.44        7.43      0.23                1390300400116 
 15.425      0.069    117.57        8.34      0.25                1390300400117 
 15.425      0.069    122.52        9.75      0.36                1390300400118 
 15.425      0.069    126.40       10.61      0.37                1390300400119 
 15.425      0.069    130.27       11.20      0.37                1390300400120 
 15.425      0.069    134.18       11.34      0.37                1390300400121 
 15.425      0.069    138.12       10.87      0.36                1390300400122 
 15.425      0.069    142.09       11.14      0.37                1390300400123 
 15.425      0.069    145.07       11.01      0.37                1390300400124 
 15.425      0.069    148.03       10.54      0.37                1390300400125 
 15.425      0.069    151.95       11.44      0.36                1390300400126 
 15.425      0.069    155.88       10.52      0.34                1390300400127 
 15.425      0.069    159.87       11.04      0.35                1390300400128 
 16.879      0.108     16.91     1219.58     37.58                1390300400129 
 16.879      0.108     20.27      855.48     33.22                1390300400130 
 16.879      0.108     23.70      459.19     17.28                1390300400131 
 16.879      0.108     26.45      281.60     13.35                1390300400132 
 16.879      0.108     29.68      129.71      5.60                1390300400133 
 16.879      0.108     33.87       54.64      1.57                1390300400134 
 16.879      0.108     39.71       47.94      1.66                1390300400135 
 16.879      0.108     43.94       64.41      1.20                1390300400136 
 16.879      0.108     47.30       70.73      1.75                1390300400137 
 16.879      0.108     50.57       60.10      1.55                1390300400138 
 16.879      0.108     53.96       48.71      1.65                1390300400139 
 16.879      0.108     57.72       31.26      1.15                1390300400140 
 16.879      0.108     62.33       16.88      0.61                1390300400141 
 16.879      0.108     66.43       13.37      0.42                1390300400142 
 16.879      0.108     70.32       15.89      0.65                1390300400143 
 16.879      0.108     74.58       23.54      0.83                1390300400144 
 16.879      0.108     78.22       31.45      0.78                1390300400145 
 16.879      0.108     81.70       35.28      0.90                1390300400146 
 16.879      0.108     85.17       38.00      0.78                1390300400147 
 16.879      0.108     88.65       33.84      1.08                1390300400148 
 16.879      0.108     92.23       25.95      0.93                1390300400149 
 16.879      0.108     95.99       17.47      0.59                1390300400150 
 16.879      0.108    100.26       12.91      0.50                1390300400151 
 16.879      0.108    105.05        8.67      0.32                1390300400152 
 16.879      0.108    109.62        9.28      0.37                1390300400153 
 16.879      0.108    113.66       11.48      0.40                1390300400154 
 16.879      0.108    117.43       11.49      0.31                1390300400155 
 16.879      0.108    122.14       12.13      0.49                1390300400156 
 16.879      0.108    125.96       10.84      0.40                1390300400157 
 16.879      0.108    129.74       10.85      0.47                1390300400158 
 16.879      0.108    133.56        9.32      0.31                1390300400159 
 16.879      0.108    137.66        8.18      0.24                1390300400160 
 16.879      0.108    142.03        6.78      0.31                1390300400161 
 16.879      0.108    145.23        7.29      0.35                1390300400162 
 16.879      0.108    148.24        8.76      0.36                1390300400163 
 16.879      0.108    151.99        9.60      0.38                1390300400164 
 16.879      0.108    155.93        8.68      0.35                1390300400165 
 16.879      0.108    160.57        9.17      0.35                1390300400166 
 18.862      0.124     16.50     1050.51     38.87                1390300400167 
 18.862      0.124     18.90      731.78     27.12                1390300400168 
 18.862      0.124     19.80      711.82     37.05                1390300400169 
 18.862      0.124     22.30      406.99     18.18                1390300400170 
 18.862      0.124     26.30      140.98      6.44                1390300400171 
 18.862      0.124     30.60       47.22      1.23                1390300400172 
 18.862      0.124     35.80       40.89      2.01                1390300400173 
 18.862      0.124     40.60       74.29      1.88                1390300400174 
 18.862      0.124     43.80       89.56      1.43                1390300400175 
 18.862      0.124     47.00       89.59      1.54                1390300400176 
 18.862      0.124     50.30       78.93      1.93                1390300400177 
 18.862      0.124     53.70       58.38      1.70                1390300400178 
 18.862      0.124     57.70       36.55      1.32                1390300400179 
 18.862      0.124     62.50       20.95      0.71                1390300400180 
 18.862      0.124     66.50       17.40      0.89                1390300400181 
 18.862      0.124     70.10       23.62      0.70                1390300400182 
 18.862      0.124     74.10       30.68      0.64                1390300400183 
 18.862      0.124     77.70       34.69      0.73                1390300400184 
 18.862      0.124     81.20       39.45      0.98                1390300400185 
 18.862      0.124     84.70       37.18      1.20                1390300400186 
 18.862      0.124     88.30       29.27      0.94                1390300400187 
 18.862      0.124     92.10       20.95      0.56                1390300400188 
 18.862      0.124     96.00       15.66      0.51                1390300400189 
 18.862      0.124    100.30       10.76      0.37                1390300400190 
 18.862      0.124    105.00        8.29      0.30                1390300400191 
 18.862      0.124    109.60        8.87      0.35                1390300400192 
 18.862      0.124    113.70       11.78      0.33                1390300400193 
 18.862      0.124    117.40       13.28      0.34                1390300400194 
 18.862      0.124    120.10       13.51      0.33                1390300400195 
 18.862      0.124    121.80       14.45      0.42                1390300400196 
 18.862      0.124    125.20       12.56      0.43                1390300400197 
 18.862      0.124    128.80        8.79      0.32                1390300400198 
 18.862      0.124    132.90        5.64      0.35                1390300400199 
 18.862      0.124    137.70        4.49      0.26                1390300400200 
 18.862      0.124    142.40        4.76      0.29                1390300400201 
 18.862      0.124    145.40        6.21      0.32                1390300400202 
 18.862      0.124    148.30        6.62      0.30                1390300400203 
 18.862      0.124    152.20        6.99      0.32                1390300400204 
 18.862      0.124    156.10        8.34      0.36                1390300400205 
 18.862      0.124    159.60       10.49      0.38                1390300400206 
ENDDATA            192          0                                 1390300400207 
ENDSUBENT          206          0                                 1390300499999 
SUBENT        13903005   20040713                             00001390300500001 
BIB                  5         12                                 1390300500002 
REACTION   (27-CO-59(N,EL)27-CO-59,,POL/DA,,ANA)                  1390300500003 
INC-SOURCE (ATOMI,D-D). Average beam polarization 0.54.           1390300500004 
DETECTOR   (SCIN) Liquid organic scintillators: 2 primary         1390300500005 
            detectors, and 3rd to monitor time distribution of    1390300500006 
            source neutrons.                                      1390300500007 
CORRECTION Corrected for finite geometry, flux attenuation, and   1390300500008 
            multiple scattering using code JANE.                  1390300500009 
ERR-ANALYS Relative uncertainties about 5%.                       1390300500010 
           Scale uncertainty of about 3% associated with the      1390300500011 
            determination of the beam polarization.               1390300500012 
           Scale uncertainty of about 3% associated with the      1390300500013 
            determination of the beam polarization.               1390300500014 
ENDBIB              12          0                                 1390300500015 
COMMON               4          3                                 1390300500016 
EN         EN-RSL     POL-BM     POL-BM-ERR                       1390300500017 
MEV        MEV        NO-DIM     NO-DIM                           1390300500018 
 15.273      0.435      0.54       0.02                           1390300500019 
ENDCOMMON            3          0                                 1390300500020 
DATA                 3         24                                 1390300500021 
ANG-CM     DATA-CM    DATA-ERR                                    1390300500022 
ADEG       NO-DIM     NO-DIM                                      1390300500023 
 17.42     -0.044      0.010                                      1390300500024 
 19.79     -0.011      0.016                                      1390300500025 
 22.16      0.041      0.021                                      1390300500026 
 24.61      0.045      0.031                                      1390300500027 
 28.14      0.153      0.033                                      1390300500028 
 32.50      0.217      0.025                                      1390300500029 
 40.81     -0.264      0.034                                      1390300500030 
 45.47     -0.519      0.038                                      1390300500031 
 49.73     -0.730      0.036                                      1390300500032 
 53.59     -0.822      0.038                                      1390300500033 
 58.19     -0.989      0.049                                      1390300500034 
 65.14     -0.589      0.078                                      1390300500035 
 76.87      0.020      0.070                                      1390300500036 
 80.94     -0.222      0.068                                      1390300500037 
 85.04     -0.287      0.039                                      1390300500038 
 93.59     -0.540      0.053                                      1390300500039 
103.99     -0.555      0.066                                      1390300500040 
115.78     -0.065      0.056                                      1390300500041 
124.93      0.280      0.047                                      1390300500042 
129.50      0.260      0.057                                      1390300500043 
134.33      0.267      0.062                                      1390300500044 
144.38     -0.593      0.069                                      1390300500045 
149.28     -0.652      0.064                                      1390300500046 
153.07     -0.417      0.053                                      1390300500047 
ENDDATA             26          0                                 1390300500048 
ENDSUBENT           47          0                                 1390300599999 
ENDENTRY             5          0                                 1390399999999 
