ENTRY            13927   20041122                             00001392700000001 
SUBENT        13927001   20041122                             00001392700100001 
BIB                 10         16                                 1392700100002 
INSTITUTE  (1USABNL)                                              1392700100003 
REFERENCE  (J,PR/C,9,2363,197406)                                 1392700100004 
AUTHOR     (W.Gelletly,W.R.Kane,D.R.McKenzie)                     1392700100005 
TITLE      Neutron-Capture Gamma Rays from the 9.47 eV Resonance  1392700100006 
           in 129Xe(n,gamma)130Xe                                 1392700100007 
FACILITY   (REAC,1USABNL) High Flux Beam Reactor                  1392700100008 
            Crystal diffraction neutron monochromator             1392700100009 
DETECTOR   (GELI) Ge(Li) detectors of 20, 25, 30 and 40 cm3       1392700100010 
SAMPLE     5 g of anhydrous Na4XeO6 enclosed in an aluminum       1392700100011 
            capsule.                                              1392700100012 
CORRECTION At the 9.47 eV resonance, 129Xe contribute more than   1392700100013 
            98 % of the capture cross section of natural Xe       1392700100014 
METHOD     The target is irradiated in beams of 5.16, 9.47 and    1392700100015 
            14.1 eV neutrons from the monochromator and in the    1392700100016 
            thermal neutron beam.                                 1392700100017 
HISTORY    (20041117C) DR                                         1392700100018 
ENDBIB              16          0                                 1392700100019 
NOCOMMON             0          0                                 1392700100020 
ENDSUBENT           19          0                                 1392700199999 
SUBENT        13927002   20041122                             00001392700200001 
BIB                  5         16                                 1392700200002 
REACTION   (54-XE-129(N,G),,SPC,,RES/REL)                         1392700200003 
ERR-ANALYS (DATA-ERR) No information given                        1392700200004 
METHOD     Intensities are normalized to 100 for the 536.1 keV    1392700200005 
            transition.                                           1392700200006 
STATUS     Data taken from table I of the journal article         1392700200007 
FLAG       (1.) A small fraction of the intensity attributed      1392700200008 
            to this gamma ray may be due to the presence of a     1392700200009 
            gamma ray of similar energy from the In(n,gamma)      1392700200010 
            reaction                                              1392700200011 
           (2.) The energy of this gamma ray was used in the      1392700200012 
            determination of the neutron separation energy.       1392700200013 
           (3.) Allowance has been made for the presence of       1392700200014 
            a line from the 131Xe(n,gamma)132Xe reaction at       1392700200015 
            this energy in calculating the intensity of this      1392700200016 
            gamma ray.                                            1392700200017 
           (4.) Doublet.                                          1392700200018 
ENDBIB              16          0                                 1392700200019 
COMMON               1          3                                 1392700200020 
EN-RES                                                            1392700200021 
EV                                                                1392700200022 
9.47                                                              1392700200023 
ENDCOMMON            3          0                                 1392700200024 
DATA                 6        161                                 1392700200025 
E          E-ERR      DATA       DATA-MAX   DATA-ERR   FLAG       1392700200026 
KEV        KEV        ARB-UNITS  ARB-UNITS  ARB-UNITS  NO-DIM     1392700200027 
136.5      1.1          1.4                 0.5                   1392700200028 
161.5      1.1          0.28                0.06                  1392700200029 
178.7      1.0          0.19                0.06                  1392700200030 
191.8      0.7          2.0                 0.3                   1392700200031 
209.6      0.8          0.20                0.05                  1392700200032 
246.0      0.6          0.8                 0.2                   1392700200033 
252.1      0.8          0.29                0.07                  1392700200034 
261.9      0.6          0.08                0.02                  1392700200035 
397.4      0.5          0.30                0.07                  1392700200036 
500.1      0.5          0.14                0.05                  1392700200037 
522.8      0.2          1.0                 0.2        1.         1392700200038 
536.1      0.3        100.                             2.         1392700200039 
573.8      0.5          0.41                0.06                  1392700200040 
586.2      0.2         24.                  3.         2.         1392700200041 
603.7      0.3          0.57                0.08                  1392700200042 
622.8      0.5          0.46                0.10                  1392700200043 
668.3      0.4          8.9                 1.5        3.         1392700200044 
685.8      0.4          0.66                0.08                  1392700200045 
698.1      0.8          0.20                0.08                  1392700200046 
736.8      1.1          0.08                0.06                  1392700200047 
749.8      0.6          1.1                 0.1        4.         1392700200048 
762.7      0.7          0.43                0.09                  1392700200049 
765.7      0.7          0.10                0.06                  1392700200050 
792.4      0.8          0.17                0.07                  1392700200051 
806.8      0.8          0.13                0.06                  1392700200052 
825.7      0.8          0.11                0.06                  1392700200053 
833.3      0.8          0.07                0.05                  1392700200054 
836.8      0.8          0.16                0.05                  1392700200055 
854.3      0.8          1.1                 0.2                   1392700200056 
862.3      0.8          0.27                0.06                  1392700200057 
877.0      0.7          0.96                0.10                  1392700200058 
893.7      1.1          0.89                0.13                  1392700200059 
909.9      0.9          0.60                0.12                  1392700200060 
914.9      1.3          0.11                0.06                  1392700200061 
936.2      1.1          0.15                0.03                  1392700200062 
942.8      1.3          0.15                0.07                  1392700200063 
959.3      1.0          0.26                0.10                  1392700200064 
966.6      1.2          0.43                0.08                  1392700200065 
981.1      0.9          0.12                0.07                  1392700200066 
986.7      1.0          0.10                0.04                  1392700200067 
1020.8     0.9          0.38                0.09                  1392700200068 
1028.1     1.2          0.25                0.10       3.         1392700200069 
1048.7     1.5          0.37                0.10                  1392700200070 
1053.6     1.3          0.16                0.03                  1392700200071 
1060.1     0.7          0.59                0.14                  1392700200072 
1072.4     0.6          1.8                 0.2                   1392700200073 
1080.1     1.3          0.15                0.06                  1392700200074 
1095.7     0.6          4.7                 0.2        1.         1392700200075 
1106.5     1.2          0.21                0.09                  1392700200076 
1121.5     0.8          4.2                 0.3                   1392700200077 
1126.1     1.2          0.14                0.10                  1392700200078 
1154.8     0.6          0.47                0.10                  1392700200079 
1175.8     0.6          0.16                0.06                  1392700200080 
1181.3     0.9          0.06                0.05                  1392700200081 
1219.9     0.6          0.22                0.07                  1392700200082 
1249.4     0.8          0.10                0.06                  1392700200083 
1256.0     0.5          1.8                 0.2                   1392700200084 
1262.7     0.8          1.0                 0.1                   1392700200085 
1271.7     0.5          0.52                0.11                  1392700200086 
1311.4     0.7          0.32                0.10                  1392700200087 
1355.3     1.0          0.22                0.10                  1392700200088 
1379.5     0.4          0.37                0.09                  1392700200089 
1388.8     1.0          0.16                0.07                  1392700200090 
1421.5     1.1          0.22                0.10                  1392700200091 
1450.8     1.1          0.32                0.11                  1392700200092 
1459.7     0.3          1.1                 0.2                   1392700200093 
1602.1     0.7          0.79                0.18                  1392700200094 
1609.6     1.1          2.7                 0.3                   1392700200095 
1613.3     0.7          2.7                 0.3                   1392700200096 
1631.6     0.8          0.69                0.33                  1392700200097 
1683.4     1.1          0.28                0.13                  1392700200098 
1686.9     1.1          0.39                0.13                  1392700200099 
1705.0     0.6          1.0                 0.2                   1392700200100 
1726.6     1.1                     0.2                            1392700200101 
1746.9     1.0          0.4                 0.2                   1392700200102 
1759.4     1.0          2.0                 0.3                   1392700200103 
1764.3     1.0          2.0                 0.3                   1392700200104 
1813.9     1.0          0.19                0.10                  1392700200105 
1848.9     1.2          0.67                0.25                  1392700200106 
1899.2     0.5          2.8                 0.4                   1392700200107 
1948.2     1.3          0.6                 0.2                   1392700200108 
1966.3     0.9          0.73                0.15                  1392700200109 
1979.6     0.9          0.14                0.10                  1392700200110 
1987.6     0.7          0.26                0.15       3.         1392700200111 
2008.0     0.9          1.5                 0.5                   1392700200112 
2028.8     0.9          1.3                 0.4        3.         1392700200113 
2066.5     0.7          0.15                0.08                  1392700200114 
2092.2     1.2          1.1                 0.2        4.         1392700200115 
2101.3     1.1          1.5                 0.5                   1392700200116 
2176.8     1.1          1.1                 0.3                   1392700200117 
2283.0     0.9          0.14                0.07                  1392700200118 
2308.7     0.5          0.29                0.08                  1392700200119 
2345.1     0.7          1.6                 0.4                   1392700200120 
2378.6     1.1          0.23                0.13                  1392700200121 
2496.4     1.1          0.6                 0.2                   1392700200122 
2612.7     1.1          0.7                 0.3                   1392700200123 
2653.8     0.9          0.7                 0.3                   1392700200124 
2763.0     0.4          0.82                0.24                  1392700200125 
2870.1     2.0          0.27                0.12                  1392700200126 
2885.2     0.8          0.7                 0.2                   1392700200127 
2978.7     0.6          0.82                0.15                  1392700200128 
3028.9     0.8          0.16                0.08                  1392700200129 
3330.0     1.5          1.7                 0.5                   1392700200130 
3943.2     1.4          0.5                 0.1                   1392700200131 
3975.2     2.4          0.3                 0.1                   1392700200132 
4064.9     2.4          0.24                0.08                  1392700200133 
4080.5     1.5          0.15                0.06                  1392700200134 
4226.3     2.0          0.44                0.09                  1392700200135 
4290.6     2.0          0.45                0.10                  1392700200136 
4444.4     2.0          0.16                0.06                  1392700200137 
4497.3     2.0          0.19                0.06                  1392700200138 
4505.2     2.0          0.32                0.07                  1392700200139 
4534.5     2.4          0.22                0.10                  1392700200140 
4546.6     1.0          0.14                0.05                  1392700200141 
4687.9     2.4          0.27                0.08                  1392700200142 
4713.0     1.0          0.27                0.07                  1392700200143 
4746.1     2.4          0.19                0.05                  1392700200144 
4769.1     1.0          0.17                0.06                  1392700200145 
4794.9     2.4          0.56                0.09                  1392700200146 
4804.2     2.4          0.56                0.09                  1392700200147 
4822.8     2.4          0.19                0.05                  1392700200148 
4858.1     0.8          0.25                0.06                  1392700200149 
4876.0     0.6          0.31                0.07                  1392700200150 
4912.5     0.6          0.31                0.06                  1392700200151 
4927.4     2.4          0.77                0.16                  1392700200152 
4934.4     2.4          0.77                0.16                  1392700200153 
4987.8     2.4          0.30                0.06                  1392700200154 
5007.4     2.4          0.19                0.06                  1392700200155 
5045.5     2.4          0.13                0.06                  1392700200156 
5074.3     2.4          0.05                0.05                  1392700200157 
5094.1     2.4          0.27                0.10                  1392700200158 
5150.1     2.4          0.22                0.07                  1392700200159 
5209.6     0.7          0.31                0.06                  1392700200160 
5269.1     2.4          0.13                0.05                  1392700200161 
5278.4     2.4          0.08                0.05                  1392700200162 
5295.4     1.0          0.08                0.04                  1392700200163 
5362.7     0.6          0.26                0.07                  1392700200164 
5475.5     0.5          0.14                0.05                  1392700200165 
5568.2     0.7          0.40                0.09                  1392700200166 
5632.1     2.4          0.04                0.03                  1392700200167 
5720.5     0.7          1.0                 0.1                   1392700200168 
5849.6     0.8          0.63                0.15                  1392700200169 
5930.2     1.4          0.13                0.06                  1392700200170 
5955.6     0.5          1.9                 0.5                   1392700200171 
6011.6     0.9          0.26                0.08                  1392700200172 
6065.3     0.9          0.65                0.09                  1392700200173 
6105.1     1.5          0.25                0.07                  1392700200174 
6182.7     2.5          1.0                 0.3                   1392700200175 
6278.1     0.7          1.1                 0.3                   1392700200176 
6300.5     2.3          1.3                 0.3                   1392700200177 
6370.1     0.7          1.3                 0.2                   1392700200178 
6493.3     1.3          0.30                0.08                  1392700200179 
6622.1     1.1          0.70                0.08                  1392700200180 
6870.4     1.5          0.27                0.13                  1392700200181 
7011.6     2.0          0.15                0.04                  1392700200182 
7032.4     1.1          0.15                0.04                  1392700200183 
7237.0     1.3          0.10                0.03                  1392700200184 
7463.5     2.1          0.20                0.03                  1392700200185 
8134.3     1.6          0.57                0.10                  1392700200186 
8718.1     1.7          0.05                0.03                  1392700200187 
9254.2     2.1          0.08                0.04                  1392700200188 
ENDDATA            163          0                                 1392700200189 
ENDSUBENT          188          0                                 1392700299999 
ENDENTRY             2          0                                 1392799999999 
