ENTRY            14016   20101008                             13671401600000001 
SUBENT        14016001   20101008                             13671401600100001 
BIB                 10         18                                 1401600100002 
TITLE       Fission cross sections in the intermediate energy     1401600100003 
            region                                                1401600100004 
AUTHOR     (P.W.Lisowski, A.Gavron, W.E.Parker, J.L.Ullmann,      1401600100005 
            S.J.Balestrini, A.D.Carlson, O.A.Wasson, N.W.Hill)    1401600100006 
INSTITUTE  (1USALAS,1USANIS,1USAORL)                              1401600100007 
REFERENCE  (S,NEANDC-305,177,1991) Not the final result.          1401600100008 
            Proc. of the NEANDC Specialists Meeting on Neutron    1401600100009 
            Cross Section Standards for the Energy Region above   1401600100010 
            20 MeV, 21-23 May, 1991, Uppsala, Sweden              1401600100011 
           (C,88MITO,,97,1988)                                    1401600100012 
FACILITY   (LINAC,1USALAS) LAMPF and LANSCE WNR facility          1401600100013 
INC-SOURCE (SPALL) White source neutrons from 800 MeV proton on W 1401600100014 
SAMPLE      200 microg/cm2 235U deposit                           1401600100015 
METHOD     (TOF) 20 m flight path                                 1401600100016 
DETECTOR   (IOCH) Fission ionization chamber for fission rate     1401600100017 
           (TELES) Proton recoil telescope for neutron flux       1401600100018 
HISTORY    (20050629C) DR                                         1401600100019 
           (20100716A) On. BIB updated                            1401600100020 
ENDBIB              18          0                                 1401600100021 
NOCOMMON             0          0                                 1401600100022 
ENDSUBENT           21          0                                 1401600199999 
SUBENT        14016002   20101008                             13671401600200001 
BIB                  7         32                                 1401600200002 
REACTION   (92-U-235(N,F),,SIG)                                   1401600200003 
MONITOR    (1-H-1(N,EL)1-H-1,,DA,P)                               1401600200004 
            The angles were 15 and 16.4 degrees in the lab system 1401600200005 
            for the 2 different detector systems used for the     1401600200006 
            fluence determination.                                1401600200007 
MONIT-REF  (,G.M.Hale,3,ENDF/B-VII.0,125,2006)                    1401600200008 
            - Renormalized from ENDF/B-VI to B-VII standard cross 1401600200009 
              section below 20.0638 MeV (including) by P.Lisowski 1401600200010 
              (e-mail from 19 October 2004).                      1401600200011 
            - Above 30 MeV the renormalization could not be done  1401600200012 
              since no data exist there for the ENDF-B.VII        1401600200013 
              evaluation for hydrogen.                            1401600200014 
ERR-ANALYS  Uncertainty in the H(n,n) standard cross section is   1401600200015 
            not included                                          1401600200016 
           (ERR-S) Statistics                                     1401600200017 
           (ERR-1) Efficiency                                     1401600200018 
           (ERR-T) Total uncertainty                              1401600200019 
COMMENT    A.Carlson (written in the data file)                   1401600200020 
            The data below are the final 235U(n,f) data from the  1401600200021 
            LANL-NIST-ORNL collaboration (P.W.Lisowski, A.Gavron, 1401600200022 
            W.E.Parker, J.L.Ullmann, S.J.Balestrini, A.D.Carlson, 1401600200023 
            O.A.Wasson, and N.W.Hill). Uncertainty in the H(n,n)  1401600200024 
            standard cross section is not included. Renormalized  1401600200025 
            from ENDF/B-VI to B-VII standard cross section below  1401600200026 
            20.0638 MeV (including). Renormalized data obtained   1401600200027 
            from P.Lisowski.                                      1401600200028 
           P.Lisowski (2010-10-08)                                1401600200029 
            Final values                                          1401600200030 
STATUS     (TABLE) Received by e-mail from A.Carlson              1401600200031 
HISTORY    (20100715R) On                                         1401600200032 
           (20100716A) On. Re-compiled                            1401600200033 
           (20101008A) On. Confirmed as the final data by Lisowski1401600200034 
ENDBIB              32          0                                 1401600200035 
NOCOMMON             0          0                                 1401600200036 
DATA                 5        141                                 1401600200037 
EN         DATA       ERR-S      ERR-1      ERR-T                 1401600200038 
MEV        B          PER-CENT   PER-CENT   PER-CENT              1401600200039 
 3.0252     1.2185     0.67       1.         1.20                 1401600200040 
 3.1174     1.2019     0.68       1.         1.21                 1401600200041 
 3.2123     1.2102     0.67       1.         1.20                 1401600200042 
 3.3101     1.1768     0.69       1.         1.21                 1401600200043 
 3.4110     1.1953     0.76       1.         1.26                 1401600200044 
 3.5148     1.1696     0.78       1.         1.27                 1401600200045 
 3.6219     1.1628     0.78       1.         1.27                 1401600200046 
 3.7322     1.1727     0.78       1.         1.27                 1401600200047 
 3.8459     1.1375     0.71       1.         1.23                 1401600200048 
 3.9630     1.1293     0.72       1.         1.23                 1401600200049 
 4.0837     1.1006     0.74       1.         1.24                 1401600200050 
 4.2081     1.1320     0.71       1.         1.23                 1401600200051 
 4.3363     1.1303     0.80       1.         1.28                 1401600200052 
 4.4683     1.1160     0.72       1.         1.23                 1401600200053 
 4.6044     1.1171     0.71       1.         1.23                 1401600200054 
 4.7447     1.0751     0.74       1.         1.25                 1401600200055 
 4.8892     1.0749     0.74       1.         1.25                 1401600200056 
 5.0381     1.0685     0.75       1.         1.25                 1401600200057 
 5.1915     1.0411     0.77       1.         1.26                 1401600200058 
 5.3496     1.0355     0.77       1.         1.26                 1401600200059 
 5.5126     1.0056     0.79       1.         1.28                 1401600200060 
 5.6805     1.0099     0.79       1.         1.27                 1401600200061 
 5.8535     1.0326     0.77       1.         1.26                 1401600200062 
 6.0318     1.0670     0.84       1.         1.31                 1401600200063 
 6.2155     1.1740     0.80       1.         1.28                 1401600200064 
 6.4048     1.2522     0.87       1.         1.33                 1401600200065 
 6.5998     1.3266     0.83       1.         1.30                 1401600200066 
 6.8008     1.4176     0.84       1.         1.31                 1401600200067 
 7.0080     1.5113     0.86       1.         1.32                 1401600200068 
 7.2214     1.5778     0.89       1.         1.34                 1401600200069 
 7.4414     1.6469     0.97       1.         1.40                 1401600200070 
 7.6680     1.6979     1.00       1.         1.42                 1401600200071 
 7.9015     1.7813     1.01       1.         1.42                 1401600200072 
 8.1422     1.7659     1.02       1.         1.43                 1401600200073 
 8.3902     1.7697     1.02       1.         1.43                 1401600200074 
 8.6457     1.7544     1.03       1.         1.43                 1401600200075 
 8.9090     1.7507     1.02       1.         1.43                 1401600200076 
 9.1804     1.7538     1.08       1.         1.47                 1401600200077 
 9.4600     1.7683     1.12       1.         1.51                 1401600200078 
 9.7481     1.7681     1.12       1.         1.51                 1401600200079 
 10.045     1.7589     1.19       1.         1.55                 1401600200080 
 10.351     1.7301     1.21       1.         1.57                 1401600200081 
 10.666     1.7520     1.25       1.         1.60                 1401600200082 
 10.991     1.7291     1.27       1.         1.61                 1401600200083 
 11.326     1.6995     1.29       1.         1.63                 1401600200084 
 11.671     1.6429     1.33       1.         1.67                 1401600200085 
 12.026     1.6921     1.35       1.         1.68                 1401600200086 
 12.392     1.7511     1.42       1.         1.74                 1401600200087 
 12.770     1.7953     1.44       1.         1.76                 1401600200088 
 13.159     1.8417     1.46       1.         1.77                 1401600200089 
 13.560     1.9611     1.53       1.         1.82                 1401600200090 
 13.973     2.0600     1.55       1.         1.85                 1401600200091 
 14.398     2.0968     1.57       1.         1.86                 1401600200092 
 14.837     2.1418     1.64       1.         1.92                 1401600200093 
 15.289     2.2048     1.68       1.         1.96                 1401600200094 
 15.754     2.2491     1.74       1.         2.01                 1401600200095 
 16.234     2.1729     1.71       1.         1.98                 1401600200096 
 16.729     2.0813     1.74       1.         2.01                 1401600200097 
 17.238     2.0438     1.77       1.         2.04                 1401600200098 
 17.763     2.0968     1.82       1.         2.08                 1401600200099 
 18.304     2.0315     1.83       1.         2.09                 1401600200100 
 18.861     2.0644     1.91       1.         2.15                 1401600200101 
 19.436     1.9662     1.90       1.         2.15                 1401600200102 
 20.028     2.0595     1.97       1.         2.21                 1401600200103 
 20.638     2.0588     1.98       1.         2.21                 1401600200104 
 21.267     2.0396     1.96       1.         2.20                 1401600200105 
 21.914     2.0581     1.99       1.         2.22                 1401600200106 
 22.582     2.0817     2.01       1.         2.25                 1401600200107 
 23.269     2.0942     2.00       1.         2.24                 1401600200108 
 23.978     2.1008     2.04       1.         2.27                 1401600200109 
 24.708     2.1014     2.08       1.         2.31                 1401600200110 
 25.461     2.0800     1.29       1.         1.63                 1401600200111 
 26.236     2.0916     1.33       1.         1.67                 1401600200112 
 27.035     2.0892     1.38       1.         1.71                 1401600200113 
 27.859     2.0948     1.38       1.         1.70                 1401600200114 
 28.707     2.0297     1.37       1.         1.70                 1401600200115 
 29.582     2.0840     1.43       2.         2.46                 1401600200116 
 30.483     2.0468     1.46       2.         2.48                 1401600200117 
 31.411     2.0175     1.53       2.         2.52                 1401600200118 
 32.368     2.1295     1.63       2.         2.58                 1401600200119 
 33.354     2.0605     1.69       2.         2.62                 1401600200120 
 34.369     2.0661     1.78       2.         2.68                 1401600200121 
 35.416     2.0299     1.81       2.         2.70                 1401600200122 
 36.495     1.9679     1.92       2.         2.77                 1401600200123 
 37.606     1.9725     2.06       2.         2.87                 1401600200124 
 38.752     1.9374     2.15       2.         2.94                 1401600200125 
 39.932     2.0046     2.38       2.         3.11                 1401600200126 
 41.148     1.9844     2.50       2.         3.21                 1401600200127 
 42.402     1.9264     2.57       2.         3.26                 1401600200128 
 43.693     1.9509     2.80       2.         3.44                 1401600200129 
 45.024     1.9337     2.88       2.         3.50                 1401600200130 
 46.395     1.9135     3.01       2.         3.61                 1401600200131 
 47.808     1.8596     3.10       2.         3.69                 1401600200132 
 49.264     1.8166     3.17       3.         4.36                 1401600200133 
 50.764     1.8273     3.31       3.         4.47                 1401600200134 
 52.311     1.7843     3.39       3.         4.53                 1401600200135 
 53.904     1.6740     3.38       3.         4.52                 1401600200136 
 55.546     1.8334     3.89       3.         4.91                 1401600200137 
 57.237     1.9005     4.23       3.         5.18                 1401600200138 
 58.981     1.7882     4.16       3.         5.12                 1401600200139 
 60.777     1.7493     4.19       3.         5.15                 1401600200140 
 62.628     1.8492     0.64       3.         3.07                 1401600200141 
 64.535     1.7598     0.68       3.         3.08                 1401600200142 
 66.501     1.7378     0.68       3.         3.08                 1401600200143 
 68.526     1.7405     0.68       3.         3.08                 1401600200144 
 70.614     1.6978     0.76       3.         3.09                 1401600200145 
 72.764     1.7085     0.76       3.         3.09                 1401600200146 
 74.980     1.7093     0.81       3.         3.11                 1401600200147 
 77.264     1.7092     0.81       3.         3.11                 1401600200148 
 79.617     1.6793     0.89       3.         3.13                 1401600200149 
 82.042     1.6891     0.88       4.         4.10                 1401600200150 
 84.541     1.6524     0.90       4.         4.10                 1401600200151 
 87.116     1.6266     0.97       4.         4.12                 1401600200152 
 89.769     1.5720     0.94       4.         4.11                 1401600200153 
 92.503     1.5651     1.01       4.         4.13                 1401600200154 
 95.320     1.5423     1.02       4.         4.13                 1401600200155 
 98.224     1.5690     1.07       4.         4.14                 1401600200156 
 101.21     1.5472     1.09       4.         4.14                 1401600200157 
 104.30     1.4838     1.06       4.         4.14                 1401600200158 
 107.47     1.5402     1.16       5.         5.13                 1401600200159 
 110.75     1.4907     1.13       5.         5.13                 1401600200160 
 114.12     1.4987     1.19       5.         5.14                 1401600200161 
 117.60     1.5294     1.29       5.         5.16                 1401600200162 
 121.18     1.4581     1.22       5.         5.15                 1401600200163 
 124.87     1.4818     1.34       5.         5.18                 1401600200164 
 128.67     1.4551     1.29       5.         5.16                 1401600200165 
 132.59     1.4393     1.38       5.         5.19                 1401600200166 
 136.63     1.4818     1.40       5.         5.19                 1401600200167 
 140.79     1.4482     1.44       5.         5.20                 1401600200168 
 145.08     1.4363     1.45       5.         5.21                 1401600200169 
 149.50     1.4472     1.51       5.         5.22                 1401600200170 
 154.05     1.4690     1.55       5.         5.24                 1401600200171 
 158.74     1.4353     1.59       5.         5.25                 1401600200172 
 163.58     1.4413     1.65       5.         5.27                 1401600200173 
 168.56     1.4304     1.66       5.         5.27                 1401600200174 
 173.69     1.4294     1.73       5.         5.29                 1401600200175 
 178.98     1.4650     1.82       5.         5.32                 1401600200176 
 184.43     1.4462     1.85       5.         5.33                 1401600200177 
 190.05     1.4571     1.90       5.         5.35                 1401600200178 
 195.84     1.4155     1.89       5.         5.34                 1401600200179 
 201.80     1.4521     2.05       5.         5.40                 1401600200180 
ENDDATA            143          0                                 1401600200181 
ENDSUBENT          180          0                                 1401600299999 
SUBENT        14016003   20101008                             13671401600300001 
BIB                  5         23                                 1401600300002 
REACTION   ((92-U-238(N,F),,SIG)/(92-U-235(N,F),,SIG))            1401600300003 
ERR-ANALYS (ERR-S) Statistics                                     1401600300004 
           (ERR-1) Total fission mass uncertainty                 1401600300005 
COMMENT    A.Carlson (written in the data file)                   1401600300006 
             The following data are the final Lisowski et al.     1401600300007 
             238U(n,f)/235U(n,f) cross section ratio results.     1401600300008 
             The Uncertainty in the ratio is shown (so the percent1401600300009 
             uncertainty in the ratio data is                     1401600300010 
              (100*Ratio Uncertainty)/(Cross Section Ratio).      1401600300011 
             The final results are a private communication from   1401600300012 
             Paul Lisowski.  There are several publications which 1401600300013 
             can be given for the progress of the work, but not   1401600300014 
             the final results (e.g., P.W. Lisowski et al.,       1401600300015 
             Proc. of the NEANDC Specialists Meeting on Neutron   1401600300016 
             Cross Section Standards for the Energy Region above  1401600300017 
             20 MeV, 21-23 May, 1991, Uppsala, Sweden,            1401600300018 
             NEANDC-305/U, pp. 177-186.)                          1401600300019 
           P.Lisowski (2010-09-20)                                1401600300020 
            Final values                                          1401600300021 
STATUS     (TABLE) Received by e-mail from A.Carlson              1401600300022 
HISTORY    (20100715R) On                                         1401600300023 
           (20100716A) On. Re-compiled                            1401600300024 
           (20100920U) On. Confirmed as the final data by Lisowski1401600300025 
ENDBIB              23          0                                 1401600300026 
COMMON               1          3                                 1401600300027 
ERR-1                                                             1401600300028 
PER-CENT                                                          1401600300029 
 0.8                                                              1401600300030 
ENDCOMMON            3          0                                 1401600300031 
DATA                 3        203                                 1401600300032 
EN         DATA       ERR-S                                       1401600300033 
MEV        NO-DIM     NO-DIM                                      1401600300034 
8.32677E-019.61110E-032.60355E-02                                 1401600300035 
8.58038E-011.54202E-022.66490E-02                                 1401600300036 
8.84171E-015.20947E-032.41840E-02                                 1401600300037 
9.11100E-011.11744E-022.35926E-03                                 1401600300038 
9.38849E-011.02709E-022.14218E-03                                 1401600300039 
9.67444E-011.22968E-022.17351E-03                                 1401600300040 
9.96909E-011.52360E-022.15082E-03                                 1401600300041 
1.02727E+001.46580E-022.13882E-03                                 1401600300042 
1.05856E+001.90765E-022.11255E-03                                 1401600300043 
1.09080E+001.86387E-022.01286E-03                                 1401600300044 
1.12402E+002.69086E-022.18417E-03                                 1401600300045 
1.15826E+003.39921E-022.32050E-03                                 1401600300046 
1.19353E+003.76555E-022.32791E-03                                 1401600300047 
1.22988E+003.26291E-022.16399E-03                                 1401600300048 
1.26734E+004.13167E-022.38785E-03                                 1401600300049 
1.30594E+006.23399E-022.75627E-03                                 1401600300050 
1.34572E+008.09255E-023.06155E-03                                 1401600300051 
1.38670E+001.27316E-013.68536E-03                                 1401600300052 
1.42894E+001.93794E-014.46994E-03                                 1401600300053 
1.47246E+002.54640E-015.10419E-03                                 1401600300054 
1.51730E+002.79774E-015.29365E-03                                 1401600300055 
1.56352E+003.07873E-015.52373E-03                                 1401600300056 
1.61114E+003.27905E-015.66655E-03                                 1401600300057 
1.66021E+003.53565E-015.81976E-03                                 1401600300058 
1.71077E+003.63320E-015.79786E-03                                 1401600300059 
1.76288E+003.77339E-015.89016E-03                                 1401600300060 
1.81657E+003.85090E-015.84041E-03                                 1401600300061 
1.87189E+004.04977E-016.00163E-03                                 1401600300062 
1.92891E+004.10520E-016.03532E-03                                 1401600300063 
1.98766E+004.11385E-015.96116E-03                                 1401600300064 
2.04819E+004.28787E-016.14580E-03                                 1401600300065 
2.11057E+004.38905E-016.28002E-03                                 1401600300066 
2.17486E+004.31117E-016.01989E-03                                 1401600300067 
2.24109E+004.25525E-015.86840E-03                                 1401600300068 
2.30935E+004.37246E-015.99505E-03                                 1401600300069 
2.37969E+004.32382E-015.90958E-03                                 1401600300070 
2.45216E+004.39661E-016.02376E-03                                 1401600300071 
2.52685E+004.35652E-015.98243E-03                                 1401600300072 
2.60381E+004.22755E-015.87457E-03                                 1401600300073 
2.68311E+004.36239E-015.99654E-03                                 1401600300074 
2.76483E+004.41675E-016.10937E-03                                 1401600300075 
2.84904E+004.31609E-016.13615E-03                                 1401600300076 
2.93581E+004.31585E-016.29019E-03                                 1401600300077 
3.02523E+004.51455E-016.02065E-03                                 1401600300078 
3.11737E+004.52542E-016.10351E-03                                 1401600300079 
3.21231E+004.47470E-016.21288E-03                                 1401600300080 
3.31015E+004.59809E-016.44359E-03                                 1401600300081 
3.41097E+004.53616E-016.51656E-03                                 1401600300082 
3.51485E+004.65356E-016.65893E-03                                 1401600300083 
3.62191E+004.72276E-016.71412E-03                                 1401600300084 
3.73222E+004.87806E-016.77849E-03                                 1401600300085 
3.84589E+004.89154E-016.74672E-03                                 1401600300086 
3.96302E+004.78327E-016.55228E-03                                 1401600300087 
4.08372E+004.98534E-016.73316E-03                                 1401600300088 
4.20810E+005.04855E-016.81695E-03                                 1401600300089 
4.33627E+004.98084E-016.83704E-03                                 1401600300090 
4.46834E+004.98667E-016.75805E-03                                 1401600300091 
4.60443E+005.32774E-017.01397E-03                                 1401600300092 
4.74466E+005.21198E-016.90114E-03                                 1401600300093 
4.88917E+005.14953E-016.89432E-03                                 1401600300094 
5.03808E+005.16044E-016.93952E-03                                 1401600300095 
5.19152E+005.19774E-016.99508E-03                                 1401600300096 
5.34964E+005.32226E-017.25068E-03                                 1401600300097 
5.51257E+005.32133E-017.29562E-03                                 1401600300098 
5.68047E+005.39407E-017.38315E-03                                 1401600300099 
5.85348E+005.51857E-017.47205E-03                                 1401600300100 
6.03176E+005.60261E-017.39850E-03                                 1401600300101 
6.21547E+005.80991E-017.55003E-03                                 1401600300102 
6.40477E+006.02783E-017.47332E-03                                 1401600300103 
6.59984E+006.20190E-017.12622E-03                                 1401600300104 
6.80085E+006.21897E-016.94406E-03                                 1401600300105 
7.00798E+006.17013E-016.73236E-03                                 1401600300106 
7.22142E+006.00253E-016.61156E-03                                 1401600300107 
7.44136E+005.98520E-016.85526E-03                                 1401600300108 
7.66800E+005.70625E-016.67612E-03                                 1401600300109 
7.90155E+005.66305E-016.72127E-03                                 1401600300110 
8.14220E+005.67745E-016.67019E-03                                 1401600300111 
8.39019E+005.66798E-016.56006E-03                                 1401600300112 
8.64573E+005.76665E-016.67811E-03                                 1401600300113 
8.90905E+005.74443E-016.76509E-03                                 1401600300114 
9.18039E+005.78627E-016.94149E-03                                 1401600300115 
9.46000E+005.93533E-017.13056E-03                                 1401600300116 
9.74812E+005.78147E-017.12466E-03                                 1401600300117 
1.00450E+015.93974E-017.38050E-03                                 1401600300118 
1.03510E+015.74575E-017.34305E-03                                 1401600300119 
1.06662E+015.86568E-017.63241E-03                                 1401600300120 
1.09911E+015.81834E-017.78043E-03                                 1401600300121 
1.13258E+015.91101E-017.99861E-03                                 1401600300122 
1.16708E+016.01936E-018.27994E-03                                 1401600300123 
1.20262E+015.85792E-018.14268E-03                                 1401600300124 
1.23925E+015.82329E-018.17601E-03                                 1401600300125 
1.27699E+015.51643E-017.89061E-03                                 1401600300126 
1.31589E+015.35676E-017.69372E-03                                 1401600300127 
1.35597E+015.52633E-017.79073E-03                                 1401600300128 
1.39726E+015.59735E-017.81537E-03                                 1401600300129 
1.43982E+015.86020E-017.99349E-03                                 1401600300130 
1.48367E+015.73983E-017.89753E-03                                 1401600300131 
1.52886E+016.07174E-018.25290E-03                                 1401600300132 
1.57542E+016.14259E-018.33707E-03                                 1401600300133 
1.62341E+016.19015E-018.44513E-03                                 1401600300134 
1.67285E+016.44903E-018.74614E-03                                 1401600300135 
1.72380E+016.38985E-018.77316E-03                                 1401600300136 
1.77630E+016.44466E-018.88046E-03                                 1401600300137 
1.83040E+016.66895E-019.22173E-03                                 1401600300138 
1.88615E+016.52696E-019.18392E-03                                 1401600300139 
1.94360E+016.99333E-019.69960E-03                                 1401600300140 
2.00279E+016.98392E-019.62467E-03                                 1401600300141 
2.06379E+017.20886E-019.85099E-03                                 1401600300142 
2.12665E+017.28833E-019.78946E-03                                 1401600300143 
2.19142E+017.50489E-019.92677E-03                                 1401600300144 
2.25816E+017.50180E-019.82967E-03                                 1401600300145 
2.32694E+017.59150E-019.83918E-03                                 1401600300146 
2.39781E+017.36816E-019.69242E-03                                 1401600300147 
2.47084E+017.54755E-019.87782E-03                                 1401600300148 
2.54609E+017.67627E-011.00321E-02                                 1401600300149 
2.62364E+017.52924E-019.86535E-03                                 1401600300150 
2.70355E+017.56469E-019.75901E-03                                 1401600300151 
2.78589E+017.54900E-019.78273E-03                                 1401600300152 
2.87074E+017.69111E-019.85442E-03                                 1401600300153 
2.95817E+017.72792E-019.76797E-03                                 1401600300154 
3.04827E+017.86905E-019.85901E-03                                 1401600300155 
3.14111E+018.03554E-019.98946E-03                                 1401600300156 
3.23678E+018.15918E-011.01020E-02                                 1401600300157 
3.33536E+018.10862E-019.99776E-03                                 1401600300158 
3.43694E+017.99520E-019.85856E-03                                 1401600300159 
3.54162E+018.11058E-019.92428E-03                                 1401600300160 
3.64949E+018.13896E-019.99989E-03                                 1401600300161 
3.76064E+018.41295E-011.01645E-02                                 1401600300162 
3.87518E+018.44964E-011.01794E-02                                 1401600300163 
3.99320E+018.54518E-011.02224E-02                                 1401600300164 
4.11482E+018.62462E-011.02986E-02                                 1401600300165 
4.24015E+018.41229E-011.00800E-02                                 1401600300166 
4.36929E+018.59967E-011.02859E-02                                 1401600300167 
4.50236E+018.52881E-011.02091E-02                                 1401600300168 
4.63949E+018.75688E-011.04531E-02                                 1401600300169 
4.78080E+018.58106E-011.01890E-02                                 1401600300170 
4.92640E+018.63311E-011.03207E-02                                 1401600300171 
5.07645E+018.61816E-011.03074E-02                                 1401600300172 
5.23106E+018.81520E-011.05694E-02                                 1401600300173 
5.39038E+018.73868E-011.05641E-02                                 1401600300174 
5.55455E+018.76815E-011.05674E-02                                 1401600300175 
5.72373E+018.78143E-011.06684E-02                                 1401600300176 
5.89806E+018.93128E-011.07288E-02                                 1401600300177 
6.07769E+018.82127E-011.07040E-02                                 1401600300178 
6.26280E+018.70542E-011.06694E-02                                 1401600300179 
6.45354E+018.72060E-011.07075E-02                                 1401600300180 
6.65010E+018.51551E-011.06170E-02                                 1401600300181 
6.85264E+018.67133E-011.06977E-02                                 1401600300182 
7.06135E+018.90097E-011.10316E-02                                 1401600300183 
7.27642E+018.66330E-011.08581E-02                                 1401600300184 
7.49803E+018.91969E-011.12238E-02                                 1401600300185 
7.72640E+018.84166E-011.12104E-02                                 1401600300186 
7.96172E+018.95829E-011.13249E-02                                 1401600300187 
8.20421E+018.95075E-011.14527E-02                                 1401600300188 
8.45408E+018.96946E-011.14896E-02                                 1401600300189 
8.71157E+018.95848E-011.16062E-02                                 1401600300190 
8.97689E+018.96257E-011.16754E-02                                 1401600300191 
9.25030E+019.00939E-011.18794E-02                                 1401600300192 
9.53204E+018.96877E-011.19783E-02                                 1401600300193 
9.82235E+019.04972E-011.21404E-02                                 1401600300194 
1.01215E+029.01617E-011.22396E-02                                 1401600300195 
1.04298E+029.26720E-011.25032E-02                                 1401600300196 
1.07474E+029.01773E-011.25829E-02                                 1401600300197 
1.10748E+028.85920E-011.25017E-02                                 1401600300198 
1.14121E+028.80840E-011.26030E-02                                 1401600300199 
1.17596E+029.01074E-011.29582E-02                                 1401600300200 
1.21178E+029.12895E-011.32162E-02                                 1401600300201 
1.24869E+029.14086E-011.34921E-02                                 1401600300202 
1.28672E+028.96985E-011.33987E-02                                 1401600300203 
1.32591E+029.06856E-011.38871E-02                                 1401600300204 
1.36629E+029.00559E-011.39468E-02                                 1401600300205 
1.40790E+029.14845E-011.42143E-02                                 1401600300206 
1.45078E+029.04291E-011.42722E-02                                 1401600300207 
1.49497E+029.03661E-011.45484E-02                                 1401600300208 
1.54050E+029.03933E-011.49067E-02                                 1401600300209 
1.58742E+028.93637E-011.51419E-02                                 1401600300210 
1.63577E+029.16344E-011.55461E-02                                 1401600300211 
1.68559E+029.04470E-011.57389E-02                                 1401600300212 
1.73693E+029.13564E-011.61147E-02                                 1401600300213 
1.78983E+029.17754E-011.63342E-02                                 1401600300214 
1.84434E+029.16804E-011.69316E-02                                 1401600300215 
1.90052E+029.17668E-011.73369E-02                                 1401600300216 
1.95840E+028.97440E-011.73515E-02                                 1401600300217 
2.01805E+029.35334E-011.84062E-02                                 1401600300218 
2.07951E+028.83879E-011.82494E-02                                 1401600300219 
2.14284E+029.09102E-011.91641E-02                                 1401600300220 
2.20811E+029.28196E-011.99419E-02                                 1401600300221 
2.27536E+029.33156E-012.06310E-02                                 1401600300222 
2.34466E+029.01653E-012.06859E-02                                 1401600300223 
2.41607E+029.12799E-012.12270E-02                                 1401600300224 
2.48966E+029.07896E-012.25376E-02                                 1401600300225 
2.56548E+029.13780E-012.32580E-02                                 1401600300226 
2.64362E+029.38697E-012.49146E-02                                 1401600300227 
2.72414E+029.13826E-012.52249E-02                                 1401600300228 
2.80711E+029.06382E-012.66796E-02                                 1401600300229 
2.89260E+029.14992E-012.80475E-02                                 1401600300230 
2.98070E+029.58495E-012.97422E-02                                 1401600300231 
3.07148E+029.24315E-013.08195E-02                                 1401600300232 
3.16503E+029.11053E-013.27452E-02                                 1401600300233 
3.26143E+029.01966E-013.41222E-02                                 1401600300234 
3.36076E+028.64398E-013.52450E-02                                 1401600300235 
3.46312E+029.07073E-013.82449E-02                                 1401600300236 
3.56859E+029.06473E-014.09847E-02                                 1401600300237 
ENDDATA            205          0                                 1401600300238 
ENDSUBENT          237          0                                 1401600399999 
SUBENT        14016004   20101008                             13671401600400001 
BIB                  5         24                                 1401600400002 
REACTION   ((94-PU-239(N,F),,SIG)/(92-U-235(N,F),,SIG))           1401600400003 
ERR-ANALYS (ERR-S) Statistics                                     1401600400004 
           (ERR-1) Total fission mass uncertainty                 1401600400005 
COMMENT    A.Carlson (written in the data file)                   1401600400006 
            Lisowski et al. data, final 6 Nov. 2001.              1401600400007 
            The following data are the final Lisowski et al.      1401600400008 
            239Pu(n,f)/235U(n,f) cross section ratio results.     1401600400009 
            The uncertainty in the ratio is shown (so the percent 1401600400010 
            uncertainty in the ratio data is                      1401600400011 
             (100*Ratio Uncertainty)/(Cross Section Ratio).       1401600400012 
            The final results are a private communication from    1401600400013 
            Paul Lisowski. There are several publications which   1401600400014 
            can be given for the progress of the work, but not    1401600400015 
            the final results (e.g., P.W. Lisowski et al.,        1401600400016 
            Proc. of the NEANDC Specialists Meeting on Neutron    1401600400017 
            Cross Section Standards for the Energy Region above   1401600400018 
            20 MeV, 21-23 May, 1991, Uppsala, Sweden,             1401600400019 
            NEANDC-305/U, pp. 177-186.)                           1401600400020 
           P.Lisowski (2010-09-20)                                1401600400021 
            Final values                                          1401600400022 
STATUS     (TABLE) Received by e-mail from A.Carlson              1401600400023 
HISTORY    (20100719R) On                                         1401600400024 
           (20100728C) On                                         1401600400025 
           (20100920U) On. Confirmed as the final data by Lisowski1401600400026 
ENDBIB              24          0                                 1401600400027 
COMMON               1          3                                 1401600400028 
ERR-1                                                             1401600400029 
PER-CENT                                                          1401600400030 
 0.8                                                              1401600400031 
ENDCOMMON            3          0                                 1401600400032 
DATA                 3        209                                 1401600400033 
EN         DATA       ERR-S                                       1401600400034 
MEV        NO-DIM     NO-DIM                                      1401600400035 
 5.0000E-01 1.3865E+00 3.1531E-02                                 1401600400036 
 5.1523E-01 1.4179E+00 3.0651E-02                                 1401600400037 
 5.3092E-01 1.3106E+00 2.8015E-02                                 1401600400038 
 5.4709E-01 1.3976E+00 2.7633E-02                                 1401600400039 
 5.6375E-01 1.3539E+00 2.6133E-02                                 1401600400040 
 5.8092E-01 1.4286E+00 2.6373E-02                                 1401600400041 
 5.9862E-01 1.4483E+00 2.5340E-02                                 1401600400042 
 6.1685E-01 1.4637E+00 2.4750E-02                                 1401600400043 
 6.3564E-01 1.3981E+00 2.2985E-02                                 1401600400044 
 6.5500E-01 1.4432E+00 2.2901E-02                                 1401600400045 
 6.7494E-01 1.4232E+00 2.1999E-02                                 1401600400046 
 6.9550E-01 1.4527E+00 2.1338E-02                                 1401600400047 
 7.1668E-01 1.4396E+00 2.0534E-02                                 1401600400048 
 7.3851E-01 1.4552E+00 2.0276E-02                                 1401600400049 
 7.6101E-01 1.4870E+00 2.0139E-02                                 1401600400050 
 7.8418E-01 1.5019E+00 1.9665E-02                                 1401600400051 
 8.0807E-01 1.5363E+00 1.9189E-02                                 1401600400052 
 8.3268E-01 1.5050E+00 1.8381E-02                                 1401600400053 
 8.5804E-01 1.4916E+00 1.7897E-02                                 1401600400054 
 8.8417E-01 1.4937E+00 1.7415E-02                                 1401600400055 
 9.1110E-01 1.4442E+00 1.6483E-02                                 1401600400056 
 9.3885E-01 1.4286E+00 1.5698E-02                                 1401600400057 
 9.6744E-01 1.4294E+00 1.5448E-02                                 1401600400058 
 9.9691E-01 1.4290E+00 1.5346E-02                                 1401600400059 
 1.0273E+00 1.4376E+00 1.4956E-02                                 1401600400060 
 1.0586E+00 1.4785E+00 1.5032E-02                                 1401600400061 
 1.0908E+00 1.4664E+00 1.4449E-02                                 1401600400062 
 1.1240E+00 1.4372E+00 1.3806E-02                                 1401600400063 
 1.1583E+00 1.4714E+00 1.3754E-02                                 1401600400064 
 1.1935E+00 1.5056E+00 1.3658E-02                                 1401600400065 
 1.2299E+00 1.5058E+00 1.3520E-02                                 1401600400066 
 1.2673E+00 1.5346E+00 1.3531E-02                                 1401600400067 
 1.3059E+00 1.5380E+00 1.3346E-02                                 1401600400068 
 1.3457E+00 1.5382E+00 1.3226E-02                                 1401600400069 
 1.3867E+00 1.5558E+00 1.3000E-02                                 1401600400070 
 1.4289E+00 1.5637E+00 1.2828E-02                                 1401600400071 
 1.4725E+00 1.5369E+00 1.2579E-02                                 1401600400072 
 1.5173E+00 1.5555E+00 1.2364E-02                                 1401600400073 
 1.5635E+00 1.5534E+00 1.2283E-02                                 1401600400074 
 1.6111E+00 1.5590E+00 1.2164E-02                                 1401600400075 
 1.6602E+00 1.5458E+00 1.1946E-02                                 1401600400076 
 1.7108E+00 1.5207E+00 1.1535E-02                                 1401600400077 
 1.7629E+00 1.5229E+00 1.1443E-02                                 1401600400078 
 1.8166E+00 1.5208E+00 1.1160E-02                                 1401600400079 
 1.8719E+00 1.5168E+00 1.1065E-02                                 1401600400080 
 1.9289E+00 1.5209E+00 1.1051E-02                                 1401600400081 
 1.9877E+00 1.5303E+00 1.0936E-02                                 1401600400082 
 2.0482E+00 1.5214E+00 1.0985E-02                                 1401600400083 
 2.1106E+00 1.5266E+00 1.1124E-02                                 1401600400084 
 2.1749E+00 1.5195E+00 1.0629E-02                                 1401600400085 
 2.2411E+00 1.5162E+00 1.0462E-02                                 1401600400086 
 2.3094E+00 1.5133E+00 1.0451E-02                                 1401600400087 
 2.3797E+00 1.5247E+00 1.0432E-02                                 1401600400088 
 2.4522E+00 1.4996E+00 1.0263E-02                                 1401600400089 
 2.5269E+00 1.4934E+00 1.0227E-02                                 1401600400090 
 2.6038E+00 1.4973E+00 1.0240E-02                                 1401600400091 
 2.6831E+00 1.5060E+00 1.0298E-02                                 1401600400092 
 2.7648E+00 1.5111E+00 1.0409E-02                                 1401600400093 
 2.8490E+00 1.4788E+00 1.0432E-02                                 1401600400094 
 2.9358E+00 1.5568E+00 1.1327E-02                                 1401600400095 
 3.0252E+00 1.5096E+00 1.0059E-02                                 1401600400096 
 3.1174E+00 1.5063E+00 1.0196E-02                                 1401600400097 
 3.2123E+00 1.5094E+00 1.0432E-02                                 1401600400098 
 3.3102E+00 1.5195E+00 1.0702E-02                                 1401600400099 
 3.4110E+00 1.5443E+00 1.1077E-02                                 1401600400100 
 3.5149E+00 1.5277E+00 1.1072E-02                                 1401600400101 
 3.6219E+00 1.5460E+00 1.1175E-02                                 1401600400102 
 3.7322E+00 1.5367E+00 1.1016E-02                                 1401600400103 
 3.8459E+00 1.5362E+00 1.0869E-02                                 1401600400104 
 3.9630E+00 1.5634E+00 1.0828E-02                                 1401600400105 
 4.0837E+00 1.5370E+00 1.0595E-02                                 1401600400106 
 4.2081E+00 1.5512E+00 1.0781E-02                                 1401600400107 
 4.3363E+00 1.5343E+00 1.0825E-02                                 1401600400108 
 4.4683E+00 1.5341E+00 1.0704E-02                                 1401600400109 
 4.6044E+00 1.5675E+00 1.0740E-02                                 1401600400110 
 4.7447E+00 1.5699E+00 1.0714E-02                                 1401600400111 
 4.8892E+00 1.5601E+00 1.0720E-02                                 1401600400112 
 5.0381E+00 1.5605E+00 1.0774E-02                                 1401600400113 
 5.1915E+00 1.5760E+00 1.0919E-02                                 1401600400114 
 5.3496E+00 1.5919E+00 1.1221E-02                                 1401600400115 
 5.5126E+00 1.6016E+00 1.1319E-02                                 1401600400116 
 5.6805E+00 1.6271E+00 1.1491E-02                                 1401600400117 
 5.8535E+00 1.6292E+00 1.1448E-02                                 1401600400118 
 6.0318E+00 1.6057E+00 1.1212E-02                                 1401600400119 
 6.2155E+00 1.5442E+00 1.0793E-02                                 1401600400120 
 6.4048E+00 1.4858E+00 1.0171E-02                                 1401600400121 
 6.5998E+00 1.4264E+00 9.2179E-03                                 1401600400122 
 6.8009E+00 1.3914E+00 8.7743E-03                                 1401600400123 
 7.0080E+00 1.3460E+00 8.3367E-03                                 1401600400124 
 7.2214E+00 1.3017E+00 8.1028E-03                                 1401600400125 
 7.4414E+00 1.2965E+00 8.4055E-03                                 1401600400126 
 7.6680E+00 1.2808E+00 8.4338E-03                                 1401600400127 
 7.9016E+00 1.2670E+00 8.4919E-03                                 1401600400128 
 8.1422E+00 1.2724E+00 8.4090E-03                                 1401600400129 
 8.3902E+00 1.2871E+00 8.2913E-03                                 1401600400130 
 8.6457E+00 1.2651E+00 8.2178E-03                                 1401600400131 
 8.9091E+00 1.2708E+00 8.3690E-03                                 1401600400132 
 9.1804E+00 1.2860E+00 8.6703E-03                                 1401600400133 
 9.4600E+00 1.2825E+00 8.8129E-03                                 1401600400134 
 9.7481E+00 1.2939E+00 8.9989E-03                                 1401600400135 
 1.0045E+01 1.2857E+00 9.1226E-03                                 1401600400136 
 1.0351E+01 1.2946E+00 9.3683E-03                                 1401600400137 
 1.0666E+01 1.2981E+00 9.6168E-03                                 1401600400138 
 1.0991E+01 1.3077E+00 9.9257E-03                                 1401600400139 
 1.1326E+01 1.3081E+00 1.0072E-02                                 1401600400140 
 1.1671E+01 1.3136E+00 1.0253E-02                                 1401600400141 
 1.2026E+01 1.3086E+00 1.0386E-02                                 1401600400142 
 1.2393E+01 1.2878E+00 1.0301E-02                                 1401600400143 
 1.2770E+01 1.2861E+00 1.0311E-02                                 1401600400144 
 1.3159E+01 1.2479E+00 1.0002E-02                                 1401600400145 
 1.3560E+01 1.2126E+00 9.7338E-03                                 1401600400146 
 1.3973E+01 1.1624E+00 9.3469E-03                                 1401600400147 
 1.4398E+01 1.1544E+00 9.2724E-03                                 1401600400148 
 1.4837E+01 1.1488E+00 9.2530E-03                                 1401600400149 
 1.5289E+01 1.1149E+00 9.0872E-03                                 1401600400150 
 1.5754E+01 1.1337E+00 9.3127E-03                                 1401600400151 
 1.6234E+01 1.1272E+00 9.2885E-03                                 1401600400152 
 1.6729E+01 1.1306E+00 9.3449E-03                                 1401600400153 
 1.7238E+01 1.1248E+00 9.3799E-03                                 1401600400154 
 1.7763E+01 1.1431E+00 9.5773E-03                                 1401600400155 
 1.8304E+01 1.1281E+00 9.5344E-03                                 1401600400156 
 1.8862E+01 1.1628E+00 9.8045E-03                                 1401600400157 
 1.9436E+01 1.1736E+00 9.9946E-03                                 1401600400158 
 2.0028E+01 1.1484E+00 9.8464E-03                                 1401600400159 
 2.0638E+01 1.1481E+00 9.7496E-03                                 1401600400160 
 2.1267E+01 1.1366E+00 9.6187E-03                                 1401600400161 
 2.1914E+01 1.1252E+00 9.4931E-03                                 1401600400162 
 2.2582E+01 1.1058E+00 9.2840E-03                                 1401600400163 
 2.3269E+01 1.1074E+00 9.2326E-03                                 1401600400164 
 2.3978E+01 1.1095E+00 9.1828E-03                                 1401600400165 
 2.4708E+01 1.0937E+00 9.0234E-03                                 1401600400166 
 2.5461E+01 1.0949E+00 9.0353E-03                                 1401600400167 
 2.6236E+01 1.0954E+00 8.9885E-03                                 1401600400168 
 2.7036E+01 1.0985E+00 8.9585E-03                                 1401600400169 
 2.7859E+01 1.1021E+00 8.9503E-03                                 1401600400170 
 2.8707E+01 1.0777E+00 8.7046E-03                                 1401600400171 
 2.9582E+01 1.0929E+00 8.7631E-03                                 1401600400172 
 3.0483E+01 1.0944E+00 8.7220E-03                                 1401600400173 
 3.1411E+01 1.0781E+00 8.6047E-03                                 1401600400174 
 3.2368E+01 1.0826E+00 8.5735E-03                                 1401600400175 
 3.3354E+01 1.0741E+00 8.4574E-03                                 1401600400176 
 3.4369E+01 1.0773E+00 8.4233E-03                                 1401600400177 
 3.5416E+01 1.0757E+00 8.3270E-03                                 1401600400178 
 3.6495E+01 1.0829E+00 8.3420E-03                                 1401600400179 
 3.7606E+01 1.0804E+00 8.3485E-03                                 1401600400180 
 3.8752E+01 1.0744E+00 8.2358E-03                                 1401600400181 
 3.9932E+01 1.0845E+00 8.3003E-03                                 1401600400182 
 4.1148E+01 1.0774E+00 8.2295E-03                                 1401600400183 
 4.2402E+01 1.0662E+00 8.1375E-03                                 1401600400184 
 4.3693E+01 1.0794E+00 8.1938E-03                                 1401600400185 
 4.5024E+01 1.0745E+00 8.1078E-03                                 1401600400186 
 4.6395E+01 1.0802E+00 8.1323E-03                                 1401600400187 
 4.7808E+01 1.0851E+00 8.1662E-03                                 1401600400188 
 4.9264E+01 1.0817E+00 8.1108E-03                                 1401600400189 
 5.0765E+01 1.0797E+00 8.1518E-03                                 1401600400190 
 5.2311E+01 1.0748E+00 8.0589E-03                                 1401600400191 
 5.3904E+01 1.0803E+00 8.1183E-03                                 1401600400192 
 5.5546E+01 1.0945E+00 8.1943E-03                                 1401600400193 
 5.7237E+01 1.0888E+00 8.1847E-03                                 1401600400194 
 5.8981E+01 1.0958E+00 8.2463E-03                                 1401600400195 
 6.0777E+01 1.0851E+00 8.1248E-03                                 1401600400196 
 6.2628E+01 1.0800E+00 8.1019E-03                                 1401600400197 
 6.4535E+01 1.0834E+00 8.1587E-03                                 1401600400198 
 6.6501E+01 1.0730E+00 8.0813E-03                                 1401600400199 
 6.8526E+01 1.0985E+00 8.2947E-03                                 1401600400200 
 7.0614E+01 1.0980E+00 8.3173E-03                                 1401600400201 
 7.2764E+01 1.0823E+00 8.2172E-03                                 1401600400202 
 7.4980E+01 1.0748E+00 8.2045E-03                                 1401600400203 
 7.7264E+01 1.0814E+00 8.2934E-03                                 1401600400204 
 7.9617E+01 1.0856E+00 8.3310E-03                                 1401600400205 
 8.2042E+01 1.0744E+00 8.3121E-03                                 1401600400206 
 8.4541E+01 1.1001E+00 8.5116E-03                                 1401600400207 
 8.7116E+01 1.0928E+00 8.5301E-03                                 1401600400208 
 8.9769E+01 1.0831E+00 8.4777E-03                                 1401600400209 
 9.2503E+01 1.0828E+00 8.5072E-03                                 1401600400210 
 9.5320E+01 1.0894E+00 8.6259E-03                                 1401600400211 
 9.8224E+01 1.0901E+00 8.7242E-03                                 1401600400212 
 1.0122E+02 1.0719E+00 8.6658E-03                                 1401600400213 
 1.0430E+02 1.0810E+00 8.7582E-03                                 1401600400214 
 1.0747E+02 1.0743E+00 8.8388E-03                                 1401600400215 
 1.1075E+02 1.0820E+00 8.8861E-03                                 1401600400216 
 1.1412E+02 1.0832E+00 9.0368E-03                                 1401600400217 
 1.1760E+02 1.0773E+00 9.0736E-03                                 1401600400218 
 1.2118E+02 1.0721E+00 9.1472E-03                                 1401600400219 
 1.2487E+02 1.0755E+00 9.2223E-03                                 1401600400220 
 1.2867E+02 1.0784E+00 9.3211E-03                                 1401600400221 
 1.3259E+02 1.0635E+00 9.4489E-03                                 1401600400222 
 1.3663E+02 1.0645E+00 9.6028E-03                                 1401600400223 
 1.4079E+02 1.0683E+00 9.7423E-03                                 1401600400224 
 1.4508E+02 1.0612E+00 9.7547E-03                                 1401600400225 
 1.4950E+02 1.0746E+00 1.0081E-02                                 1401600400226 
 1.5405E+02 1.0773E+00 1.0244E-02                                 1401600400227 
 1.5874E+02 1.0587E+00 1.0275E-02                                 1401600400228 
 1.6358E+02 1.0551E+00 1.0390E-02                                 1401600400229 
 1.6856E+02 1.0622E+00 1.0656E-02                                 1401600400230 
 1.7369E+02 1.0572E+00 1.0831E-02                                 1401600400231 
 1.7898E+02 1.0729E+00 1.1144E-02                                 1401600400232 
 1.8443E+02 1.0595E+00 1.1363E-02                                 1401600400233 
 1.9005E+02 1.0417E+00 1.1515E-02                                 1401600400234 
 1.9584E+02 1.0600E+00 1.1908E-02                                 1401600400235 
 2.0181E+02 1.0547E+00 1.2087E-02                                 1401600400236 
 2.0795E+02 1.0657E+00 1.2722E-02                                 1401600400237 
 2.1428E+02 1.0446E+00 1.2815E-02                                 1401600400238 
 2.2081E+02 1.0371E+00 1.3244E-02                                 1401600400239 
 2.2754E+02 1.0482E+00 1.3880E-02                                 1401600400240 
 2.3447E+02 1.0445E+00 1.4164E-02                                 1401600400241 
 2.4161E+02 1.0397E+00 1.4622E-02                                 1401600400242 
 2.4897E+02 1.0445E+00 1.5284E-02                                 1401600400243 
 2.5655E+02 1.0506E+00 1.5978E-02                                 1401600400244 
ENDDATA            211          0                                 1401600400245 
ENDSUBENT          244          0                                 1401600499999 
ENDENTRY             4          0                                 1401699999999 
