ENTRY            14018   20050630                             13361401800000001 
SUBENT        14018001   20050630                             13361401800100001 
BIB                  7          8                                 1401800100002 
INSTITUTE  (1USAPPO)                                              1401800100003 
REFERENCE  (W,YOUNG,1968) Private communication                   1401800100004 
AUTHOR     (T.E.Young)                                            1401800100005 
TITLE      Low energy neutron total cross sections for natural    1401800100006 
            Lu, 175Lu, 176Lu                                      1401800100007 
FACILITY   MTR Fast Chopper                                       1401800100008 
METHOD     (TOF)                                                  1401800100009 
HISTORY    (20050630C) DR                                         1401800100010 
ENDBIB               8          0                                 1401800100011 
NOCOMMON             0          0                                 1401800100012 
ENDSUBENT           11          0                                 1401800199999 
SUBENT        14018002   20050630                             13361401800200001 
BIB                  4          4                                 1401800200002 
REACTION   (71-LU-0(N,TOT),,SIG)                                  1401800200003 
ERR-ANALYS No information                                         1401800200004 
SAMPLE     Packed powder sample Lu2O3, 1/n=57.5 b/a               1401800200005 
STATUS     Data received on tables                                1401800200006 
ENDBIB               4          0                                 1401800200007 
NOCOMMON             0          0                                 1401800200008 
DATA                 2        132                                 1401800200009 
EN         DATA                                                   1401800200010 
EV         B                                                      1401800200011 
  4.61596    60.60                                                1401800200012 
  4.40407    36.54                                                1401800200013 
  4.20644    21.72                                                1401800200014 
  4.02181    16.90                                                1401800200015 
  3.84909    14.07                                                1401800200016 
  3.68725    14.31                                                1401800200017 
  3.49892    14.75                                                1401800200018 
  3.32465    15.86                                                1401800200019 
  3.19445    19.18                                                1401800200020 
  3.04217    27.06                                                1401800200021 
  2.87339    63.04                                                1401800200022 
  2.74324   129.76                                                1401800200023 
  2.62174   163.11                                                1401800200024 
  2.48630    68.83                                                1401800200025 
  2.36109    35.65                                                1401800200026 
  2.26384    23.78                                                1401800200027 
  2.17247    19.47                                                1401800200028 
  2.05357    17.10                                                1401800200029 
  1.94417    16.05                                                1401800200030 
  1.85721    15.75                                                1401800200031 
  1.77596    20.01                                                1401800200032 
  1.68773    43.81                                                1401800200033 
  1.60591    91.42                                                1401800200034 
  1.52990    48.03                                                1401800200035 
  1.45916    22.95                                                1401800200036 
  1.39322    16.97                                                1401800200037 
  1.32319    13.99                                                1401800200038 
  1.25831    14.02                                                1401800200039 
  1.19808    13.09                                                1401800200040 
  1.14208    13.33                                                1401800200041 
  1.08992    13.00                                                1401800200042 
  1.03539    12.93                                                1401800200043 
  0.98486    12.97                                                1401800200044 
  0.93794    12.84                                                1401800200045 
  0.89429    12.87                                                1401800200046 
  0.85362    12.74                                                1401800200047 
  0.81160    13.47                                                1401800200048 
  0.77261    13.27                                                1401800200049 
  0.73636    12.97                                                1401800200050 
  0.70261    13.67                                                1401800200051 
  0.66809    13.71                                                1401800200052 
  0.63606    13.59                                                1401800200053 
  0.60627    13.49                                                1401800200054 
  0.57611    13.85                                                1401800200055 
  0.54814    14.81                                                1401800200056 
  0.52215    14.49                                                1401800200057 
  0.49798    14.90                                                1401800200058 
  0.47544    15.09                                                1401800200059 
  0.45271    15.52                                                1401800200060 
  0.43001    16.19                                                1401800200061 
  0.41042    16.45                                                1401800200062 
  0.39079    16.92                                                1401800200063 
  0.37128    17.80                                                1401800200064 
  0.35435    18.95                                                1401800200065 
  0.33748    19.85                                                1401800200066 
  0.32077    20.92                                                1401800200067 
  0.30621    22.75                                                1401800200068 
  0.29174    24.28                                                1401800200069 
  0.27746    27.40                                                1401800200070 
  0.26421    30.65                                                1401800200071 
  0.25189    34.49                                                1401800200072 
  0.24040    39.46                                                1401800200073 
  0.22848    47.00                                                1401800200074 
  0.21741    56.92                                                1401800200075 
  0.20714    69.83                                                1401800200076 
  0.19709    87.98                                                1401800200077 
  0.18775   113.13                                                1401800200078 
  0.17906   144.59                                                1401800200079 
  0.17057   185.33                                                1401800200080 
  0.16231   235.77                                                1401800200081 
  0.15463   283.36                                                1401800200082 
  0.14718   318.77                                                1401800200083 
  0.14025   320.39                                                1401800200084 
  0.13379   320.39                                                1401800200085 
  0.12727   291.44                                                1401800200086 
  0.12122   257.79                                                1401800200087 
  0.11559   224.97                                                1401800200088 
  0.10993   195.64                                                1401800200089 
  0.10468   172.71                                                1401800200090 
  0.09980   153.75                                                1401800200091 
  0.09493   138.62                                                1401800200092 
  0.09040   126.40                                                1401800200093 
  0.08619   117.00                                                1401800200094 
  0.08201   109.10                                                1401800200095 
  0.07813   102.76                                                1401800200096 
  0.07440    97.34                                                1401800200097 
  0.07083    92.96                                                1401800200098 
  0.06751    89.29                                                1401800200099 
  0.06424    86.47                                                1401800200100 
  0.06120    84.13                                                1401800200101 
  0.05286    82.30                                                1401800200102 
  0.05251    81.12                                                1401800200103 
  0.05236    79.84                                                1401800200104 
  0.05033    78.86                                                1401800200105 
  0.04798    78.16                                                1401800200106 
  0.04568    77.43                                                1401800200107 
  0.04350    77.08                                                1401800200108 
  0.04142    76.78                                                1401800200109 
  0.03944    77.04                                                1401800200110 
  0.03756    76.97                                                1401800200111 
  0.03577    77.36                                                1401800200112 
  0.03408    77.69                                                1401800200113 
  0.03246    78.43                                                1401800200114 
  0.03093    78.93                                                1401800200115 
  0.02945    79.79                                                1401800200116 
  0.02805    80.35                                                1401800200117 
  0.02672    81.41                                                1401800200118 
  0.02544    82.34                                                1401800200119 
  0.02423    83.27                                                1401800200120 
  0.02308    84.60                                                1401800200121 
  0.02198    85.56                                                1401800200122 
  0.02092    86.54                                                1401800200123 
  0.01992    88.05                                                1401800200124 
  0.01897    88.99                                                1401800200125 
  0.01807    89.75                                                1401800200126 
  0.01721    91.19                                                1401800200127 
  0.01639    92.25                                                1401800200128 
  0.01561    94.00                                                1401800200129 
  0.01487    95.95                                                1401800200130 
  0.01416    97.27                                                1401800200131 
  0.01349   100.09                                                1401800200132 
  0.01285   102.27                                                1401800200133 
  0.01223   104.76                                                1401800200134 
  0.01165   105.45                                                1401800200135 
  0.01109   108.36                                                1401800200136 
  0.01056   112.35                                                1401800200137 
  0.01006   113.38                                                1401800200138 
  0.00958   116.63                                                1401800200139 
  0.00912   119.23                                                1401800200140 
  0.00869   117.97                                                1401800200141 
  0.00828   114.86                                                1401800200142 
  0.00799   111.18                                                1401800200143 
ENDDATA            134          0                                 1401800200144 
ENDSUBENT          143          0                                 1401800299999 
SUBENT        14018003   20050630                             13361401800300001 
BIB                  5          6                                 1401800300002 
REACTION   (71-LU-0(N,TOT),,SIG)                                  1401800300003 
ERR-ANALYS No information                                         1401800300004 
SAMPLE     Pressed sample, Lu2O3+ Al powder pressed               1401800300005 
           1/n=161.8                                              1401800300006 
CORRECTION sigma(n,tot)=82. barns at 0.0253 eV                    1401800300007 
STATUS     Data received on tables                                1401800300008 
ENDBIB               6          0                                 1401800300009 
NOCOMMON             0          0                                 1401800300010 
DATA                 2        130                                 1401800300011 
EN         DATA                                                   1401800300012 
EV         B                                                      1401800300013 
4.45565      51.87                                                1401800300014 
4.25458      27.38                                                1401800300015 
4.06681      20.14                                                1401800300016 
3.89121      15.94                                                1401800300017 
3.72674      14.51                                                1401800300018 
3.49892      13.01                                                1401800300019 
3.29136      17.83                                                1401800300020 
3.16309      20.45                                                1401800300021 
3.04217      25.47                                                1401800300022 
2.87339      73.50                                                1401800300023 
2.71827     248.36                                                1401800300024 
2.62174     328.56                                                1401800300025 
2.48630     111.21                                                1401800300026 
2.36109      38.64                                                1401800300027 
2.24511      21.12                                                1401800300028 
2.13747      19.44                                                1401800300029 
2.03739      16.76                                                1401800300030 
1.94417      13.18                                                1401800300031 
1.85721      15.19                                                1401800300032 
1.77596      15.81                                                1401800300033 
1.69992      38.11                                                1401800300034 
1.60591     103.88                                                1401800300035 
1.51949      52.78                                                1401800300036 
1.45916      22.72                                                1401800300037 
1.40237      13.90                                                1401800300038 
1.33165      14.33                                                1401800300039 
1.26615      14.94                                                1401800300040 
1.20537      11.99                                                1401800300041 
1.14886      13.98                                                1401800300042 
1.09624      10.87                                                1401800300043 
1.03539      13.18                                                1401800300044 
0.97947      12.74                                                1401800300045 
0.93794      12.67                                                1401800300046 
0.89899      14.39                                                1401800300047 
0.85362      13.60                                                1401800300048 
0.81160      13.92                                                1401800300049 
0.77261      10.73                                                1401800300050 
0.73636       9.42                                                1401800300051 
0.70261      10.86                                                1401800300052 
0.66508      13.11                                                1401800300053 
0.63606      12.69                                                1401800300054 
0.60889      14.38                                                1401800300055 
0.57853      13.86                                                1401800300056 
0.55039      12.63                                                1401800300057 
0.52425      15.40                                                1401800300058 
0.49993      12.38                                                1401800300059 
0.47726      11.98                                                1401800300060 
0.45271      14.05                                                1401800300061 
0.43001      14.83                                                1401800300062 
0.40897      15.66                                                1401800300063 
0.38944      16.29                                                1401800300064 
0.37128      18.67                                                1401800300065 
0.35415      16.23                                                1401800300066 
0.33856      19.30                                                1401800300067 
0.32178      20.40                                                1401800300068 
0.30621      22.31                                                1401800300069 
0.29174      23.27                                                1401800300070 
0.27828      24.92                                                1401800300071 
0.26421      29.39                                                1401800300072 
0.25119      34.45                                                1401800300073 
0.24040      38.31                                                1401800300074 
0.22908      46.64                                                1401800300075 
0.21141      56.01                                                1401800300076 
0.20662      69.89                                                1401800300077 
0.19660      90.72                                                1401800300078 
0.18730     111.13                                                1401800300079 
0.17864     152.49                                                1401800300080 
0.17057     194.84                                                1401800300081 
0.16231     249.18                                                1401800300082 
0.15463     303.47                                                1401800300083 
0.14749     343.00                                                1401800300084 
0.14025     358.42                                                1401800300085 
0.13352     344.27                                                1401800300086 
0.12727     312.28                                                1401800300087 
0.12099     270.42                                                1401800300088 
0.11515     234.89                                                1401800300089 
0.10973     203.85                                                1401800300090 
0.10468     179.86                                                1401800300091 
0.09997     160.19                                                1401800300092 
0.09493     143.57                                                1401800300093 
0.09025     130.24                                                1401800300094 
0.08619     119.91                                                1401800300095 
0.08214     111.18                                                1401800300096 
0.07813     104.52                                                1401800300097 
0.07440      98.89                                                1401800300098 
0.07093      94.54                                                1401800300099 
0.06751      91.05                                                1401800300100 
0.06415      87.16                                                1401800300101 
0.06103      85.28                                                1401800300102 
0.05813      83.29                                                1401800300103 
0.05544      82.32                                                1401800300104 
0.05279      80.47                                                1401800300105 
0.05033      79.55                                                1401800300106 
0.04792      78.70                                                1401800300107 
0.04558      77.86                                                1401800300108 
0.04350      77.50                                                1401800300109 
0.04146      76.89                                                1401800300110 
0.03948      77.27                                                1401800300111 
0.03756      76.24                                                1401800300112 
0.03577      76.65                                                1401800300113 
0.03411      76.81                                                1401800300114 
0.03243      78.03                                                1401800300115 
0.03087      77.89                                                1401800300116 
0.02943      79.13                                                1401800300117 
0.02803      78.63                                                1401800300118 
0.02668      80.62                                                1401800300119 
0.02542      82.02                                                1401800300120 
0.02421      82.87                                                1401800300121 
0.02304      83.48                                                1401800300122 
0.02196      83.47                                                1401800300123 
0.02092      84.60                                                1401800300124 
0.01992      85.00                                                1401800300125 
0.01896      86.57                                                1401800300126 
0.01807      87.38                                                1401800300127 
0.01721      86.71                                                1401800300128 
0.01639      89.18                                                1401800300129 
0.01561      90.96                                                1401800300130 
0.01486      93.10                                                1401800300131 
0.01415      94.56                                                1401800300132 
0.01346      95.37                                                1401800300133 
0.01283      97.63                                                1401800300134 
0.01223     100.39                                                1401800300135 
0.01165     101.48                                                1401800300136 
0.01110     102.69                                                1401800300137 
0.01056     106.54                                                1401800300138 
0.01005     111.73                                                1401800300139 
0.00958     107.48                                                1401800300140 
0.00913     113.09                                                1401800300141 
0.00869     113.84                                                1401800300142 
0.00828     110.63                                                1401800300143 
ENDDATA            132          0                                 1401800300144 
ENDSUBENT          143          0                                 1401800399999 
SUBENT        14018004   20050630                             13361401800400001 
BIB                  5         10                                 1401800400002 
REACTION   (71-LU-175(N,TOT),,SIG)                                1401800400003 
ERR-ANALYS No information                                         1401800400004 
SAMPLE     Sample enriched to 99.924 %,                           1401800400005 
            1/n=47.74 b/a                                         1401800400006 
CORRECTION Analysis to date for 175Lu:                            1401800400007 
            (a) with measured total cross section described by    1401800400008 
            potential scattering plus resonance,                  1401800400009 
            sigma(n,tot)=25.9 barns at 0.0253 eV                  1401800400010 
            sigma(n,g) = 18.4 barns at 0.0253 eV                  1401800400011 
STATUS     Data received on tables                                1401800400012 
ENDBIB              10          0                                 1401800400013 
NOCOMMON             0          0                                 1401800400014 
DATA                 2        168                                 1401800400015 
EN         DATA                                                   1401800400016 
EV         B                                                      1401800400017 
1706.69713   32.01                                                1401800400018 
 803.80776   29.36                                                1401800400019 
 465.73936   26.34                                                1401800400020 
 333.48439   24.33                                                1401800400021 
 213.31537   25.04                                                1401800400022 
 158.08726   27.01                                                1401800400023 
 121.82880   26.32                                                1401800400024 
  96.75154   18.16                                                1401800400025 
  78.68960   13.29                                                1401800400026 
  65.25090   16.30                                                1401800400027 
  54.98235   21.84                                                1401800400028 
  46.95995   23.64                                                1401800400029 
  40.57335   24.83                                                1401800400030 
  35.40626   26.35                                                1401800400031 
  31.16686   28.63                                                1401800400032 
  27.64567   23.55                                                1401800400033 
  24.68917   26.91                                                1401800400034 
  22.18277   26.30                                                1401800400035 
  20.03953   18.89                                                1401800400036 
  18.11253   19.39                                                1401800400037 
  16.58960   40.70                                                1401800400038 
  15.18954   79.06                                                1401800400039 
  13.95952   58.87                                                1401800400040 
  12.87308   38.08                                                1401800400041 
  11.90970   48.01                                                1401800400042 
  11.84877   34.12                                                1401800400043 
  11.27873   15.95                                                1401800400044 
   9.58647    9.04                                                1401800400045 
   8.96186    7.59                                                1401800400046 
   8.31637    8.29                                                1401800400047 
   7.88276    8.61                                                1401800400048 
   7.41487    8.85                                                1401800400049 
   6.98744    9.78                                                1401800400050 
   6.59593   13.82                                                1401800400051 
   6.23642   19.68                                                1401800400052 
   5.90553   36.04                                                1401800400053 
   5.51571   90.94                                                1401800400054 
   5.18496  154.06                                                1401800400055 
   4.93322  116.65                                                1401800400056 
   4.69938   60.97                                                1401800400057 
   4.48179   31.90                                                1401800400058 
   4.27896   19.40                                                1401800400059 
   4.05173   14.66                                                1401800400060 
   3.82828   12.95                                                1401800400061 
   3.66774   12.73                                                1401800400062 
   3.51709   12.29                                                1401800400063 
   3.37554   13.47                                                1401800400064 
   3.20500   16.82                                                1401800400065 
   3.03241   25.62                                                1401800400066 
   2.88691   48.18                                                1401800400067 
   2.75164  107.44                                                1401800400068 
   2.61393  148.73                                                1401800400069 
   2.49718   80.99                                                1401800400070 
   2.37116   36.51                                                1401800400071 
   2.25445   21.76                                                1401800400072 
   2.16071   17.49                                                1401800400073 
   2.06447   15.32                                                1401800400074 
   1.95169   12.90                                                1401800400075 
   1.86423   11.28                                                1401800400076 
   1.78253   11.13                                                1401800400077 
   1.68168   11.09                                                1401800400078 
   1.59843   10.80                                                1401800400079 
   1.53691   10.52                                                1401800400080 
   1.46405   10.06                                                1401800400081 
   1.38868   10.21                                                1401800400082 
   1.31899    9.67                                                1401800400083 
   1.25441   10.21                                                1401800400084 
   1.19446   10.19                                                1401800400085 
   1.13171   10.84                                                1401800400086 
   1.08677   10.09                                                1401800400087 
   1.03831   10.28                                                1401800400088 
   0.99302   10.05                                                1401800400089 
   0.94501   10.32                                                1401800400090 
   0.89710   10.07                                                1401800400091 
   0.85580   10.28                                                1401800400092 
   0.81363   10.12                                                1401800400093 
   0.77449   10.22                                                1401800400094 
   0.73812   10.58                                                1401800400095 
   0.70066   10.40                                                1401800400096 
   0.66991   10.48                                                1401800400097 
   0.61746   10.47                                                1401800400098 
   0.60497   10.77                                                1401800400099 
   0.57490   10.97                                                1401800400100 
   0.54701   11.30                                                1401800400101 
   0.52111   11.26                                                1401800400102 
   0.49701   10.77                                                1401800400103 
   0.47453   11.44                                                1401800400104 
   0.45355   11.09                                                1401800400105 
   0.43224   11.35                                                1401800400106 
   0.41125   11.50                                                1401800400107 
   0.39137   11.69                                                1401800400108 
   0.37325   11.74                                                1401800400109 
   0.35494   11.50                                                1401800400110 
   0.33693   12.00                                                1401800400111 
   0.32120   11.88                                                1401800400112 
   0.30668   12.13                                                1401800400113 
   0.29135   12.30                                                1401800400114 
   0.27706   12.87                                                1401800400115 
   0.26459   12.43                                                1401800400116 
   0.25220   12.83                                                1401800400117 
   0.24012   12.80                                                1401800400118 
   0.22875   13.10                                                1401800400119 
   0.21829   13.21                                                1401800400120 
   0.20792   13.16                                                1401800400121 
   0.19781   13.44                                                1401800400122 
   0.18843   13.45                                                1401800400123 
   0.17925   13.72                                                1401800400124 
   0.17040   13.97                                                1401800400125 
   0.16249   13.82                                                1401800400126 
   0.15480   13.79                                                1401800400127 
   0.14732   14.31                                                1401800400128 
   0.14039   14.25                                                1401800400129 
   0.13366   14.52                                                1401800400130 
   0.12716   14.67                                                1401800400131 
   0.12110   14.72                                                1401800400132 
   0.11547   15.08                                                1401800400133 
   0.11004   15.27                                                1401800400134 
   0.10478   15.55                                                1401800400135 
   0.09971   15.66                                                1401800400136 
   0.09501   15.97                                                1401800400137 
   0.09047   16.23                                                1401800400138 
   0.08613   16.33                                                1401800400139 
   0.08207   16.64                                                1401800400140 
   0.07819   16.98                                                1401800400141 
   0.07446   17.09                                                1401800400142 
   0.07088   17.28                                                1401800400143 
   0.06756   17.41                                                1401800400144 
   0.06437   17.57                                                1401800400145 
   0.06124   17.95                                                1401800400146 
   0.05833   18.45                                                1401800400147 
   0.05555   18.80                                                1401800400148 
   0.05290   19.23                                                1401800400149 
   0.05036   19.60                                                1401800400150 
   0.04795   19.99                                                1401800400151 
   0.04571   20.23                                                1401800400152 
   0.04352   20.50                                                1401800400153 
   0.04144   20.81                                                1401800400154 
   0.03946   21.29                                                1401800400155 
   0.03406   22.55                                                1401800400156 
   0.03245   23.36                                                1401800400157 
   0.03092   23.89                                                1401800400158 
   0.02947   24.48                                                1401800400159 
   0.02806   24.76                                                1401800400160 
   0.02671   25.54                                                1401800400161 
   0.02543   26.07                                                1401800400162 
   0.02422   26.70                                                1401800400163 
   0.02307   27.05                                                1401800400164 
   0.02199   27.55                                                1401800400165 
   0.02094   28.16                                                1401800400166 
   0.01994   28.50                                                1401800400167 
   0.01900   28.95                                                1401800400168 
   0.01809   28.65                                                1401800400169 
   0.01723   29.30                                                1401800400170 
   0.01641   29.96                                                1401800400171 
   0.01563   30.85                                                1401800400172 
   0.01489   32.26                                                1401800400173 
   0.01417   32.00                                                1401800400174 
   0.01349   33.74                                                1401800400175 
   0.01285   34.84                                                1401800400176 
   0.01224   35.85                                                1401800400177 
   0.01166   35.86                                                1401800400178 
   0.01110   37.18                                                1401800400179 
   0.01057   37.48                                                1401800400180 
   0.01007   38.41                                                1401800400181 
   0.00959   37.70                                                1401800400182 
   0.00914   37.73                                                1401800400183 
   0.00870   35.06                                                1401800400184 
   0.00829   31.92                                                1401800400185 
ENDDATA            170          0                                 1401800400186 
ENDSUBENT          185          0                                 1401800499999 
SUBENT        14018005   20050630                             13361401800500001 
BIB                  5          6                                 1401800500002 
REACTION   (71-LU-176(N,TOT),,SIG)                                1401800500003 
ERR-ANALYS No information                                         1401800500004 
SAMPLE     Sample enriched to 71.1446 %,                          1401800500005 
            1/n=8129 b/a                                          1401800500006 
CORRECTION sigma(n,tot)=2220. barns at 0.0253 eV                  1401800500007 
STATUS     Data received on tables                                1401800500008 
ENDBIB               6          0                                 1401800500009 
NOCOMMON             0          0                                 1401800500010 
DATA                 2        100                                 1401800500011 
EN         DATA                                                   1401800500012 
EV         B                                                      1401800500013 
 3.23912      90.93                                               1401800500014 
 3.05385    -167.00                                               1401800500015 
 2.93902     -89.17                                               1401800500016 
 2.77856     128.47                                               1401800500017 
 2.63089     103.97                                               1401800500018 
 2.53889     193.46                                               1401800500019 
 2.40968       7.74                                               1401800500020 
 2.29008       5.12                                               1401800500021 
 2.17918      34.61                                               1401800500022 
 2.07614      97.80                                               1401800500023 
 1.98024     -55.32                                               1401800500024 
 1.89083      69.94                                               1401800500025 
 1.80735     129.58                                               1401800500026 
 1.70437    1081.17                                               1401800500027 
 1.63280    3352.05                                               1401800500028 
 1.56565     364.23                                               1401800500029 
 1.48237     874.98                                               1401800500030 
 1.40556     262.53                                               1401800500031 
 1.33458      88.16                                               1401800500032 
 1.26883     130.47                                               1401800500033 
 1.20783    -108.89                                               1401800500034 
 1.15113      22.97                                               1401800500035 
 1.09832      79.41                                               1401800500036 
 1.04907     103.00                                               1401800500037 
 1.00316     198.30                                               1401800500038 
 0.96001      11.41                                               1401800500039 
 0.90998      48.69                                               1401800500040 
 0.86377      74.84                                               1401800500041 
 0.82899      21.21                                               1401800500042 
 0.78131      27.43                                               1401800500043 
 0.74444      77.06                                               1401800500044 
 0.71012    -202.62                                               1401800500045 
 0.67812      22.27                                               1401800500046 
 0.64249    -104.97                                               1401800500047 
 0.61490     107.85                                               1401800500048 
 0.58906      59.14                                               1401800500049 
 0.56014     272.99                                               1401800500050 
 0.53329     168.05                                               1401800500051 
 0.50834      27.78                                               1401800500052 
 0.48131      -6.45                                               1401800500053 
 0.45650     104.88                                               1401800500054 
 0.43668     239.68                                               1401800500055 
 0.41514     133.45                                               1401800500056 
 0.39517     288.03                                               1401800500057 
 0.37660     174.18                                               1401800500058 
 0.35931     258.50                                               1401800500059 
 0.34318     385.39                                               1401800500060 
 0.32604     349.47                                               1401800500061 
 0.31016     352.82                                               1401800500062 
 0.29541     438.48                                               1401800500063 
 0.28168     667.22                                               1401800500064 
 0.26890     779.18                                               1401800500065 
 0.25552     868.45                                               1401800500066 
 0.24312    1052.83                                               1401800500067 
 0.23160    1434.45                                               1401800500068 
 0.21974    1661.07                                               1401800500069 
 0.20983    2081.76                                               1401800500070 
 0.20057    2619.32                                               1401800500071 
 0.19098    3711.25                                               1401800500072 
 0.18207    4845.89                                               1401800500073 
 0.17296    6577.37                                               1401800500074 
 0.16452    8637.92                                               1401800500075 
 0.15669   10799.81                                               1401800500076 
 0.14940   12453.21                                               1401800500077 
 0.14261   13130.75                                               1401800500078 
 0.13571   13108.53                                               1401800500079 
 0.12931   11963.96                                               1401800500080 
 0.12287   10462.49                                               1401800500081 
 0.11689    8986.69                                               1401800500082 
 0.11135    7742.17                                               1401800500083 
 0.10580    6592.61                                               1401800500084 
 0.10102    5808.76                                               1401800500085 
 0.09622    5185.65                                               1401800500086 
 0.09145    4622.75                                               1401800500087 
 0.08731    4240.64                                               1401800500088 
 0.08318    3847.35                                               1401800500089 
 0.07909    3516.45                                               1401800500090 
 0.07529    3308.77                                               1401800500091 
 0.07176    3128.98                                               1401800500092 
 0.06847    2995.80                                               1401800500093 
 0.06522    2810.94                                               1401800500094 
 0.06202    2677.15                                               1401800500095 
 0.05906    2568.93                                               1401800500096 
 0.05630    2511.99                                               1401800500097 
 0.05359    2427.61                                               1401800500098 
 0.05094    2380.76                                               1401800500099 
 0.04849    2353.31                                               1401800500100 
 0.04621    2312.91                                               1401800500101 
 0.04409    2252.72                                               1401800500102 
 0.04201    2241.40                                               1401800500103 
 0.03999    2178.92                                               1401800500104 
 0.03811    2163.80                                               1401800500105 
 0.03628    2192.78                                               1401800500106 
 0.03452    2166.10                                               1401800500107 
 0.03287    2128.05                                               1401800500108 
 0.03134    2196.91                                               1401800500109 
 0.02986    2122.34                                               1401800500110 
 0.02843    2162.91                                               1401800500111 
 0.02705    2206.06                                               1401800500112 
 0.02577    2218.87                                               1401800500113 
ENDDATA            102          0                                 1401800500114 
ENDSUBENT          113          0                                 1401800599999 
ENDENTRY             5          0                                 1401899999999 
