ENTRY            14021   20050701                             13361402100000001 
SUBENT        14021001   20050701                             13361402100100001 
BIB                  9         15                                 1402100100002 
INSTITUTE  (1USALAS,1USAMSU,1USALRL)                              1402100100003 
REFERENCE  (J,PR/C,71,064314,2005)                                1402100100004 
AUTHOR     (N.Fotiades,R.O.Nelson,M.Devlin,K.Starosta,J.A.Becker, 1402100100005 
            L.A.Bernstein,P.E.Garrett,W.Younes)                   1402100100006 
TITLE      States in 197Au from the (n,n'g) reaction              1402100100007 
FACILITY   (ACCEL,1USALAS)LANSCE accelerator and WNR neutron      1402100100008 
            source                                                1402100100009 
METHOD     (TOF)                                                  1402100100010 
SAMPLE     197Au target in the present experiment consisted of one1402100100011 
            foil, 1.5 g/cm2 thick.                                1402100100012 
DETECTOR   (GE-IN) GEANIE spectrometer with 11 Compton-suppressed 1402100100013 
            planar Ge detectors (low-energy photon                1402100100014 
            spectrometers; LEPS), 9 Compton-suppressed coaxial Ge 1402100100015 
            detectors, and 6 unsuppressed coaxial Ge detectors.   1402100100016 
HISTORY    (20050701C) DR                                         1402100100017 
ENDBIB              15          0                                 1402100100018 
NOCOMMON             0          0                                 1402100100019 
ENDSUBENT           18          0                                 1402100199999 
SUBENT        14021002   20050701                             13361402100200001 
BIB                  4          7                                 1402100200002 
REACTION   (79-AU-197(N,INL)79-AU-197,,SPC,,REL)                  1402100200003 
             Intensity normalized to 1000 for gamma-ray energy of 1402100200004 
             279 keV                                              1402100200005 
EN-SEC     (E,G)                                                  1402100200006 
           (E-EXC,79-AU-197) Initial level of excitation          1402100200007 
ERR-ANALYS No information                                         1402100200008 
STATUS     Data read from table 1                                 1402100200009 
ENDBIB               7          0                                 1402100200010 
COMMON               2          3                                 1402100200011 
EN-MIN     EN-MAX                                                 1402100200012 
MEV        MEV                                                    1402100200013 
1.         70.                                                    1402100200014 
ENDCOMMON            3          0                                 1402100200015 
DATA                 4         93                                 1402100200016 
E          E-EXC      DATA       DATA-MIN                         1402100200017 
KEV        KEV        ARB-UNITS  ARB-UNITS                        1402100200018 
 174.8      584.       477.                                       1402100200019 
 176.0     1295.        23.                                       1402100200020 
 189.2      737.         7.                                       1402100200021 
 191.4      269.       424.                                       1402100200022 
 201.6      279.        18.                                       1402100200023 
 233.6      502.        11.                                       1402100200024 
 234.4      737.         7.                                       1402100200025 
 236.5     1004.         9.                                       1402100200026 
 259.6     1555.         8.                                       1402100200027 
 268.5      548.        52.                                       1402100200028 
 268.8      269.        52.                                       1402100200029 
 279.0      279.      1000.                                       1402100200030 
 305.0      584.         9.                                       1402100200031 
 308.0      856.        39.                                       1402100200032 
 308.0     1045.        39.                                       1402100200033 
 322.9     1060.        22.                                       1402100200034 
 330.2     1375.        10.                                       1402100200035 
 341.0     1277.         9.                                       1402100200036 
 358.0      767.       251.                                       1402100200037 
 364.0      948.       126.                                       1402100200038 
 366.3     1370.         5.                                       1402100200039 
 376.0     1231.        11.                                       1402100200040 
 421.9     1370.        26.                                       1402100200041 
 425.0      502.        13.                                       1402100200042 
 429.2     1836.        13.                                       1402100200043 
 433.1      936.        18.                                       1402100200044 
 457.9      737.       191.                                       1402100200045 
 468.1      737.        20.                                       1402100200046 
 488.0     1533.         9.                                       1402100200047 
 497.6     1045.         8.                                       1402100200048 
 502.5      502.       276.                                       1402100200049 
 519.7     1375.         7.                                       1402100200050 
 529.0     1266.         5.                                       1402100200051 
 535.0     1119.        59.                                       1402100200052 
 538.6      948.        76.                                       1402100200053 
 540.0     1277.        11.                                       1402100200054 
 542.5     1045.        10.                                       1402100200055 
 547.5      548.       433.                                       1402100200056 
 557.1     1060.        22.                                       1402100200057 
 558.8     1414.        19.                                       1402100200058 
 568.9     1572.        18.                                       1402100200059 
 576.5      856.       179.                                       1402100200060 
 594.4     1004.        79.                                       1402100200061 
 606.6     1555.        14.                                       1402100200062 
 611.9     1379.        26.                                       1402100200063 
 616.2     1119.         8.                                       1402100200064 
 619.4      888.         5.                                       1402100200065 
 638.2     1642.        20.                                       1402100200066 
 638.6     1375.        20.                                       1402100200067 
 639.7     1407.        41.                                       1402100200068 
 657.1      936.        15.                                       1402100200069 
 667.1      936.        30.                                       1402100200070 
 677.8     1414.        14.                                       1402100200071 
 684.2     1231.        46.                                       1402100200072 
 702.9     1470.        22.                                       1402100200073 
 711.0     1295.        44.                                       1402100200074 
 716.0     1720.         4.                                       1402100200075 
 718.8     1574.        26.                                       1402100200076 
 732.3     1963.         6.                                       1402100200077 
 745.6     1513.        15.                                       1402100200078 
 763.2     1266.         5.                                       1402100200079 
 766.3     1045.        49.                                       1402100200080 
 774.6     1277.        11.                                       1402100200081 
 776.1     1045.        32.                                       1402100200082 
 791.6     1911.         7.                                       1402100200083 
 795.0     1743.         4.                                       1402100200084 
 797.2     1801.        10.                                       1402100200085 
 805.4     1572.         7.                                       1402100200086 
 810.8      888.        26.                                       1402100200087 
 813.6     1933.         6.                                       1402100200088 
 825.0     1773.        11.                                       1402100200089 
 827.6     1375.         6.                                       1402100200090 
 839.8     1119.        11.                                       1402100200091 
 850.5     1798.         9.                                       1402100200092 
 858.6      936.        10.                                       1402100200093 
 860.0     1627.        14.                                       1402100200094 
 869.9     1874.         4.                                       1402100200095 
 871.5     1151.        12.                                       1402100200096 
 881.9     1151.        17.                                       1402100200097 
 895.3     2014.         7.                                       1402100200098 
 913.0     1680.        13.                                       1402100200099 
 920.3     1868.         7.                                       1402100200100 
 926.0     1663.         9.                                       1402100200101 
 936.2      936.        36.                                       1402100200102 
 952.5     1720.         5.                                       1402100200103 
 970.8     1555.         7.                                       1402100200104 
 973.0     1242.         9.                                       1402100200105 
 978.3     1481.         7.                                       1402100200106 
1073.4     1151.        15.                                       1402100200107 
1139.5     1217.                   7.                             1402100200108 
1150.2     1151.         6.                                       1402100200109 
1217.7     1217.        52.                                       1402100200110 
1242.2     1242.        29.                                       1402100200111 
ENDDATA             95          0                                 1402100200112 
ENDSUBENT          111          0                                 1402100299999 
SUBENT        14021003   20050701                             13361402100300001 
BIB                  4          5                                 1402100300002 
REACTION   (79-AU-197(N,INL)79-AU-197,PAR,SIG,G,REL)              1402100300003 
EN-SEC     (E,G) Transition gamma ray                             1402100300004 
            (LVL-INI,79-AU-197) Initial level                     1402100300005 
ERR-ANALYS (DATA-ERR) No information                              1402100300006 
STATUS     Data received in tables from the author                1402100300007 
ENDBIB               5          0                                 1402100300008 
NOCOMMON             0          0                                 1402100300009 
DATA                 6        181                                 1402100300010 
E          LVL-INI    EN         EN-RSL     DATA       DATA-ERR   1402100300011 
KEV        KEV        MEV        MEV        ARB-UNITS  ARB-UNITS  1402100300012 
174.8       584.       1.104     0.033       98.6438    0.623891  1402100300013 
174.8       584.       1.173     0.058      128.901     0.664334  1402100300014 
174.8       584.       1.3       0.073      158.466     0.722574  1402100300015 
174.8       584.       1.454     0.086      196.544     0.77955   1402100300016 
174.8       584.       1.638     0.103      230.246     0.824317  1402100300017 
174.8       584.       1.859     0.125      269.032     0.873698  1402100300018 
174.8       584.       2.128     0.153      325.922     0.943785  1402100300019 
174.8       584.       2.461     0.19       370.004     0.987345  1402100300020 
174.8       584.       2.879     0.241      384.415     0.984428  1402100300021 
174.8       584.       3.414     0.312      388.058     0.98148   1402100300022 
174.8       584.       4.116     0.414      365.058     0.939555  1402100300023 
174.8       584.       4.29      0.094      359.663     1.98805   1402100300024 
174.8       584.       4.478     0.1        359.319     1.9799    1402100300025 
174.8       584.       4.679     0.107      349.74      1.94982   1402100300026 
174.8       584.       4.894     0.114      323.233     1.85167   1402100300027 
174.8       584.       5.123     0.122      320.9       1.83933   1402100300028 
174.8       584.       5.37      0.131      319.103     1.8487    1402100300029 
174.8       584.       5.634     0.141      313.913     1.84609   1402100300030 
174.8       584.       5.919     0.152      298.187     1.80885   1402100300031 
174.8       584.       6.226     0.164      284.413     1.76984   1402100300032 
174.8       584.       6.558     0.177      274.733     1.75517   1402100300033 
174.8       584.       6.917     0.192      254.758     1.67667   1402100300034 
174.8       584.       7.307     0.208      250.548     1.67233   1402100300035 
174.8       584.       7.731     0.227      247.319     1.68863   1402100300036 
174.8       584.       8.192     0.248      246.508     1.69452   1402100300037 
174.8       584.       8.697     0.271      209.341     1.5946    1402100300038 
174.8       584.       9.25      0.297      162.051     1.4173    1402100300039 
174.8       584.       9.858     0.327      114.688     1.2431    1402100300040 
174.8       584.      10.528     0.362       80.9123    1.10974   1402100300041 
174.8       584.      11.269     0.401       55.4372    0.99417   1402100300042 
174.8       584.      12.092     0.446       42.0685    0.941655  1402100300043 
174.8       584.      13.01      0.498       32.4284    0.90477   1402100300044 
174.8       584.      14.037     0.558       27.5207    0.882143  1402100300045 
358.0       767.       1.104     0.033        1.76485   0.268734  1402100300046 
358.0       767.       1.173     0.058        3.57137   0.268711  1402100300047 
358.0       767.       1.3       0.073        5.74651   0.284995  1402100300048 
358.0       767.       1.454     0.086        9.01373   0.309656  1402100300049 
358.0       767.       1.638     0.103       13.7668    0.342395  1402100300050 
358.0       767.       1.859     0.125       23.36      0.392958  1402100300051 
358.0       767.       2.128     0.153       34.7423    0.446229  1402100300052 
358.0       767.       2.461     0.19        48.9276    0.497385  1402100300053 
358.0       767.       2.879     0.241       69.0064    0.550734  1402100300054 
358.0       767.       3.414     0.312      100.979     0.627832  1402100300055 
358.0       767.       4.116     0.414      146.595     0.709219  1402100300056 
358.0       767.       4.29      0.094      164.215     1.58008   1402100300057 
358.0       767.       4.478     0.1        178.035     1.62746   1402100300058 
358.0       767.       4.679     0.107      191.514     1.65785   1402100300059 
358.0       767.       4.894     0.114      194.195     1.64084   1402100300060 
358.0       767.       5.123     0.122      207.884     1.67724   1402100300061 
358.0       767.       5.37      0.131      225.366     1.75809   1402100300062 
358.0       767.       5.634     0.141      243.629     1.81665   1402100300063 
358.0       767.       5.919     0.152      255.734     1.84742   1402100300064 
358.0       767.       6.226     0.164      270.079     1.89243   1402100300065 
358.0       767.       6.558     0.177      287.216     1.94009   1402100300066 
358.0       767.       6.917     0.192      292.18      1.93046   1402100300067 
358.0       767.       7.307     0.208      314.448     1.99068   1402100300068 
358.0       767.       7.731     0.227      343.58      2.0845    1402100300069 
358.0       767.       8.192     0.248      380.528     2.2031    1402100300070 
358.0       767.       8.697     0.271      377.777     2.19058   1402100300071 
358.0       767.       9.25      0.297      339.071     2.06655   1402100300072 
358.0       767.       9.858     0.327      269.341     1.85589   1402100300073 
358.0       767.      10.528     0.362      210.225     1.68816   1402100300074 
358.0       767.      11.269     0.401      154.923     1.50577   1402100300075 
358.0       767.      12.092     0.446      117.184     1.39138   1402100300076 
358.0       767.      13.01      0.498       88.7474    1.27672   1402100300077 
358.0       767.      14.037     0.558       68.8363    1.20866   1402100300078 
558.8      1414.       1.173     0.058        0.0207801 0.134378  1402100300079 
558.8      1414.       1.3       0.073        0.0249432 0.139871  1402100300080 
558.8      1414.       1.454     0.086        0.485486  0.15462   1402100300081 
558.8      1414.       1.638     0.103        2.01448   0.171983  1402100300082 
558.8      1414.       1.859     0.125        3.36069   0.192675  1402100300083 
558.8      1414.       2.128     0.153        3.56116   0.208702  1402100300084 
558.8      1414.       2.461     0.19         4.04961   0.21795   1402100300085 
558.8      1414.       2.879     0.241        4.79686   0.231732  1402100300086 
558.8      1414.       3.414     0.312        5.8925    0.249621  1402100300087 
558.8      1414.       4.116     0.414        6.94471   0.260638  1402100300088 
558.8      1414.       4.29      0.094        7.77968   0.569884  1402100300089 
558.8      1414.       4.478     0.1          7.9651    0.579572  1402100300090 
558.8      1414.       4.679     0.107        8.48771   0.573557  1402100300091 
558.8      1414.       4.894     0.114        7.71326   0.557701  1402100300092 
558.8      1414.       5.123     0.122        8.43128   0.571929  1402100300093 
558.8      1414.       5.37      0.131       10.2873    0.587636  1402100300094 
558.8      1414.       5.634     0.141       10.5096    0.598461  1402100300095 
558.8      1414.       5.919     0.152       10.4872    0.607245  1402100300096 
558.8      1414.       6.226     0.164       10.7665    0.605657  1402100300097 
558.8      1414.       6.558     0.177       10.8477    0.608889  1402100300098 
558.8      1414.       6.917     0.192       10.5729    0.582822  1402100300099 
558.8      1414.       7.307     0.208       10.5951    0.59967   1402100300100 
558.8      1414.       7.731     0.227       10.8688    0.610391  1402100300101 
558.8      1414.       8.192     0.248       11.2387    0.630045  1402100300102 
558.8      1414.       8.697     0.271       10.4661    0.608767  1402100300103 
558.8      1414.       9.25      0.297        9.94519   0.565261  1402100300104 
558.8      1414.       9.858     0.327        6.11101   0.515158  1402100300105 
558.8      1414.      10.528     0.362        4.58371   0.488299  1402100300106 
576.5       856.       1.104     0.033        2.07667   0.030441  1402100300107 
576.5       856.       1.173     0.058        2.64273   0.0321011 1402100300108 
576.5       856.       1.3       0.073        3.30551   0.0349135 1402100300109 
576.5       856.       1.454     0.086        3.95033   0.037316  1402100300110 
576.5       856.       1.638     0.103        4.45571   0.0388688 1402100300111 
576.5       856.       1.859     0.125        4.76955   0.0397794 1402100300112 
576.5       856.       2.128     0.153        5.13813   0.0408988 1402100300113 
576.5       856.       2.461     0.19         5.70119   0.0425329 1402100300114 
576.5       856.       2.879     0.241        6.24192   0.0438149 1402100300115 
576.5       856.       3.414     0.312        7.11553   0.0464455 1402100300116 
576.5       856.       4.116     0.414        7.83225   0.0475757 1402100300117 
576.5       856.       4.29      0.094        8.40806   0.104313  1402100300118 
576.5       856.       4.478     0.1          8.53231   0.105221  1402100300119 
576.5       856.       4.679     0.107        8.72254   0.105697  1402100300120 
576.5       856.       4.894     0.114        8.57967   0.102714  1402100300121 
576.5       856.       5.123     0.122        8.95266   0.104191  1402100300122 
576.5       856.       5.37      0.131        9.36332   0.107375  1402100300123 
576.5       856.       5.634     0.141       10.115     0.110825  1402100300124 
576.5       856.       5.919     0.152        9.90446   0.1103    1402100300125 
576.5       856.       6.226     0.164        9.83652   0.110144  1402100300126 
576.5       856.       6.558     0.177       10.2675    0.111607  1402100300127 
576.5       856.       6.917     0.192        9.77685   0.107598  1402100300128 
576.5       856.       7.307     0.208       10.2296    0.110327  1402100300129 
576.5       856.       7.731     0.227       10.4093    0.112541  1402100300130 
576.5       856.       8.192     0.248       10.5773    0.11445   1402100300131 
576.5       856.       8.697     0.271        9.87259   0.110856  1402100300132 
576.5       856.       9.25      0.297        8.15303   0.101277  1402100300133 
576.5       856.       9.858     0.327        6.25696   0.0909861 1402100300134 
576.5       856.      10.528     0.362        4.66938   0.081973  1402100300135 
594.4      1004.       1.638     0.103        3.39367   0.665205  1402100300136 
594.4      1004.       1.859     0.125       11.1775    0.754023  1402100300137 
594.4      1004.       2.128     0.153       20.5768    0.830319  1402100300138 
594.4      1004.       2.461     0.19        28.9854    0.904087  1402100300139 
594.4      1004.       2.879     0.241       41.4673    0.968195  1402100300140 
594.4      1004.       3.414     0.312       54.3954    1.06612   1402100300141 
594.4      1004.       4.116     0.414       69.4706    1.12273   1402100300142 
594.4      1004.       4.29      0.094       74.9407    2.44327   1402100300143 
594.4      1004.       4.478     0.1         79.0313    2.49228   1402100300144 
594.4      1004.       4.679     0.107       82.048     2.48185   1402100300145 
594.4      1004.       4.894     0.114       81.0999    2.42708   1402100300146 
594.4      1004.       5.123     0.122       82.5785    2.48174   1402100300147 
594.4      1004.       5.37      0.131       88.018     2.55143   1402100300148 
594.4      1004.       5.634     0.141       96.5891    2.60168   1402100300149 
594.4      1004.       5.919     0.152       94.2359    2.57472   1402100300150 
594.4      1004.       6.226     0.164       97.1229    2.60062   1402100300151 
594.4      1004.       6.558     0.177       98.8045    2.64776   1402100300152 
594.4      1004.       6.917     0.192      100.087     2.5286    1402100300153 
594.4      1004.       7.307     0.208       96.914     2.61453   1402100300154 
594.4      1004.       7.731     0.227      103.565     2.68078   1402100300155 
594.4      1004.       8.192     0.248      109.525     2.72118   1402100300156 
594.4      1004.       8.697     0.271      108.769     2.67189   1402100300157 
594.4      1004.       9.25      0.297       87.9736    2.47637   1402100300158 
594.4      1004.       9.858     0.327       66.0161    2.19661   1402100300159 
594.4      1004.      10.528     0.362       44.3656    1.98794   1402100300160 
594.4      1004.      11.269     0.401       27.3302    1.79874   1402100300161 
594.4      1004.      12.092     0.446       16.1816    1.69695   1402100300162 
594.4      1004.      13.01      0.498       11.8826    1.60857   1402100300163 
594.4      1004.      14.037     0.558        7.12987   1.56461   1402100300164 
684.2      1231.       1.104     0.033        0.03568   0.0561467 1402100300165 
684.2      1231.       1.173     0.058        0.04578   0.052946  1402100300166 
684.2      1231.       1.3       0.073        0.49916   0.0616158 1402100300167 
684.2      1231.       1.454     0.086        1.44636   0.077278  1402100300168 
684.2      1231.       1.638     0.103        2.31948   0.0882252 1402100300169 
684.2      1231.       1.859     0.125        3.0953    0.0996266 1402100300170 
684.2      1231.       2.128     0.153        3.70693   0.106953  1402100300171 
684.2      1231.       2.461     0.19         4.18515   0.112566  1402100300172 
684.2      1231.       2.879     0.241        4.61621   0.119139  1402100300173 
684.2      1231.       3.414     0.312        5.69271   0.130203  1402100300174 
684.2      1231.       4.116     0.414        7.05613   0.138058  1402100300175 
684.2      1231.       4.29      0.094        7.74056   0.304251  1402100300176 
684.2      1231.       4.478     0.1          7.71656   0.305614  1402100300177 
684.2      1231.       4.679     0.107        8.48339   0.309481  1402100300178 
684.2      1231.       4.894     0.114        8.66585   0.300559  1402100300179 
684.2      1231.       5.123     0.122        8.21784   0.304524  1402100300180 
684.2      1231.       5.37      0.131        8.5949    0.316595  1402100300181 
684.2      1231.       5.634     0.141       10.0776    0.325374  1402100300182 
684.2      1231.       5.919     0.152        9.67899   0.322921  1402100300183 
684.2      1231.       6.226     0.164       10.1076    0.32909   1402100300184 
684.2      1231.       6.558     0.177       10.0964    0.327608  1402100300185 
684.2      1231.       6.917     0.192       10.2565    0.324964  1402100300186 
684.2      1231.       7.307     0.208       10.8651    0.328804  1402100300187 
684.2      1231.       7.731     0.227       10.7333    0.335314  1402100300188 
684.2      1231.       8.192     0.248       10.8599    0.346119  1402100300189 
684.2      1231.       8.697     0.271       10.9425    0.334287  1402100300190 
684.2      1231.       9.25      0.297        7.93639   0.3016    1402100300191 
684.2      1231.       9.858     0.327        6.45623   0.275498  1402100300192 
684.2      1231.      10.528     0.362        4.67873   0.250171  1402100300193 
ENDDATA            183          0                                 1402100300194 
ENDSUBENT          193          0                                 1402100399999 
SUBENT        14021004   20050701                             13361402100400001 
BIB                  4          5                                 1402100400002 
REACTION   (77-IR-193(N,INL)77-IR-193,PAR,SIG,G,REL)              1402100400003 
EN-SEC     (E,G) Transition gamma ray                             1402100400004 
            (LVL-INI,77-IR-193) Initial level                     1402100400005 
ERR-ANALYS (DATA-ERR) No information                              1402100400006 
STATUS     Data received in tables from the author                1402100400007 
ENDBIB               5          0                                 1402100400008 
NOCOMMON             0          0                                 1402100400009 
DATA                 6        157                                 1402100400010 
E          LVL-INI    EN         EN-RSL     DATA       DATA-ERR   1402100400011 
KEV        KEV        MEV        MEV        ARB-UNITS  ARB-UNITS  1402100400012 
180.1      180.0       0.213     0.008       0.214284  0.0595232  1402100400013 
180.1      180.0       0.229     0.008       0.251165  0.0627912  1402100400014 
180.1      180.0       0.246     0.009       0.244627  0.0612032  1402100400015 
180.1      180.0       0.265     0.011       0.757824  0.0873955  1402100400016 
180.1      180.0       0.287     0.012       1.30621   0.114797   1402100400017 
180.1      180.0       0.312     0.013       2.11277   0.143017   1402100400018 
180.1      180.0       0.339     0.015       3.60454   0.180944   1402100400019 
180.1      180.0       0.371     0.017       5.32339   0.221839   1402100400020 
180.1      180.0       0.408     0.02        5.49887   0.226861   1402100400021 
180.1      180.0       0.45      0.023       7.00583   0.245591   1402100400022 
180.1      180.0       0.499     0.027       7.81271   0.24682    1402100400023 
180.1      180.0       0.556     0.032       7.63456   0.238757   1402100400024 
180.1      180.0       0.624     0.038       8.92514   0.241451   1402100400025 
180.1      180.0       0.705     0.046       8.0316    0.231648   1402100400026 
180.1      180.0       0.804     0.056       8.53639   0.232074   1402100400027 
180.1      180.0       0.925     0.069       8.91106   0.231208   1402100400028 
180.1      180.0       1.075     0.086       8.43875   0.227137   1402100400029 
180.1      180.0       1.104     0.033       8.54932   0.285614   1402100400030 
180.1      180.0       1.173     0.058       8.65513   0.288304   1402100400031 
180.1      180.0       1.3       0.073       9.46795   0.290945   1402100400032 
180.1      180.0       1.454     0.086       9.87022   0.298573   1402100400033 
180.1      180.0       1.638     0.103      10.3551    0.302156   1402100400034 
180.1      180.0       1.859     0.125       9.4994    0.301804   1402100400035 
180.1      180.0       2.128     0.153       9.82186   0.309427   1402100400036 
180.1      180.0       2.461     0.19        9.42169   0.311494   1402100400037 
180.1      180.0       2.879     0.241       8.85625   0.317579   1402100400038 
180.1      180.0       3.414     0.312       8.43819   0.322152   1402100400039 
180.1      180.0       4.116     0.414       7.90633   0.309294   1402100400040 
180.1      180.0       4.29      0.094       7.6931    0.660948   1402100400041 
180.1      180.0       4.478     0.1         7.29477   0.649728   1402100400042 
180.1      180.0       4.679     0.107       7.38414   0.661831   1402100400043 
180.1      180.0       4.894     0.114       7.57185   0.649157   1402100400044 
180.1      180.0       5.123     0.122       6.19972   0.649241   1402100400045 
180.1      180.0       5.37      0.131       5.55471   0.652821   1402100400046 
180.1      180.0       5.634     0.141       7.26607   0.659208   1402100400047 
180.1      180.0       5.919     0.152       6.10009   0.657379   1402100400048 
180.1      180.0       6.226     0.164       5.84888   0.664726   1402100400049 
180.1      180.0       6.558     0.177       6.2319    0.680131   1402100400050 
180.1      180.0       6.917     0.192       4.66482   0.639532   1402100400051 
180.1      180.0       7.307     0.208       5.78423   0.684306   1402100400052 
180.1      180.0       7.731     0.227       5.86642   0.705391   1402100400053 
180.1      180.0       8.192     0.248       5.06322   0.715834   1402100400054 
180.1      180.0       8.697     0.271       5.36613   0.726087   1402100400055 
180.1      180.0       9.25      0.297       3.68891   0.69602    1402100400056 
180.1      180.0       9.858     0.327       3.56882   0.670242   1402100400057 
180.1      180.0      10.528     0.362       2.63295   0.668062   1402100400058 
180.1      180.0      11.269     0.401       1.20247   0.654918   1402100400059 
180.1      180.0      12.092     0.446       2.62463   0.695832   1402100400060 
180.1      180.0      13.01      0.498       2.5307    0.710871   1402100400061 
180.1      180.0      14.037     0.558       1.35462   0.719118   1402100400062 
269.5      833.        1.104     0.033       0.644109  0.0734426  1402100400063 
269.5      833.        1.173     0.058       1.02526   0.0806323  1402100400064 
269.5      833.        1.3       0.073       1.40615   0.0878846  1402100400065 
269.5      833.        1.454     0.086       1.86953   0.09167    1402100400066 
269.5      833.        1.638     0.103       2.67994   0.101551   1402100400067 
269.5      833.        1.859     0.125       3.10356   0.107345   1402100400068 
269.5      833.        2.128     0.153       4.16057   0.117274   1402100400069 
269.5      833.        2.461     0.19        4.99893   0.125432   1402100400070 
269.5      833.        2.879     0.241       5.43545   0.130877   1402100400071 
269.5      833.        3.414     0.312       6.48983   0.141024   1402100400072 
269.5      833.        4.116     0.414       7.37314   0.142165   1402100400073 
269.5      833.        4.29      0.094       8.02698   0.31473    1402100400074 
269.5      833.        4.478     0.1         7.78025   0.304399   1402100400075 
269.5      833.        4.679     0.107       7.82453   0.314554   1402100400076 
269.5      833.        4.894     0.114       8.45143   0.308035   1402100400077 
269.5      833.        5.123     0.122       8.61481   0.314494   1402100400078 
269.5      833.        5.37      0.131       8.55826   0.319619   1402100400079 
269.5      833.        5.634     0.141       8.96128   0.311865   1402100400080 
269.5      833.        5.919     0.152       8.74178   0.315985   1402100400081 
269.5      833.        6.226     0.164       8.06299   0.318701   1402100400082 
269.5      833.        6.558     0.177       9.35778   0.337545   1402100400083 
269.5      833.        6.917     0.192       9.45824   0.323875   1402100400084 
269.5      833.        7.307     0.208       9.33492   0.340041   1402100400085 
269.5      833.        7.731     0.227      10.25      0.348777   1402100400086 
269.5      833.        8.192     0.248       9.19447   0.349028   1402100400087 
269.5      833.        8.697     0.271       8.98757   0.357202   1402100400088 
269.5      833.        9.25      0.297       6.72005   0.328385   1402100400089 
269.5      833.        9.858     0.327       4.44677   0.301024   1402100400090 
269.5      833.       10.528     0.362       2.80407   0.288148   1402100400091 
269.5      833.       11.269     0.401       2.41106   0.277295   1402100400092 
269.5      833.       12.092     0.446       2.19102   0.283229   1402100400093 
269.5      833.       13.01      0.498       1.77377   0.286293   1402100400094 
269.5      833.       14.037     0.558       1.96932   0.292836   1402100400095 
357.8      358.0       0.339     0.015       0.0213787 0.00801701 1402100400096 
357.8      358.0       0.371     0.017       0.860168  0.0351459  1402100400097 
357.8      358.0       0.408     0.02        1.7831    0.046245   1402100400098 
357.8      358.0       0.45      0.023       2.56279   0.0521606  1402100400099 
357.8      358.0       0.499     0.027       3.48939   0.0561971  1402100400100 
357.8      358.0       0.556     0.032       3.49883   0.0540678  1402100400101 
357.8      358.0       0.624     0.038       4.32828   0.0559041  1402100400102 
357.8      358.0       0.705     0.046       4.63402   0.0553722  1402100400103 
357.8      358.0       0.804     0.056       4.91234   0.0546889  1402100400104 
357.8      358.0       0.925     0.069       5.47737   0.0550433  1402100400105 
357.8      358.0       1.075     0.086       5.90609   0.0546095  1402100400106 
357.8      358.0       1.104     0.033       5.88449   0.0685237  1402100400107 
357.8      358.0       1.173     0.058       6.4104    0.0694365  1402100400108 
357.8      358.0       1.3       0.073       6.54874   0.0697346  1402100400109 
357.8      358.0       1.454     0.086       6.74417   0.0694883  1402100400110 
357.8      358.0       1.638     0.103       7.02306   0.0692456  1402100400111 
357.8      358.0       1.859     0.125       7.08115   0.0689934  1402100400112 
357.8      358.0       2.128     0.153       7.65691   0.0720536  1402100400113 
357.8      358.0       2.461     0.19        8.20309   0.0739307  1402100400114 
357.8      358.0       2.879     0.241       8.59471   0.0760612  1402100400115 
357.8      358.0       3.414     0.312       9.20793   0.0782394  1402100400116 
357.8      358.0       4.116     0.414       9.22772   0.0761699  1402100400117 
357.8      358.0       4.29      0.094       9.46929   0.166449   1402100400118 
357.8      358.0       4.478     0.1         9.24473   0.161651   1402100400119 
357.8      358.0       4.679     0.107       9.77573   0.166602   1402100400120 
357.8      358.0       4.894     0.114       9.29793   0.161593   1402100400121 
357.8      358.0       5.123     0.122       9.16038   0.161787   1402100400122 
357.8      358.0       5.37      0.131       9.39967   0.164369   1402100400123 
357.8      358.0       5.634     0.141       9.50763   0.161163   1402100400124 
357.8      358.0       5.919     0.152       8.97088   0.159813   1402100400125 
357.8      358.0       6.226     0.164       9.22777   0.163075   1402100400126 
357.8      358.0       6.558     0.177       9.43458   0.167899   1402100400127 
357.8      358.0       6.917     0.192       8.56245   0.159734   1402100400128 
357.8      358.0       7.307     0.208       8.95942   0.167268   1402100400129 
357.8      358.0       7.731     0.227       8.67937   0.164624   1402100400130 
357.8      358.0       8.192     0.248       8.93452   0.172977   1402100400131 
357.8      358.0       8.697     0.271       7.99111   0.170299   1402100400132 
357.8      358.0       9.25      0.297       6.2469    0.157617   1402100400133 
357.8      358.0       9.858     0.327       4.81802   0.141924   1402100400134 
357.8      358.0      10.528     0.362       3.59249   0.133488   1402100400135 
357.8      358.0      11.269     0.401       2.83551   0.127644   1402100400136 
357.8      358.0      12.092     0.446       2.70365   0.126475   1402100400137 
357.8      358.0      13.01      0.498       2.30363   0.125565   1402100400138 
357.8      358.0      14.037     0.558       1.9627    0.124976   1402100400139 
451.4      930.0       1.104     0.033       0.205936  0.148364   1402100400140 
451.4      930.0       1.173     0.058       0.189236  0.158339   1402100400141 
451.4      930.0       1.859     0.125       0.312497  0.17591    1402100400142 
451.4      930.0       2.128     0.153       0.166761  0.182938   1402100400143 
451.4      930.0       2.461     0.19        0.552254  0.19116    1402100400144 
451.4      930.0       2.879     0.241       0.597204  0.199634   1402100400145 
451.4      930.0       3.414     0.312       1.69215   0.217083   1402100400146 
451.4      930.0       4.116     0.414       2.34947   0.214841   1402100400147 
451.4      930.0       4.29      0.094       2.80129   0.474234   1402100400148 
451.4      930.0       4.478     0.1         2.77325   0.465211   1402100400149 
451.4      930.0       4.679     0.107       2.94513   0.463617   1402100400150 
451.4      930.0       4.894     0.114       3.94953   0.458031   1402100400151 
451.4      930.0       5.123     0.122       4.47992   0.476051   1402100400152 
451.4      930.0       5.37      0.131       4.46721   0.480569   1402100400153 
451.4      930.0       5.634     0.141       4.70131   0.478546   1402100400154 
451.4      930.0       5.919     0.152       5.47978   0.47941    1402100400155 
451.4      930.0       6.226     0.164       5.58069   0.506502   1402100400156 
451.4      930.0       6.558     0.177       6.71942   0.511214   1402100400157 
451.4      930.0       6.917     0.192       7.08589   0.505141   1402100400158 
451.4      930.0       7.307     0.208       8.6118    0.536393   1402100400159 
451.4      930.0       7.731     0.227       8.92176   0.555801   1402100400160 
451.4      930.0       8.192     0.248       9.81052   0.583027   1402100400161 
451.4      930.0       8.697     0.271      10.0514    0.584178   1402100400162 
451.4      930.0       9.25      0.297       8.88066   0.548394   1402100400163 
451.4      930.0       9.858     0.327       8.06426   0.510874   1402100400164 
451.4      930.0      10.528     0.362       6.33901   0.500592   1402100400165 
451.4      930.0      11.269     0.401       3.95401   0.471397   1402100400166 
451.4      930.0      12.092     0.446       3.38407   0.462881   1402100400167 
451.4      930.0      13.01      0.498       3.23486   0.475163   1402100400168 
451.4      930.0      14.037     0.558       2.60951   0.412027   1402100400169 
ENDDATA            159          0                                 1402100400170 
ENDSUBENT          169          0                                 1402100499999 
ENDENTRY             4          0                                 1402199999999 
