ENTRY            14088   20110729                             13731408800000001 
SUBENT        14088001   20110729                             13731408800100001 
BIB                  9         12                                 1408800100002 
INSTITUTE  (1USAMHG)                                              1408800100003 
REFERENCE  (J,DA/B,28,2759,1968) Abstract only                    1408800100004 
AUTHOR     (M.P.Tsoukatos)                                        1408800100005 
TITLE      Thermal neutron irradiation of Uranium-235, bromine,   1408800100006 
           iodine in presence of organic liquid                   1408800100007 
FACILITY   (REAC,1USAAUI)                                         1408800100008 
INC-SOURCE Thermal neutron flux                                   1408800100009 
DETECTOR   (MAGSP) Hiawatha Mass spectrometer                     1408800100010 
SAMPLE     U235 sample                                            1408800100011 
HISTORY    (20051230C) DR                                         1408800100012 
           (20110531A) OS. Author's initials, Title and Status    1408800100013 
            modified                                              1408800100014 
ENDBIB              12          0                                 1408800100015 
COMMON               1          3                                 1408800100016 
EN                                                                1408800100017 
EV                                                                1408800100018 
0.0253                                                            1408800100019 
ENDCOMMON            3          0                                 1408800100020 
ENDSUBENT           19          0                                 1408800199999 
SUBENT        14088002   20110729                             13731408800200001 
BIB                  3          4                                 1408800200002 
REACTION   (92-U-235(N,F)MASS,MAS,FY)                             1408800200003 
ERR-ANALYS (DATA-ERR) No information                              1408800200004 
STATUS     (TABLE) Data taken from Table 2 of dissertation        1408800200005 
             (not given in abstract)                              1408800200006 
ENDBIB               4          0                                 1408800200007 
NOCOMMON             0          0                                 1408800200008 
DATA                 3         64                                 1408800200009 
MASS       DATA       DATA-ERR                                    1408800200010 
NO-DIM     PC/FIS     PC/FIS                                      1408800200011 
 77.       0.0082     0.001                                       1408800200012 
 78.       0.0216     0.002                                       1408800200013 
 79.       0.0439     0.003                                       1408800200014 
 80.       0.130      0.006                                       1408800200015 
 81.       0.190      0.007                                       1408800200016 
 82.       0.321      0.009                                       1408800200017 
 83.       0.560      0.012                                       1408800200018 
 84.       0.950      0.015                                       1408800200019 
 85.       1.41       0.018                                       1408800200020 
 86.       1.95       0.022                                       1408800200021 
 87.       2.53       0.025                                       1408800200022 
 88.       3.58       0.029                                       1408800200023 
 89.       4.85       0.034                                       1408800200024 
 90.       6.01       0.038                                       1408800200025 
 91.       6.03       0.038                                       1408800200026 
 92.       5.96       0.038                                       1408800200027 
 93.       6.25       0.039                                       1408800200028 
 94.       6.54       0.040                                       1408800200029 
 95.       6.65       0.040                                       1408800200030 
 96.       6.34       0.039                                       1408800200031 
 97.       5.92       0.038                                       1408800200032 
 98.       5.74       0.037                                       1408800200033 
 99.       6.04       0.038                                       1408800200034 
100.       6.17       0.038                                       1408800200035 
101.       5.14       0.035                                       1408800200036 
102.       4.26       0.032                                       1408800200037 
103.       2.94       0.027                                       1408800200038 
104.       1.87       0.021                                       1408800200039 
105.       0.957      0.015                                       1408800200040 
106.       0.436      0.010                                       1408800200041 
107.       0.139      0.006                                       1408800200042 
108.       0.067      0.004                                       1408800200043 
109.       0.038      0.003                                       1408800200044 
110.       0.033      0.003                                       1408800200045 
125.       0.0294     0.005                                       1408800200046 
126.       0.0585     0.007                                       1408800200047 
127.       0.1233     0.009                                       1408800200048 
128.       0.3600     0.011                                       1408800200049 
129.       0.8039     0.016                                       1408800200050 
130.       1.8124     0.023                                       1408800200051 
131.       2.925      0.040                                       1408800200052 
132.       4.203      0.048                                       1408800200053 
133.       6.552      0.059                                       1408800200054 
134.       7.616      0.063                                       1408800200055 
135.       6.580      0.059                                       1408800200056 
136.       6.011      0.056                                       1408800200057 
137.       6.610      0.058                                       1408800200058 
138.       6.790      0.059                                       1408800200059 
139.       6.349      0.056                                       1408800200060 
140.       6.132      0.054                                       1408800200061 
141.       6.011      0.053                                       1408800200062 
142.       5.633      0.050                                       1408800200063 
143.       6.088      0.051                                       1408800200064 
144.       5.586      0.048                                       1408800200065 
145.       4.143      0.041                                       1408800200066 
146.       3.000      0.035                                       1408800200067 
147.       2.295      0.031                                       1408800200068 
148.       1.645      0.026                                       1408800200069 
149.       0.967      0.021                                       1408800200070 
150.       0.667      0.018                                       1408800200071 
151.       0.417      0.015                                       1408800200072 
152.       0.275      0.013                                       1408800200073 
153.       0.105      0.011                                       1408800200074 
154.       0.056      0.009                                       1408800200075 
ENDDATA             66          0                                 1408800200076 
ENDSUBENT           75          0                                 1408800299999 
SUBENT        14088003   20110729                             13731408800300001 
BIB                  4          6                                 1408800300002 
REACTION   (92-U-235(N,F)MASS,MAS,FY,,,DERIV)                     1408800300003 
CORRECTION Fission yields obtained from subentry 2, adjusted      1408800300004 
            for delayed neutrons                                  1408800300005 
ERR-ANALYS (DATA-ERR) No information                              1408800300006 
STATUS     (TABLE) Data taken from Table 2 of dissertation        1408800300007 
             (not given in abstract)                              1408800300008 
ENDBIB               6          0                                 1408800300009 
NOCOMMON             0          0                                 1408800300010 
DATA                 3         28                                 1408800300011 
MASS       DATA       DATA-ERR                                    1408800300012 
NO-DIM     PC/FIS     PC/FIS                                      1408800300013 
 84.       1.03       0.019                                       1408800300014 
 85.       1.34       0.022                                       1408800300015 
 86.       1.99       0.023                                       1408800300016 
 87.       2.60       0.029                                       1408800300017 
 88.       3.63       0.043                                       1408800300018 
 89.       4.84       0.064                                       1408800300019 
 90.       5.88       0.045                                       1408800300020 
 91.       6.01       0.041                                       1408800300021 
 92.       6.01       0.043                                       1408800300022 
 93.       6.34       0.050                                       1408800300023 
 94.       6.43       0.049                                       1408800300024 
 95.       6.61       0.042                                       1408800300025 
 96.       6.35       0.040                                       1408800300026 
 97.       6.01       0.098                                       1408800300027 
 98.       5.60       0.097                                       1408800300028 
133.       6.555      0.060                                       1408800300029 
134.       7.651      0.064                                       1408800300030 
135.       6.557      0.060                                       1408800300031 
136.       6.223      0.067                                       1408800300032 
137.       6.458      0.076                                       1408800300033 
138.       6.811      0.077                                       1408800300034 
139.       6.321      0.076                                       1408800300035 
140.       6.070      0.063                                       1408800300036 
141.       6.019      0.053                                       1408800300037 
142.       5.639      0.051                                       1408800300038 
143.       6.087      0.052                                       1408800300039 
144.       5.595      0.049                                       1408800300040 
145.       4.131      0.041                                       1408800300041 
ENDDATA             30          0                                 1408800300042 
ENDSUBENT           41          0                                 1408800399999 
ENDENTRY             3          0                                 1408899999999 
