ENTRY            14091   20100619                             13651409100000001 
SUBENT        14091001   20100619                             13651409100100001 
BIB                 10         19                                 1409100100002 
INSTITUTE  (1USARPI,1USALAS,1USABNL,2FR BRC)                      1409100100003 
REFERENCE  (J,NIM/A,550,397,2005)                                 1409100100004 
AUTHOR     (D.Rochman,R.C.Haight,J.M.O'Donnell,A.Michaudon,       1409100100005 
            S.A.Wender,D.J.Vieira,E.M.Bond,T.A.Bredeweg,          1409100100006 
            A.Kronenberg,J.B.Wilhelmy,T.Ethvignot,T.Granier,      1409100100007 
            M.Petit,Y.Danon)                                      1409100100008 
TITLE      Characteristics of a lead slowing-down spectrometer    1409100100009 
            coupled to the LANSCE accelerator                     1409100100010 
FACILITY   (LINAC,1USALAS) Los Alamos Neutron Science Center      1409100100011 
            (LANSCE)                                              1409100100012 
INC-SOURCE (SPALL) A lead-slowing-down-spectrometer (LSDS),       1409100100013 
            and pulses of 800 MeV protons from the Proton         1409100100014 
            Storage Ring.                                         1409100100015 
METHOD     (SLODT)                                                1409100100016 
DETECTOR   (IOCH) a compensated fission chamber (CFC)             1409100100017 
SAMPLE     Measured fission cross-sections are presented for      1409100100018 
            70 microg of 235U and 27 and 35 ng of 239Pu.          1409100100019 
HISTORY    (20061027C) DR                                         1409100100020 
           (20100617A) OS. METHOD added                           1409100100021 
ENDBIB              19          0                                 1409100100022 
NOCOMMON             0          0                                 1409100100023 
ENDSUBENT           22          0                                 1409100199999 
SUBENT        14091002   20061027                             13421409100200001 
BIB                  3          3                                 1409100200002 
REACTION   (92-U-235(N,F),,SIG)                                   1409100200003 
STATUS     Data received from main author                         1409100200004 
ERR-ANALYS No information                                         1409100200005 
ENDBIB               3          0                                 1409100200006 
NOCOMMON             0          0                                 1409100200007 
DATA                 2       1473                                 1409100200008 
EN         DATA                                                   1409100200009 
KEV        B                                                      1409100200010 
 2.0403E+01 2.2890E+00                                            1409100200011 
 1.9695E+01 2.2867E+00                                            1409100200012 
 1.9024E+01 2.3851E+00                                            1409100200013 
 1.8387E+01 2.3401E+00                                            1409100200014 
 1.7781E+01 2.3836E+00                                            1409100200015 
 1.7205E+01 2.4289E+00                                            1409100200016 
 1.6656E+01 2.4463E+00                                            1409100200017 
 1.6133E+01 2.5482E+00                                            1409100200018 
 1.5635E+01 2.5642E+00                                            1409100200019 
 1.5159E+01 2.6623E+00                                            1409100200020 
 1.4704E+01 2.6152E+00                                            1409100200021 
 1.4270E+01 2.6600E+00                                            1409100200022 
 1.3854E+01 2.6380E+00                                            1409100200023 
 1.3457E+01 2.7485E+00                                            1409100200024 
 1.3076E+01 2.7980E+00                                            1409100200025 
 1.2712E+01 2.8008E+00                                            1409100200026 
 1.2362E+01 2.8625E+00                                            1409100200027 
 1.2026E+01 2.9083E+00                                            1409100200028 
 1.1704E+01 2.8973E+00                                            1409100200029 
 1.1395E+01 2.9186E+00                                            1409100200030 
 1.1098E+01 2.9767E+00                                            1409100200031 
 1.0812E+01 3.0490E+00                                            1409100200032 
 1.0538E+01 3.1014E+00                                            1409100200033 
 1.0273E+01 3.1280E+00                                            1409100200034 
 1.0019E+01 3.1552E+00                                            1409100200035 
 9.7734E+00 3.2270E+00                                            1409100200036 
 9.5370E+00 3.2100E+00                                            1409100200037 
 9.3091E+00 3.3012E+00                                            1409100200038 
 9.0893E+00 3.3027E+00                                            1409100200039 
 8.8772E+00 3.3355E+00                                            1409100200040 
 8.6724E+00 3.4400E+00                                            1409100200041 
 8.4747E+00 3.4092E+00                                            1409100200042 
 8.2836E+00 3.3775E+00                                            1409100200043 
 8.0989E+00 3.5021E+00                                            1409100200044 
 7.9203E+00 3.5216E+00                                            1409100200045 
 7.7476E+00 3.6697E+00                                            1409100200046 
 7.5804E+00 3.7842E+00                                            1409100200047 
 7.4186E+00 3.7802E+00                                            1409100200048 
 7.2620E+00 3.8211E+00                                            1409100200049 
 7.1102E+00 3.8955E+00                                            1409100200050 
 6.9631E+00 3.8208E+00                                            1409100200051 
 6.8206E+00 3.9097E+00                                            1409100200052 
 6.6824E+00 4.0201E+00                                            1409100200053 
 6.5484E+00 3.9941E+00                                            1409100200054 
 6.4183E+00 4.0594E+00                                            1409100200055 
 6.2921E+00 4.1027E+00                                            1409100200056 
 6.1696E+00 4.1132E+00                                            1409100200057 
 6.0506E+00 4.2095E+00                                            1409100200058 
 5.9350E+00 4.2101E+00                                            1409100200059 
 5.8227E+00 4.3175E+00                                            1409100200060 
 5.7136E+00 4.3265E+00                                            1409100200061 
 5.6075E+00 4.5384E+00                                            1409100200062 
 5.5043E+00 4.4899E+00                                            1409100200063 
 5.4039E+00 4.5006E+00                                            1409100200064 
 5.3063E+00 4.4152E+00                                            1409100200065 
 5.2113E+00 4.5284E+00                                            1409100200066 
 5.1188E+00 4.6269E+00                                            1409100200067 
 5.0288E+00 4.7500E+00                                            1409100200068 
 4.9411E+00 4.8780E+00                                            1409100200069 
 4.8557E+00 4.7066E+00                                            1409100200070 
 4.7725E+00 4.8453E+00                                            1409100200071 
 4.6914E+00 4.7628E+00                                            1409100200072 
 4.6123E+00 4.7770E+00                                            1409100200073 
 4.5353E+00 4.9485E+00                                            1409100200074 
 4.4601E+00 5.0602E+00                                            1409100200075 
 4.3868E+00 5.0450E+00                                            1409100200076 
 4.3153E+00 5.0910E+00                                            1409100200077 
 4.2456E+00 5.0271E+00                                            1409100200078 
 4.1775E+00 5.0788E+00                                            1409100200079 
 4.1110E+00 5.0217E+00                                            1409100200080 
 4.0461E+00 5.2638E+00                                            1409100200081 
 3.9827E+00 5.2740E+00                                            1409100200082 
 3.9208E+00 5.1940E+00                                            1409100200083 
 3.8604E+00 5.1971E+00                                            1409100200084 
 3.8013E+00 5.3229E+00                                            1409100200085 
 3.7436E+00 5.2425E+00                                            1409100200086 
 3.6872E+00 5.3301E+00                                            1409100200087 
 3.6320E+00 5.2485E+00                                            1409100200088 
 3.5781E+00 5.4813E+00                                            1409100200089 
 3.5254E+00 5.5927E+00                                            1409100200090 
 3.4738E+00 5.4980E+00                                            1409100200091 
 3.4233E+00 5.5041E+00                                            1409100200092 
 3.3740E+00 5.5432E+00                                            1409100200093 
 3.3257E+00 5.5357E+00                                            1409100200094 
 3.2784E+00 5.5042E+00                                            1409100200095 
 3.2321E+00 5.7155E+00                                            1409100200096 
 3.1868E+00 5.7020E+00                                            1409100200097 
 3.1425E+00 5.6621E+00                                            1409100200098 
 3.0990E+00 5.7967E+00                                            1409100200099 
 3.0565E+00 5.7167E+00                                            1409100200100 
 3.0148E+00 5.6568E+00                                            1409100200101 
 2.9740E+00 5.7375E+00                                            1409100200102 
 2.9340E+00 5.9325E+00                                            1409100200103 
 2.8948E+00 5.9086E+00                                            1409100200104 
 2.8564E+00 5.9376E+00                                            1409100200105 
 2.8187E+00 5.8284E+00                                            1409100200106 
 2.7818E+00 5.9673E+00                                            1409100200107 
 2.7456E+00 5.9952E+00                                            1409100200108 
 2.7101E+00 5.8625E+00                                            1409100200109 
 2.6753E+00 5.8782E+00                                            1409100200110 
 2.6412E+00 6.0465E+00                                            1409100200111 
 2.6077E+00 6.3057E+00                                            1409100200112 
 2.5748E+00 6.1324E+00                                            1409100200113 
 2.5426E+00 6.2032E+00                                            1409100200114 
 2.5109E+00 6.2904E+00                                            1409100200115 
 2.4799E+00 6.2765E+00                                            1409100200116 
 2.4494E+00 6.2498E+00                                            1409100200117 
 2.4194E+00 6.3701E+00                                            1409100200118 
 2.3901E+00 6.3089E+00                                            1409100200119 
 2.3612E+00 6.7449E+00                                            1409100200120 
 2.3329E+00 6.3400E+00                                            1409100200121 
 2.3051E+00 6.3540E+00                                            1409100200122 
 2.2777E+00 6.4679E+00                                            1409100200123 
 2.2509E+00 6.5772E+00                                            1409100200124 
 2.2245E+00 6.4485E+00                                            1409100200125 
 2.1986E+00 6.5574E+00                                            1409100200126 
 2.1732E+00 6.8418E+00                                            1409100200127 
 2.1481E+00 6.6886E+00                                            1409100200128 
 2.1235E+00 6.6239E+00                                            1409100200129 
 2.0994E+00 6.7368E+00                                            1409100200130 
 2.0756E+00 6.6185E+00                                            1409100200131 
 2.0522E+00 6.8543E+00                                            1409100200132 
 2.0293E+00 6.8920E+00                                            1409100200133 
 2.0067E+00 7.0326E+00                                            1409100200134 
 1.9845E+00 7.0069E+00                                            1409100200135 
 1.9626E+00 6.6599E+00                                            1409100200136 
 1.9412E+00 6.8011E+00                                            1409100200137 
 1.9200E+00 7.0827E+00                                            1409100200138 
 1.8992E+00 7.1390E+00                                            1409100200139 
 1.8788E+00 7.5000E+00                                            1409100200140 
 1.8586E+00 7.1883E+00                                            1409100200141 
 1.8388E+00 6.9127E+00                                            1409100200142 
 1.8194E+00 7.1356E+00                                            1409100200143 
 1.8002E+00 7.1215E+00                                            1409100200144 
 1.7813E+00 7.2351E+00                                            1409100200145 
 1.7627E+00 7.3498E+00                                            1409100200146 
 1.7444E+00 7.4347E+00                                            1409100200147 
 1.7264E+00 7.5464E+00                                            1409100200148 
 1.7087E+00 7.4480E+00                                            1409100200149 
 1.6912E+00 7.1837E+00                                            1409100200150 
 1.6740E+00 7.3303E+00                                            1409100200151 
 1.6571E+00 7.5142E+00                                            1409100200152 
 1.6404E+00 7.5192E+00                                            1409100200153 
 1.6240E+00 7.7064E+00                                            1409100200154 
 1.6078E+00 7.8739E+00                                            1409100200155 
 1.5918E+00 7.2814E+00                                            1409100200156 
 1.5761E+00 7.5829E+00                                            1409100200157 
 1.5607E+00 7.7594E+00                                            1409100200158 
 1.5454E+00 7.8419E+00                                            1409100200159 
 1.5304E+00 7.5535E+00                                            1409100200160 
 1.5156E+00 8.2792E+00                                            1409100200161 
 1.5010E+00 8.4830E+00                                            1409100200162 
 1.4866E+00 8.0919E+00                                            1409100200163 
 1.4724E+00 7.9371E+00                                            1409100200164 
 1.4585E+00 7.8370E+00                                            1409100200165 
 1.4447E+00 8.0492E+00                                            1409100200166 
 1.4311E+00 8.0280E+00                                            1409100200167 
 1.4177E+00 8.2471E+00                                            1409100200168 
 1.4045E+00 8.5079E+00                                            1409100200169 
 1.3915E+00 8.4255E+00                                            1409100200170 
 1.3786E+00 8.0755E+00                                            1409100200171 
 1.3660E+00 8.5434E+00                                            1409100200172 
 1.3535E+00 8.5124E+00                                            1409100200173 
 1.3411E+00 8.2981E+00                                            1409100200174 
 1.3290E+00 8.5947E+00                                            1409100200175 
 1.3170E+00 8.3134E+00                                            1409100200176 
 1.3052E+00 8.2644E+00                                            1409100200177 
 1.2935E+00 8.4611E+00                                            1409100200178 
 1.2820E+00 8.4352E+00                                            1409100200179 
 1.2706E+00 8.3261E+00                                            1409100200180 
 1.2594E+00 8.5364E+00                                            1409100200181 
 1.2484E+00 8.9447E+00                                            1409100200182 
 1.2374E+00 8.8560E+00                                            1409100200183 
 1.2267E+00 8.8162E+00                                            1409100200184 
 1.2160E+00 8.8452E+00                                            1409100200185 
 1.2055E+00 8.5817E+00                                            1409100200186 
 1.1952E+00 8.8299E+00                                            1409100200187 
 1.1850E+00 8.8339E+00                                            1409100200188 
 1.1749E+00 9.2863E+00                                            1409100200189 
 1.1649E+00 8.9940E+00                                            1409100200190 
 1.1550E+00 8.9965E+00                                            1409100200191 
 1.1453E+00 8.8839E+00                                            1409100200192 
 1.1357E+00 8.5657E+00                                            1409100200193 
 1.1263E+00 8.8382E+00                                            1409100200194 
 1.1169E+00 8.5569E+00                                            1409100200195 
 1.1077E+00 9.0520E+00                                            1409100200196 
 1.0985E+00 9.0822E+00                                            1409100200197 
 1.0895E+00 9.4225E+00                                            1409100200198 
 1.0806E+00 9.1579E+00                                            1409100200199 
 1.0718E+00 9.3342E+00                                            1409100200200 
 1.0631E+00 9.0837E+00                                            1409100200201 
 1.0545E+00 9.2862E+00                                            1409100200202 
 1.0461E+00 8.9517E+00                                            1409100200203 
 1.0377E+00 8.9502E+00                                            1409100200204 
 1.0294E+00 9.2590E+00                                            1409100200205 
 1.0212E+00 9.2670E+00                                            1409100200206 
 1.0131E+00 9.5415E+00                                            1409100200207 
 1.0051E+00 9.3884E+00                                            1409100200208 
 9.9335E-01 9.2167E+00                                            1409100200209 
 9.7793E-01 9.5372E+00                                            1409100200210 
 9.6287E-01 9.8062E+00                                            1409100200211 
 9.4815E-01 9.5983E+00                                            1409100200212 
 9.3378E-01 1.0067E+01                                            1409100200213 
 9.1971E-01 1.0036E+01                                            1409100200214 
 9.0597E-01 1.0201E+01                                            1409100200215 
 8.9253E-01 1.0165E+01                                            1409100200216 
 8.7939E-01 1.0457E+01                                            1409100200217 
 8.6654E-01 1.0677E+01                                            1409100200218 
 8.5397E-01 1.0207E+01                                            1409100200219 
 8.4167E-01 1.1060E+01                                            1409100200220 
 8.2964E-01 1.0989E+01                                            1409100200221 
 8.1786E-01 1.0972E+01                                            1409100200222 
 8.0632E-01 1.1053E+01                                            1409100200223 
 7.9504E-01 1.1374E+01                                            1409100200224 
 7.8397E-01 1.1530E+01                                            1409100200225 
 7.7316E-01 1.1504E+01                                            1409100200226 
 7.6255E-01 1.1854E+01                                            1409100200227 
 7.5217E-01 1.2020E+01                                            1409100200228 
 7.4199E-01 1.2310E+01                                            1409100200229 
 7.3203E-01 1.1840E+01                                            1409100200230 
 7.2225E-01 1.2488E+01                                            1409100200231 
 7.1268E-01 1.2669E+01                                            1409100200232 
 7.0329E-01 1.2551E+01                                            1409100200233 
 6.9409E-01 1.3054E+01                                            1409100200234 
 6.8507E-01 1.2996E+01                                            1409100200235 
 6.7622E-01 1.2622E+01                                            1409100200236 
 6.6754E-01 1.3080E+01                                            1409100200237 
 6.5902E-01 1.2992E+01                                            1409100200238 
 6.5068E-01 1.3586E+01                                            1409100200239 
 6.4248E-01 1.3516E+01                                            1409100200240 
 6.3445E-01 1.3396E+01                                            1409100200241 
 6.2655E-01 1.3773E+01                                            1409100200242 
 6.1882E-01 1.4085E+01                                            1409100200243 
 6.1121E-01 1.3954E+01                                            1409100200244 
 6.0376E-01 1.4304E+01                                            1409100200245 
 5.9643E-01 1.4619E+01                                            1409100200246 
 5.8924E-01 1.4471E+01                                            1409100200247 
 5.8217E-01 1.4516E+01                                            1409100200248 
 5.7524E-01 1.4494E+01                                            1409100200249 
 5.6842E-01 1.4947E+01                                            1409100200250 
 5.6173E-01 1.4771E+01                                            1409100200251 
 5.5515E-01 1.4670E+01                                            1409100200252 
 5.4869E-01 1.4673E+01                                            1409100200253 
 5.4234E-01 1.4842E+01                                            1409100200254 
 5.3611E-01 1.4597E+01                                            1409100200255 
 5.2997E-01 1.4988E+01                                            1409100200256 
 5.2394E-01 1.5122E+01                                            1409100200257 
 5.1802E-01 1.4881E+01                                            1409100200258 
 5.1219E-01 1.4694E+01                                            1409100200259 
 5.0647E-01 1.4922E+01                                            1409100200260 
 5.0084E-01 1.5397E+01                                            1409100200261 
 4.9529E-01 1.4898E+01                                            1409100200262 
 4.8985E-01 1.4958E+01                                            1409100200263 
 4.8449E-01 1.5353E+01                                            1409100200264 
 4.7922E-01 1.5093E+01                                            1409100200265 
 4.7403E-01 1.4868E+01                                            1409100200266 
 4.6893E-01 1.5569E+01                                            1409100200267 
 4.6392E-01 1.5299E+01                                            1409100200268 
 4.5898E-01 1.4721E+01                                            1409100200269 
 4.5411E-01 1.5517E+01                                            1409100200270 
 4.4933E-01 1.5149E+01                                            1409100200271 
 4.4462E-01 1.4348E+01                                            1409100200272 
 4.3999E-01 1.4464E+01                                            1409100200273 
 4.3543E-01 1.4953E+01                                            1409100200274 
 4.3094E-01 1.4659E+01                                            1409100200275 
 4.2651E-01 1.4688E+01                                            1409100200276 
 4.2215E-01 1.4964E+01                                            1409100200277 
 4.1786E-01 1.4857E+01                                            1409100200278 
 4.1364E-01 1.5528E+01                                            1409100200279 
 4.0948E-01 1.4673E+01                                            1409100200280 
 4.0539E-01 1.5088E+01                                            1409100200281 
 4.0135E-01 1.5436E+01                                            1409100200282 
 3.9737E-01 1.5231E+01                                            1409100200283 
 3.9345E-01 1.5967E+01                                            1409100200284 
 3.8959E-01 1.5710E+01                                            1409100200285 
 3.8578E-01 1.5462E+01                                            1409100200286 
 3.8204E-01 1.5129E+01                                            1409100200287 
 3.7834E-01 1.5182E+01                                            1409100200288 
 3.7471E-01 1.6101E+01                                            1409100200289 
 3.7112E-01 1.5769E+01                                            1409100200290 
 3.6758E-01 1.5436E+01                                            1409100200291 
 3.6410E-01 1.6316E+01                                            1409100200292 
 3.6066E-01 1.6372E+01                                            1409100200293 
 3.5727E-01 1.6040E+01                                            1409100200294 
 3.5393E-01 1.6345E+01                                            1409100200295 
 3.5063E-01 1.7104E+01                                            1409100200296 
 3.4739E-01 1.6698E+01                                            1409100200297 
 3.4418E-01 1.6500E+01                                            1409100200298 
 3.4102E-01 1.6959E+01                                            1409100200299 
 3.3791E-01 1.6786E+01                                            1409100200300 
 3.3483E-01 1.7103E+01                                            1409100200301 
 3.3180E-01 1.7376E+01                                            1409100200302 
 3.2881E-01 1.7967E+01                                            1409100200303 
 3.2586E-01 1.8247E+01                                            1409100200304 
 3.2294E-01 1.7776E+01                                            1409100200305 
 3.2007E-01 1.7888E+01                                            1409100200306 
 3.1723E-01 1.8252E+01                                            1409100200307 
 3.1444E-01 1.7882E+01                                            1409100200308 
 3.1167E-01 1.8346E+01                                            1409100200309 
 3.0895E-01 1.8448E+01                                            1409100200310 
 3.0627E-01 1.8353E+01                                            1409100200311 
 3.0361E-01 1.8677E+01                                            1409100200312 
 3.0100E-01 1.8698E+01                                            1409100200313 
 2.9841E-01 1.9799E+01                                            1409100200314 
 2.9585E-01 1.8724E+01                                            1409100200315 
 2.9334E-01 1.9256E+01                                            1409100200316 
 2.9085E-01 2.0315E+01                                            1409100200317 
 2.8839E-01 2.0371E+01                                            1409100200318 
 2.8597E-01 2.0108E+01                                            1409100200319 
 2.8121E-01 2.0874E+01                                            1409100200320 
 2.7887E-01 2.0629E+01                                            1409100200321 
 2.7657E-01 2.0637E+01                                            1409100200322 
 2.7430E-01 2.0891E+01                                            1409100200323 
 2.7204E-01 2.1646E+01                                            1409100200324 
 2.6982E-01 2.0415E+01                                            1409100200325 
 2.6763E-01 2.1336E+01                                            1409100200326 
 2.6546E-01 2.1808E+01                                            1409100200327 
 2.6332E-01 2.2253E+01                                            1409100200328 
 2.6120E-01 2.1541E+01                                            1409100200329 
 2.5911E-01 2.2797E+01                                            1409100200330 
 2.5704E-01 2.1275E+01                                            1409100200331 
 2.5500E-01 2.1605E+01                                            1409100200332 
 2.5298E-01 2.2117E+01                                            1409100200333 
 2.5099E-01 2.2520E+01                                            1409100200334 
 2.4902E-01 2.3431E+01                                            1409100200335 
 2.4707E-01 2.2463E+01                                            1409100200336 
 2.4515E-01 2.2972E+01                                            1409100200337 
 2.4325E-01 2.3468E+01                                            1409100200338 
 2.4137E-01 2.2422E+01                                            1409100200339 
 2.3951E-01 2.3090E+01                                            1409100200340 
 2.3768E-01 2.2601E+01                                            1409100200341 
 2.3586E-01 2.3553E+01                                            1409100200342 
 2.3407E-01 2.2487E+01                                            1409100200343 
 2.3229E-01 2.3136E+01                                            1409100200344 
 2.3053E-01 2.2045E+01                                            1409100200345 
 2.2880E-01 2.2866E+01                                            1409100200346 
 2.2709E-01 2.2580E+01                                            1409100200347 
 2.2539E-01 2.3694E+01                                            1409100200348 
 2.2372E-01 2.3536E+01                                            1409100200349 
 2.2206E-01 2.2533E+01                                            1409100200350 
 2.2042E-01 2.2823E+01                                            1409100200351 
 2.1879E-01 2.3137E+01                                            1409100200352 
 2.1719E-01 2.3129E+01                                            1409100200353 
 2.1560E-01 2.1782E+01                                            1409100200354 
 2.1404E-01 2.2680E+01                                            1409100200355 
 2.1249E-01 2.2400E+01                                            1409100200356 
 2.1095E-01 2.2755E+01                                            1409100200357 
 2.0943E-01 2.1971E+01                                            1409100200358 
 2.0793E-01 2.2947E+01                                            1409100200359 
 2.0644E-01 2.3134E+01                                            1409100200360 
 2.0497E-01 2.2085E+01                                            1409100200361 
 2.0352E-01 2.2911E+01                                            1409100200362 
 2.0208E-01 2.3275E+01                                            1409100200363 
 2.0066E-01 2.2043E+01                                            1409100200364 
 1.9925E-01 2.2516E+01                                            1409100200365 
 1.9785E-01 2.1155E+01                                            1409100200366 
 1.9648E-01 2.2900E+01                                            1409100200367 
 1.9511E-01 2.2438E+01                                            1409100200368 
 1.9376E-01 2.1766E+01                                            1409100200369 
 1.9242E-01 2.2282E+01                                            1409100200370 
 1.9110E-01 2.2355E+01                                            1409100200371 
 1.8979E-01 2.2698E+01                                            1409100200372 
 1.8849E-01 2.1896E+01                                            1409100200373 
 1.8721E-01 2.2431E+01                                            1409100200374 
 1.8593E-01 2.1951E+01                                            1409100200375 
 1.8468E-01 2.1674E+01                                            1409100200376 
 1.8344E-01 2.2251E+01                                            1409100200377 
 1.8221E-01 2.2602E+01                                            1409100200378 
 1.8099E-01 2.2304E+01                                            1409100200379 
 1.7978E-01 2.2516E+01                                            1409100200380 
 1.7858E-01 2.3099E+01                                            1409100200381 
 1.7740E-01 2.3010E+01                                            1409100200382 
 1.7623E-01 2.2946E+01                                            1409100200383 
 1.7507E-01 2.3137E+01                                            1409100200384 
 1.7392E-01 2.3405E+01                                            1409100200385 
 1.7278E-01 2.2813E+01                                            1409100200386 
 1.7166E-01 2.2991E+01                                            1409100200387 
 1.7054E-01 2.3711E+01                                            1409100200388 
 1.6944E-01 2.2824E+01                                            1409100200389 
 1.6834E-01 2.3523E+01                                            1409100200390 
 1.6726E-01 2.2823E+01                                            1409100200391 
 1.6619E-01 2.3638E+01                                            1409100200392 
 1.6512E-01 2.2899E+01                                            1409100200393 
 1.6407E-01 2.2923E+01                                            1409100200394 
 1.6303E-01 2.2986E+01                                            1409100200395 
 1.6200E-01 2.3748E+01                                            1409100200396 
 1.6098E-01 2.3266E+01                                            1409100200397 
 1.5997E-01 2.3514E+01                                            1409100200398 
 1.5896E-01 2.3875E+01                                            1409100200399 
 1.5796E-01 2.2909E+01                                            1409100200400 
 1.5699E-01 2.3412E+01                                            1409100200401 
 1.5601E-01 2.3284E+01                                            1409100200402 
 1.5504E-01 2.3953E+01                                            1409100200403 
 1.5408E-01 2.2710E+01                                            1409100200404 
 1.5313E-01 2.4193E+01                                            1409100200405 
 1.5220E-01 2.4447E+01                                            1409100200406 
 1.5126E-01 2.2639E+01                                            1409100200407 
 1.5034E-01 2.3424E+01                                            1409100200408 
 1.4943E-01 2.4491E+01                                            1409100200409 
 1.4852E-01 2.4886E+01                                            1409100200410 
 1.4762E-01 2.4024E+01                                            1409100200411 
 1.4673E-01 2.4572E+01                                            1409100200412 
 1.4585E-01 2.5309E+01                                            1409100200413 
 1.4497E-01 2.4901E+01                                            1409100200414 
 1.4411E-01 2.4138E+01                                            1409100200415 
 1.4325E-01 2.5533E+01                                            1409100200416 
 1.4240E-01 2.5891E+01                                            1409100200417 
 1.4156E-01 2.5006E+01                                            1409100200418 
 1.4072E-01 2.4626E+01                                            1409100200419 
 1.3989E-01 2.5256E+01                                            1409100200420 
 1.3908E-01 2.4887E+01                                            1409100200421 
 1.3826E-01 2.4917E+01                                            1409100200422 
 1.3745E-01 2.5786E+01                                            1409100200423 
 1.3665E-01 2.5524E+01                                            1409100200424 
 1.3586E-01 2.6406E+01                                            1409100200425 
 1.3508E-01 2.3530E+01                                            1409100200426 
 1.3430E-01 2.5941E+01                                            1409100200427 
 1.3353E-01 2.5597E+01                                            1409100200428 
 1.3276E-01 2.3956E+01                                            1409100200429 
 1.3200E-01 2.4986E+01                                            1409100200430 
 1.3125E-01 2.5508E+01                                            1409100200431 
 1.3051E-01 2.6192E+01                                            1409100200432 
 1.2976E-01 2.4878E+01                                            1409100200433 
 1.2903E-01 2.6051E+01                                            1409100200434 
 1.2830E-01 2.6500E+01                                            1409100200435 
 1.2758E-01 2.5091E+01                                            1409100200436 
 1.2687E-01 2.5784E+01                                            1409100200437 
 1.2615E-01 2.6449E+01                                            1409100200438 
 1.2546E-01 2.5515E+01                                            1409100200439 
 1.2476E-01 2.5331E+01                                            1409100200440 
 1.2406E-01 2.5672E+01                                            1409100200441 
 1.2338E-01 2.7138E+01                                            1409100200442 
 1.2270E-01 2.4338E+01                                            1409100200443 
 1.2202E-01 2.5510E+01                                            1409100200444 
 1.2136E-01 2.4942E+01                                            1409100200445 
 1.2070E-01 2.5267E+01                                            1409100200446 
 1.2004E-01 2.4937E+01                                            1409100200447 
 1.1938E-01 2.4559E+01                                            1409100200448 
 1.1873E-01 2.4599E+01                                            1409100200449 
 1.1809E-01 2.5019E+01                                            1409100200450 
 1.1746E-01 2.5676E+01                                            1409100200451 
 1.1683E-01 2.5137E+01                                            1409100200452 
 1.1620E-01 2.6440E+01                                            1409100200453 
 1.1558E-01 2.4878E+01                                            1409100200454 
 1.1496E-01 2.4994E+01                                            1409100200455 
 1.1435E-01 2.4731E+01                                            1409100200456 
 1.1374E-01 2.5997E+01                                            1409100200457 
 1.1314E-01 2.4775E+01                                            1409100200458 
 1.1254E-01 2.5932E+01                                            1409100200459 
 1.1195E-01 2.5424E+01                                            1409100200460 
 1.1136E-01 2.3323E+01                                            1409100200461 
 1.1078E-01 2.4915E+01                                            1409100200462 
 1.1020E-01 2.5663E+01                                            1409100200463 
 1.0963E-01 2.4188E+01                                            1409100200464 
 1.0906E-01 2.3713E+01                                            1409100200465 
 1.0849E-01 2.4672E+01                                            1409100200466 
 1.0793E-01 2.6204E+01                                            1409100200467 
 1.0737E-01 2.5664E+01                                            1409100200468 
 1.0682E-01 2.5693E+01                                            1409100200469 
 1.0627E-01 2.5079E+01                                            1409100200470 
 1.0573E-01 2.5658E+01                                            1409100200471 
 1.0519E-01 2.5810E+01                                            1409100200472 
 1.0466E-01 2.5966E+01                                            1409100200473 
 1.0412E-01 2.4859E+01                                            1409100200474 
 1.0360E-01 2.5093E+01                                            1409100200475 
 1.0307E-01 2.4872E+01                                            1409100200476 
 1.0255E-01 2.5219E+01                                            1409100200477 
 1.0204E-01 2.5877E+01                                            1409100200478 
 1.0153E-01 2.4606E+01                                            1409100200479 
 1.0101E-01 2.5222E+01                                            1409100200480 
 1.0051E-01 2.5303E+01                                            1409100200481 
 1.0002E-01 2.3370E+01                                            1409100200482 
 9.9020E-02 2.5488E+01                                            1409100200483 
 9.7570E-02 2.6372E+01                                            1409100200484 
 9.6140E-02 2.6048E+01                                            1409100200485 
 9.4740E-02 2.7240E+01                                            1409100200486 
 9.3380E-02 2.7295E+01                                            1409100200487 
 9.2050E-02 2.8056E+01                                            1409100200488 
 9.0740E-02 2.8106E+01                                            1409100200489 
 8.9470E-02 2.8226E+01                                            1409100200490 
 8.8210E-02 2.8040E+01                                            1409100200491 
 8.6990E-02 2.8883E+01                                            1409100200492 
 8.5790E-02 2.9497E+01                                            1409100200493 
 8.4610E-02 2.9652E+01                                            1409100200494 
 8.3460E-02 3.0657E+01                                            1409100200495 
 8.2330E-02 3.0702E+01                                            1409100200496 
 8.1230E-02 3.0316E+01                                            1409100200497 
 8.0140E-02 3.0298E+01                                            1409100200498 
 7.9080E-02 3.1178E+01                                            1409100200499 
 7.8040E-02 3.0942E+01                                            1409100200500 
 7.7020E-02 3.1626E+01                                            1409100200501 
 7.6020E-02 3.1964E+01                                            1409100200502 
 7.5040E-02 3.3378E+01                                            1409100200503 
 7.4080E-02 3.2422E+01                                            1409100200504 
 7.3130E-02 3.2151E+01                                            1409100200505 
 7.2210E-02 3.2737E+01                                            1409100200506 
 7.1290E-02 3.3248E+01                                            1409100200507 
 7.0400E-02 3.3419E+01                                            1409100200508 
 6.9530E-02 3.3409E+01                                            1409100200509 
 6.8670E-02 3.3921E+01                                            1409100200510 
 6.7830E-02 3.4402E+01                                            1409100200511 
 6.7000E-02 3.5132E+01                                            1409100200512 
 6.6190E-02 3.5314E+01                                            1409100200513 
 6.5390E-02 3.5721E+01                                            1409100200514 
 6.4610E-02 3.7820E+01                                            1409100200515 
 6.3840E-02 3.7617E+01                                            1409100200516 
 6.3090E-02 3.8822E+01                                            1409100200517 
 6.2340E-02 3.8436E+01                                            1409100200518 
 6.1610E-02 4.1858E+01                                            1409100200519 
 6.0890E-02 4.2018E+01                                            1409100200520 
 6.0190E-02 4.3138E+01                                            1409100200521 
 5.9500E-02 4.3106E+01                                            1409100200522 
 5.8820E-02 4.4076E+01                                            1409100200523 
 5.8150E-02 4.5134E+01                                            1409100200524 
 5.7490E-02 4.6639E+01                                            1409100200525 
 5.6850E-02 4.6800E+01                                            1409100200526 
 5.6210E-02 4.7251E+01                                            1409100200527 
 5.5590E-02 4.8514E+01                                            1409100200528 
 5.4970E-02 4.8301E+01                                            1409100200529 
 5.4370E-02 4.9458E+01                                            1409100200530 
 5.3770E-02 5.0069E+01                                            1409100200531 
 5.3190E-02 4.9525E+01                                            1409100200532 
 5.2620E-02 4.9190E+01                                            1409100200533 
 5.2050E-02 4.9480E+01                                            1409100200534 
 5.1490E-02 5.0042E+01                                            1409100200535 
 5.0940E-02 4.9987E+01                                            1409100200536 
 5.0400E-02 5.1242E+01                                            1409100200537 
 4.9870E-02 5.1156E+01                                            1409100200538 
 4.9350E-02 5.0031E+01                                            1409100200539 
 4.8840E-02 4.9581E+01                                            1409100200540 
 4.8330E-02 4.8598E+01                                            1409100200541 
 4.7830E-02 4.9028E+01                                            1409100200542 
 4.7340E-02 4.6400E+01                                            1409100200543 
 4.6860E-02 4.8038E+01                                            1409100200544 
 4.6380E-02 4.7946E+01                                            1409100200545 
 4.5910E-02 4.6843E+01                                            1409100200546 
 4.5450E-02 4.5783E+01                                            1409100200547 
 4.5000E-02 4.5879E+01                                            1409100200548 
 4.4550E-02 4.7245E+01                                            1409100200549 
 4.4110E-02 4.7267E+01                                            1409100200550 
 4.3670E-02 4.7930E+01                                            1409100200551 
 4.3240E-02 4.7307E+01                                            1409100200552 
 4.2830E-02 4.6908E+01                                            1409100200553 
 4.2410E-02 4.6675E+01                                            1409100200554 
 4.2000E-02 4.7580E+01                                            1409100200555 
 4.1590E-02 4.7210E+01                                            1409100200556 
 4.1200E-02 4.8874E+01                                            1409100200557 
 4.0810E-02 4.8400E+01                                            1409100200558 
 4.0420E-02 4.6459E+01                                            1409100200559 
 4.0040E-02 4.9128E+01                                            1409100200560 
 3.9660E-02 4.9548E+01                                            1409100200561 
 3.9290E-02 5.0403E+01                                            1409100200562 
 3.8920E-02 5.2175E+01                                            1409100200563 
 3.8560E-02 5.0555E+01                                            1409100200564 
 3.8210E-02 5.1693E+01                                            1409100200565 
 3.7860E-02 5.1836E+01                                            1409100200566 
 3.7510E-02 5.3375E+01                                            1409100200567 
 3.7170E-02 5.2551E+01                                            1409100200568 
 3.6830E-02 5.3130E+01                                            1409100200569 
 3.6500E-02 5.3533E+01                                            1409100200570 
 3.6170E-02 5.4356E+01                                            1409100200571 
 3.5850E-02 5.3991E+01                                            1409100200572 
 3.5530E-02 5.7091E+01                                            1409100200573 
 3.5220E-02 5.7491E+01                                            1409100200574 
 3.4910E-02 5.4572E+01                                            1409100200575 
 3.4600E-02 5.5929E+01                                            1409100200576 
 3.4290E-02 5.4217E+01                                            1409100200577 
 3.4000E-02 5.4737E+01                                            1409100200578 
 3.3700E-02 5.4163E+01                                            1409100200579 
 3.3420E-02 5.4477E+01                                            1409100200580 
 3.3130E-02 5.4794E+01                                            1409100200581 
 3.2840E-02 5.3908E+01                                            1409100200582 
 3.2560E-02 5.1591E+01                                            1409100200583 
 3.2290E-02 5.0887E+01                                            1409100200584 
 3.2020E-02 5.0869E+01                                            1409100200585 
 3.1750E-02 5.3466E+01                                            1409100200586 
 3.1480E-02 5.1689E+01                                            1409100200587 
 3.1220E-02 5.0961E+01                                            1409100200588 
 3.0960E-02 5.0858E+01                                            1409100200589 
 3.0710E-02 4.7121E+01                                            1409100200590 
 3.0450E-02 4.6699E+01                                            1409100200591 
 3.0200E-02 4.8333E+01                                            1409100200592 
 2.9950E-02 4.8199E+01                                            1409100200593 
 2.9710E-02 4.7599E+01                                            1409100200594 
 2.9470E-02 4.6766E+01                                            1409100200595 
 2.9230E-02 4.8077E+01                                            1409100200596 
 2.9000E-02 4.6875E+01                                            1409100200597 
 2.8770E-02 4.4921E+01                                            1409100200598 
 2.8540E-02 4.3981E+01                                            1409100200599 
 2.8310E-02 4.4020E+01                                            1409100200600 
 2.8090E-02 4.4234E+01                                            1409100200601 
 2.7870E-02 4.3638E+01                                            1409100200602 
 2.7650E-02 4.3052E+01                                            1409100200603 
 2.7430E-02 4.2429E+01                                            1409100200604 
 2.7220E-02 4.3680E+01                                            1409100200605 
 2.7010E-02 4.5585E+01                                            1409100200606 
 2.6800E-02 4.5264E+01                                            1409100200607 
 2.6590E-02 4.4789E+01                                            1409100200608 
 2.6390E-02 4.3139E+01                                            1409100200609 
 2.6190E-02 4.8110E+01                                            1409100200610 
 2.5990E-02 4.6389E+01                                            1409100200611 
 2.5790E-02 4.5164E+01                                            1409100200612 
 2.5600E-02 4.7807E+01                                            1409100200613 
 2.5400E-02 4.6565E+01                                            1409100200614 
 2.5210E-02 4.6549E+01                                            1409100200615 
 2.5020E-02 4.5667E+01                                            1409100200616 
 2.4840E-02 4.7100E+01                                            1409100200617 
 2.4660E-02 4.8219E+01                                            1409100200618 
 2.4480E-02 4.9169E+01                                            1409100200619 
 2.4300E-02 4.8630E+01                                            1409100200620 
 2.4120E-02 5.2873E+01                                            1409100200621 
 2.3940E-02 5.1551E+01                                            1409100200622 
 2.3770E-02 5.0217E+01                                            1409100200623 
 2.3590E-02 5.2023E+01                                            1409100200624 
 2.3420E-02 5.3052E+01                                            1409100200625 
 2.3250E-02 5.1159E+01                                            1409100200626 
 2.3090E-02 5.2674E+01                                            1409100200627 
 2.2920E-02 4.9333E+01                                            1409100200628 
 2.2760E-02 5.3864E+01                                            1409100200629 
 2.2600E-02 5.4344E+01                                            1409100200630 
 2.2440E-02 5.6624E+01                                            1409100200631 
 2.2280E-02 5.5704E+01                                            1409100200632 
 2.2120E-02 5.4251E+01                                            1409100200633 
 2.1970E-02 5.6530E+01                                            1409100200634 
 2.1820E-02 5.8171E+01                                            1409100200635 
 2.1670E-02 5.8820E+01                                            1409100200636 
 2.1510E-02 5.8704E+01                                            1409100200637 
 2.1360E-02 6.0275E+01                                            1409100200638 
 2.1220E-02 5.7098E+01                                            1409100200639 
 2.1070E-02 5.8566E+01                                            1409100200640 
 2.0930E-02 5.9877E+01                                            1409100200641 
 2.0790E-02 5.8397E+01                                            1409100200642 
 2.0650E-02 6.0620E+01                                            1409100200643 
 2.0500E-02 6.1445E+01                                            1409100200644 
 2.0370E-02 6.3934E+01                                            1409100200645 
 2.0230E-02 6.0519E+01                                            1409100200646 
 2.0090E-02 5.9800E+01                                            1409100200647 
 1.9960E-02 6.1036E+01                                            1409100200648 
 1.9830E-02 6.4260E+01                                            1409100200649 
 1.9700E-02 6.3042E+01                                            1409100200650 
 1.9570E-02 6.2733E+01                                            1409100200651 
 1.9440E-02 6.3419E+01                                            1409100200652 
 1.9310E-02 6.5983E+01                                            1409100200653 
 1.9190E-02 6.0993E+01                                            1409100200654 
 1.9060E-02 6.2496E+01                                            1409100200655 
 1.8940E-02 6.2710E+01                                            1409100200656 
 1.8810E-02 6.3795E+01                                            1409100200657 
 1.8690E-02 6.0216E+01                                            1409100200658 
 1.8570E-02 6.2267E+01                                            1409100200659 
 1.8450E-02 6.3330E+01                                            1409100200660 
 1.8340E-02 6.1633E+01                                            1409100200661 
 1.8220E-02 6.1371E+01                                            1409100200662 
 1.8100E-02 6.1807E+01                                            1409100200663 
 1.7990E-02 6.1070E+01                                            1409100200664 
 1.7870E-02 5.7478E+01                                            1409100200665 
 1.7760E-02 5.7796E+01                                            1409100200666 
 1.7650E-02 5.6417E+01                                            1409100200667 
 1.7540E-02 5.5995E+01                                            1409100200668 
 1.7430E-02 5.7510E+01                                            1409100200669 
 1.7320E-02 5.5786E+01                                            1409100200670 
 1.7220E-02 5.5645E+01                                            1409100200671 
 1.7110E-02 5.3296E+01                                            1409100200672 
 1.7000E-02 5.3501E+01                                            1409100200673 
 1.6900E-02 5.6822E+01                                            1409100200674 
 1.6800E-02 5.1244E+01                                            1409100200675 
 1.6700E-02 4.9926E+01                                            1409100200676 
 1.6590E-02 5.4100E+01                                            1409100200677 
 1.6490E-02 5.1767E+01                                            1409100200678 
 1.6390E-02 5.2458E+01                                            1409100200679 
 1.6290E-02 5.1199E+01                                            1409100200680 
 1.6200E-02 5.0113E+01                                            1409100200681 
 1.6100E-02 4.9292E+01                                            1409100200682 
 1.6000E-02 4.8502E+01                                            1409100200683 
 1.5910E-02 5.0450E+01                                            1409100200684 
 1.5810E-02 4.7739E+01                                            1409100200685 
 1.5720E-02 4.9518E+01                                            1409100200686 
 1.5630E-02 4.5127E+01                                            1409100200687 
 1.5540E-02 4.7868E+01                                            1409100200688 
 1.5450E-02 4.7956E+01                                            1409100200689 
 1.5360E-02 4.8240E+01                                            1409100200690 
 1.5270E-02 4.5953E+01                                            1409100200691 
 1.5170E-02 4.3482E+01                                            1409100200692 
 1.5090E-02 4.5839E+01                                            1409100200693 
 1.5000E-02 4.4751E+01                                            1409100200694 
 1.4910E-02 4.9967E+01                                            1409100200695 
 1.4830E-02 4.6129E+01                                            1409100200696 
 1.4740E-02 4.6398E+01                                            1409100200697 
 1.4660E-02 4.8413E+01                                            1409100200698 
 1.4570E-02 4.6778E+01                                            1409100200699 
 1.4490E-02 4.7460E+01                                            1409100200700 
 1.4410E-02 5.1034E+01                                            1409100200701 
 1.4330E-02 4.9060E+01                                            1409100200702 
 1.4250E-02 4.7799E+01                                            1409100200703 
 1.4170E-02 4.7591E+01                                            1409100200704 
 1.4090E-02 5.1446E+01                                            1409100200705 
 1.4010E-02 4.8824E+01                                            1409100200706 
 1.3930E-02 4.8287E+01                                            1409100200707 
 1.3850E-02 5.0135E+01                                            1409100200708 
 1.3780E-02 5.0800E+01                                            1409100200709 
 1.3700E-02 4.5848E+01                                            1409100200710 
 1.3630E-02 4.8655E+01                                            1409100200711 
 1.3550E-02 5.0089E+01                                            1409100200712 
 1.3480E-02 5.1880E+01                                            1409100200713 
 1.3400E-02 5.1320E+01                                            1409100200714 
 1.3330E-02 5.1313E+01                                            1409100200715 
 1.3260E-02 4.8694E+01                                            1409100200716 
 1.3190E-02 5.1880E+01                                            1409100200717 
 1.3110E-02 5.0838E+01                                            1409100200718 
 1.3040E-02 5.2732E+01                                            1409100200719 
 1.2970E-02 5.0984E+01                                            1409100200720 
 1.2910E-02 4.9791E+01                                            1409100200721 
 1.2830E-02 4.8997E+01                                            1409100200722 
 1.2770E-02 5.7012E+01                                            1409100200723 
 1.2700E-02 5.6246E+01                                            1409100200724 
 1.2630E-02 5.0329E+01                                            1409100200725 
 1.2570E-02 4.9096E+01                                            1409100200726 
 1.2500E-02 5.1652E+01                                            1409100200727 
 1.2430E-02 5.2833E+01                                            1409100200728 
 1.2360E-02 5.1529E+01                                            1409100200729 
 1.2310E-02 5.3397E+01                                            1409100200730 
 1.2230E-02 5.3183E+01                                            1409100200731 
 1.2180E-02 5.6557E+01                                            1409100200732 
 1.2110E-02 5.0934E+01                                            1409100200733 
 1.2050E-02 5.4271E+01                                            1409100200734 
 1.1990E-02 5.4425E+01                                            1409100200735 
 1.1930E-02 5.0971E+01                                            1409100200736 
 1.1870E-02 5.3275E+01                                            1409100200737 
 1.1810E-02 5.4504E+01                                            1409100200738 
 1.1750E-02 5.4015E+01                                            1409100200739 
 1.1680E-02 5.5909E+01                                            1409100200740 
 1.1630E-02 5.3143E+01                                            1409100200741 
 1.1570E-02 5.6805E+01                                            1409100200742 
 1.1510E-02 5.2241E+01                                            1409100200743 
 1.1450E-02 5.2574E+01                                            1409100200744 
 1.1380E-02 5.4297E+01                                            1409100200745 
 1.1340E-02 5.5235E+01                                            1409100200746 
 1.1280E-02 5.7255E+01                                            1409100200747 
 1.1220E-02 5.1420E+01                                            1409100200748 
 1.1170E-02 5.3643E+01                                            1409100200749 
 1.1110E-02 5.4725E+01                                            1409100200750 
 1.1050E-02 5.7119E+01                                            1409100200751 
 1.1000E-02 5.7535E+01                                            1409100200752 
 1.0950E-02 5.5476E+01                                            1409100200753 
 1.0890E-02 5.6166E+01                                            1409100200754 
 1.0830E-02 5.6583E+01                                            1409100200755 
 1.0780E-02 5.4486E+01                                            1409100200756 
 1.0730E-02 5.4678E+01                                            1409100200757 
 1.0680E-02 5.9471E+01                                            1409100200758 
 1.0630E-02 5.5290E+01                                            1409100200759 
 1.0570E-02 5.5272E+01                                            1409100200760 
 1.0520E-02 5.9843E+01                                            1409100200761 
 1.0470E-02 5.9924E+01                                            1409100200762 
 1.0420E-02 5.7892E+01                                            1409100200763 
 1.0370E-02 5.9194E+01                                            1409100200764 
 1.0320E-02 5.9255E+01                                            1409100200765 
 1.0270E-02 5.8216E+01                                            1409100200766 
 1.0220E-02 5.5913E+01                                            1409100200767 
 1.0170E-02 6.0856E+01                                            1409100200768 
 1.0130E-02 6.1673E+01                                            1409100200769 
 1.0080E-02 6.1439E+01                                            1409100200770 
 1.0030E-02 6.2558E+01                                            1409100200771 
 9.9400E-03 6.3152E+01                                            1409100200772 
 9.8000E-03 6.5339E+01                                            1409100200773 
 9.6600E-03 6.8344E+01                                            1409100200774 
 9.5300E-03 7.1264E+01                                            1409100200775 
 9.4000E-03 6.9640E+01                                            1409100200776 
 9.2700E-03 7.3009E+01                                            1409100200777 
 9.1400E-03 7.4897E+01                                            1409100200778 
 9.0200E-03 7.5673E+01                                            1409100200779 
 8.9000E-03 7.3177E+01                                            1409100200780 
 8.7800E-03 7.5934E+01                                            1409100200781 
 8.6700E-03 7.3503E+01                                            1409100200782 
 8.5500E-03 7.6680E+01                                            1409100200783 
 8.4400E-03 7.3872E+01                                            1409100200784 
 8.3300E-03 7.4537E+01                                            1409100200785 
 8.2300E-03 7.2812E+01                                            1409100200786 
 8.1200E-03 6.9853E+01                                            1409100200787 
 8.0200E-03 6.7382E+01                                            1409100200788 
 7.9200E-03 6.6873E+01                                            1409100200789 
 7.8200E-03 6.4954E+01                                            1409100200790 
 7.7200E-03 5.9840E+01                                            1409100200791 
 7.6300E-03 6.0170E+01                                            1409100200792 
 7.5300E-03 5.7529E+01                                            1409100200793 
 7.4400E-03 5.3952E+01                                            1409100200794 
 7.3500E-03 5.3039E+01                                            1409100200795 
 7.2600E-03 5.1328E+01                                            1409100200796 
 7.1800E-03 5.1208E+01                                            1409100200797 
 7.0900E-03 5.0133E+01                                            1409100200798 
 7.0100E-03 4.5346E+01                                            1409100200799 
 6.9200E-03 4.3047E+01                                            1409100200800 
 6.8400E-03 4.3337E+01                                            1409100200801 
 6.7600E-03 4.0789E+01                                            1409100200802 
 6.6900E-03 3.9764E+01                                            1409100200803 
 6.6100E-03 3.8200E+01                                            1409100200804 
 6.5300E-03 3.7490E+01                                            1409100200805 
 6.4600E-03 3.8547E+01                                            1409100200806 
 6.3900E-03 3.9140E+01                                            1409100200807 
 6.3100E-03 3.7675E+01                                            1409100200808 
 6.2400E-03 3.6248E+01                                            1409100200809 
 6.1700E-03 3.5919E+01                                            1409100200810 
 6.1100E-03 3.5291E+01                                            1409100200811 
 6.0400E-03 3.2599E+01                                            1409100200812 
 5.9700E-03 3.3587E+01                                            1409100200813 
 5.9100E-03 3.0124E+01                                            1409100200814 
 5.8400E-03 3.2575E+01                                            1409100200815 
 5.7800E-03 3.1050E+01                                            1409100200816 
 5.7200E-03 3.0414E+01                                            1409100200817 
 5.6600E-03 2.9541E+01                                            1409100200818 
 5.6000E-03 2.8729E+01                                            1409100200819 
 5.5400E-03 2.6857E+01                                            1409100200820 
 5.4800E-03 2.6864E+01                                            1409100200821 
 5.4200E-03 2.8310E+01                                            1409100200822 
 5.3700E-03 2.7563E+01                                            1409100200823 
 5.3100E-03 2.5206E+01                                            1409100200824 
 5.2600E-03 2.6664E+01                                            1409100200825 
 5.2100E-03 2.6800E+01                                            1409100200826 
 5.1500E-03 2.5754E+01                                            1409100200827 
 5.1000E-03 2.3790E+01                                            1409100200828 
 5.0500E-03 2.4781E+01                                            1409100200829 
 5.0000E-03 2.4877E+01                                            1409100200830 
 4.9500E-03 2.4014E+01                                            1409100200831 
 4.9000E-03 2.1790E+01                                            1409100200832 
 4.8500E-03 2.3037E+01                                            1409100200833 
 4.8000E-03 2.0750E+01                                            1409100200834 
 4.7600E-03 2.2812E+01                                            1409100200835 
 4.7100E-03 2.1055E+01                                            1409100200836 
 4.6600E-03 2.0558E+01                                            1409100200837 
 4.6200E-03 2.1083E+01                                            1409100200838 
 4.5800E-03 2.0411E+01                                            1409100200839 
 4.5300E-03 1.8889E+01                                            1409100200840 
 4.4900E-03 2.0853E+01                                            1409100200841 
 4.4500E-03 1.9475E+01                                            1409100200842 
 4.4100E-03 2.0001E+01                                            1409100200843 
 4.3600E-03 2.0999E+01                                            1409100200844 
 4.3200E-03 1.9970E+01                                            1409100200845 
 4.2800E-03 2.0864E+01                                            1409100200846 
 4.2400E-03 2.1234E+01                                            1409100200847 
 4.2100E-03 2.0596E+01                                            1409100200848 
 4.1700E-03 2.0601E+01                                            1409100200849 
 4.1300E-03 2.1823E+01                                            1409100200850 
 4.0900E-03 2.2705E+01                                            1409100200851 
 4.0500E-03 1.9994E+01                                            1409100200852 
 4.0200E-03 2.1489E+01                                            1409100200853 
 3.9800E-03 2.1112E+01                                            1409100200854 
 3.9500E-03 2.0411E+01                                            1409100200855 
 3.9100E-03 2.2522E+01                                            1409100200856 
 3.8800E-03 2.2923E+01                                            1409100200857 
 3.8400E-03 2.2211E+01                                            1409100200858 
 3.8100E-03 2.1739E+01                                            1409100200859 
 3.7800E-03 2.1666E+01                                            1409100200860 
 3.7400E-03 2.5418E+01                                            1409100200861 
 3.7100E-03 2.4826E+01                                            1409100200862 
 3.6800E-03 2.4086E+01                                            1409100200863 
 3.6500E-03 2.1803E+01                                            1409100200864 
 3.6200E-03 2.5332E+01                                            1409100200865 
 3.5900E-03 2.4357E+01                                            1409100200866 
 3.5600E-03 2.5902E+01                                            1409100200867 
 3.5300E-03 2.2985E+01                                            1409100200868 
 3.5000E-03 2.4404E+01                                            1409100200869 
 3.4700E-03 2.5412E+01                                            1409100200870 
 3.4400E-03 2.6206E+01                                            1409100200871 
 3.4100E-03 2.4732E+01                                            1409100200872 
 3.3800E-03 2.4486E+01                                            1409100200873 
 3.3500E-03 2.6038E+01                                            1409100200874 
 3.3300E-03 2.7234E+01                                            1409100200875 
 3.3000E-03 2.6929E+01                                            1409100200876 
 3.2700E-03 2.5377E+01                                            1409100200877 
 3.2500E-03 2.7288E+01                                            1409100200878 
 3.2200E-03 2.4385E+01                                            1409100200879 
 3.1900E-03 2.7889E+01                                            1409100200880 
 3.1700E-03 2.6681E+01                                            1409100200881 
 3.1400E-03 2.6499E+01                                            1409100200882 
 3.1200E-03 2.7111E+01                                            1409100200883 
 3.1000E-03 2.8222E+01                                            1409100200884 
 3.0700E-03 2.9179E+01                                            1409100200885 
 3.0500E-03 2.7844E+01                                            1409100200886 
 3.0200E-03 2.5889E+01                                            1409100200887 
 3.0000E-03 2.2746E+01                                            1409100200888 
 2.9800E-03 2.5966E+01                                            1409100200889 
 2.9500E-03 2.5827E+01                                            1409100200890 
 2.9300E-03 2.6453E+01                                            1409100200891 
 2.9100E-03 2.4319E+01                                            1409100200892 
 2.8900E-03 2.2761E+01                                            1409100200893 
 2.8600E-03 2.6716E+01                                            1409100200894 
 2.8400E-03 2.5679E+01                                            1409100200895 
 2.8200E-03 2.5066E+01                                            1409100200896 
 2.8000E-03 2.1302E+01                                            1409100200897 
 2.7800E-03 2.3729E+01                                            1409100200898 
 2.7600E-03 2.6646E+01                                            1409100200899 
 2.7400E-03 2.3535E+01                                            1409100200900 
 2.7200E-03 2.3150E+01                                            1409100200901 
 2.7000E-03 2.3419E+01                                            1409100200902 
 2.6800E-03 2.4156E+01                                            1409100200903 
 2.6600E-03 2.2825E+01                                            1409100200904 
 2.6400E-03 2.3463E+01                                            1409100200905 
 2.6200E-03 2.6993E+01                                            1409100200906 
 2.6000E-03 1.9738E+01                                            1409100200907 
 2.5800E-03 2.1733E+01                                            1409100200908 
 2.5700E-03 2.0813E+01                                            1409100200909 
 2.5500E-03 2.5609E+01                                            1409100200910 
 2.5300E-03 2.5890E+01                                            1409100200911 
 2.5100E-03 2.3370E+01                                            1409100200912 
 2.4900E-03 2.2423E+01                                            1409100200913 
 2.4800E-03 2.2789E+01                                            1409100200914 
 2.4600E-03 2.2433E+01                                            1409100200915 
 2.4400E-03 2.3313E+01                                            1409100200916 
 2.4200E-03 2.1298E+01                                            1409100200917 
 2.4100E-03 2.3644E+01                                            1409100200918 
 2.3900E-03 2.0649E+01                                            1409100200919 
 2.3700E-03 2.2595E+01                                            1409100200920 
 2.3600E-03 2.2325E+01                                            1409100200921 
 2.3400E-03 2.2687E+01                                            1409100200922 
 2.3200E-03 2.2958E+01                                            1409100200923 
 2.3100E-03 2.3121E+01                                            1409100200924 
 2.2900E-03 2.1955E+01                                            1409100200925 
 2.2800E-03 2.2435E+01                                            1409100200926 
 2.2600E-03 2.2141E+01                                            1409100200927 
 2.2500E-03 2.2400E+01                                            1409100200928 
 2.2300E-03 1.9849E+01                                            1409100200929 
 2.2200E-03 2.2480E+01                                            1409100200930 
 2.2000E-03 2.2631E+01                                            1409100200931 
 2.1900E-03 2.0481E+01                                            1409100200932 
 2.1700E-03 2.1430E+01                                            1409100200933 
 2.1600E-03 2.3082E+01                                            1409100200934 
 2.1500E-03 2.3120E+01                                            1409100200935 
 2.1300E-03 2.0550E+01                                            1409100200936 
 2.1200E-03 2.0099E+01                                            1409100200937 
 2.1000E-03 2.4057E+01                                            1409100200938 
 2.0900E-03 2.4818E+01                                            1409100200939 
 2.0800E-03 2.1706E+01                                            1409100200940 
 2.0600E-03 2.6606E+01                                            1409100200941 
 2.0500E-03 2.0386E+01                                            1409100200942 
 2.0400E-03 2.0272E+01                                            1409100200943 
 2.0200E-03 2.3010E+01                                            1409100200944 
 2.0100E-03 2.0903E+01                                            1409100200945 
 2.0000E-03 2.4193E+01                                            1409100200946 
 1.9900E-03 2.6120E+01                                            1409100200947 
 1.9700E-03 2.1056E+01                                            1409100200948 
 1.9600E-03 2.5813E+01                                            1409100200949 
 1.9500E-03 2.2874E+01                                            1409100200950 
 1.9400E-03 2.1452E+01                                            1409100200951 
 1.9200E-03 2.1457E+01                                            1409100200952 
 1.9100E-03 2.3826E+01                                            1409100200953 
 1.9000E-03 2.5036E+01                                            1409100200954 
 1.8900E-03 2.4786E+01                                            1409100200955 
 1.8800E-03 1.9710E+01                                            1409100200956 
 1.8700E-03 2.3074E+01                                            1409100200957 
 1.8500E-03 2.2672E+01                                            1409100200958 
 1.8400E-03 2.2670E+01                                            1409100200959 
 1.8300E-03 2.4048E+01                                            1409100200960 
 1.8200E-03 2.3364E+01                                            1409100200961 
 1.8100E-03 2.2258E+01                                            1409100200962 
 1.8000E-03 2.2113E+01                                            1409100200963 
 1.7900E-03 2.4218E+01                                            1409100200964 
 1.7800E-03 2.4642E+01                                            1409100200965 
 1.7700E-03 2.4362E+01                                            1409100200966 
 1.7600E-03 2.1922E+01                                            1409100200967 
 1.7500E-03 2.4217E+01                                            1409100200968 
 1.7400E-03 2.5523E+01                                            1409100200969 
 1.7300E-03 2.3927E+01                                            1409100200970 
 1.7200E-03 2.1422E+01                                            1409100200971 
 1.7100E-03 2.4063E+01                                            1409100200972 
 1.7000E-03 2.4648E+01                                            1409100200973 
 1.6900E-03 2.6276E+01                                            1409100200974 
 1.6800E-03 2.5537E+01                                            1409100200975 
 1.6700E-03 2.1301E+01                                            1409100200976 
 1.6600E-03 2.2798E+01                                            1409100200977 
 1.6500E-03 2.3699E+01                                            1409100200978 
 1.6400E-03 2.4286E+01                                            1409100200979 
 1.6300E-03 2.5352E+01                                            1409100200980 
 1.6200E-03 2.7678E+01                                            1409100200981 
 1.6100E-03 2.7368E+01                                            1409100200982 
 1.6000E-03 2.4693E+01                                            1409100200983 
 1.5900E-03 2.5311E+01                                            1409100200984 
 1.5800E-03 2.5447E+01                                            1409100200985 
 1.5700E-03 2.8323E+01                                            1409100200986 
 1.5700E-03 2.6061E+01                                            1409100200987 
 1.5600E-03 2.7986E+01                                            1409100200988 
 1.5500E-03 2.5864E+01                                            1409100200989 
 1.5400E-03 3.0429E+01                                            1409100200990 
 1.5300E-03 2.7965E+01                                            1409100200991 
 1.5200E-03 2.7292E+01                                            1409100200992 
 1.5100E-03 2.9111E+01                                            1409100200993 
 1.5100E-03 2.4926E+01                                            1409100200994 
 1.5000E-03 2.2197E+01                                            1409100200995 
 1.4900E-03 3.0778E+01                                            1409100200996 
 1.4800E-03 2.9070E+01                                            1409100200997 
 1.4700E-03 2.9916E+01                                            1409100200998 
 1.4600E-03 2.8878E+01                                            1409100200999 
 1.4600E-03 2.7303E+01                                            1409100201000 
 1.4500E-03 3.0927E+01                                            1409100201001 
 1.4400E-03 2.9182E+01                                            1409100201002 
 1.4300E-03 2.6872E+01                                            1409100201003 
 1.4300E-03 3.2487E+01                                            1409100201004 
 1.4200E-03 2.5567E+01                                            1409100201005 
 1.4100E-03 3.1056E+01                                            1409100201006 
 1.4000E-03 3.2297E+01                                            1409100201007 
 1.4000E-03 2.9220E+01                                            1409100201008 
 1.3900E-03 3.2824E+01                                            1409100201009 
 1.3800E-03 3.7559E+01                                            1409100201010 
 1.3700E-03 3.0612E+01                                            1409100201011 
 1.3700E-03 3.5565E+01                                            1409100201012 
 1.3600E-03 3.3709E+01                                            1409100201013 
 1.3500E-03 2.8860E+01                                            1409100201014 
 1.3500E-03 3.3311E+01                                            1409100201015 
 1.3400E-03 2.9344E+01                                            1409100201016 
 1.3300E-03 3.2150E+01                                            1409100201017 
 1.3200E-03 3.0222E+01                                            1409100201018 
 1.3200E-03 3.2663E+01                                            1409100201019 
 1.3100E-03 3.2649E+01                                            1409100201020 
 1.3000E-03 3.7061E+01                                            1409100201021 
 1.3000E-03 3.1042E+01                                            1409100201022 
 1.2900E-03 3.0033E+01                                            1409100201023 
 1.2800E-03 3.6654E+01                                            1409100201024 
 1.2800E-03 3.5461E+01                                            1409100201025 
 1.2700E-03 3.7622E+01                                            1409100201026 
 1.2700E-03 3.6822E+01                                            1409100201027 
 1.2600E-03 3.5012E+01                                            1409100201028 
 1.2500E-03 4.1209E+01                                            1409100201029 
 1.2500E-03 3.8390E+01                                            1409100201030 
 1.2400E-03 3.9595E+01                                            1409100201031 
 1.2300E-03 4.1629E+01                                            1409100201032 
 1.2300E-03 3.7517E+01                                            1409100201033 
 1.2200E-03 3.3440E+01                                            1409100201034 
 1.2200E-03 3.5757E+01                                            1409100201035 
 1.2100E-03 3.4353E+01                                            1409100201036 
 1.2000E-03 3.6311E+01                                            1409100201037 
 1.2000E-03 3.9537E+01                                            1409100201038 
 1.1900E-03 4.2181E+01                                            1409100201039 
 1.1900E-03 4.5939E+01                                            1409100201040 
 1.1800E-03 3.6718E+01                                            1409100201041 
 1.1700E-03 4.5316E+01                                            1409100201042 
 1.1700E-03 3.9244E+01                                            1409100201043 
 1.1600E-03 4.5105E+01                                            1409100201044 
 1.1600E-03 4.0272E+01                                            1409100201045 
 1.1500E-03 4.0345E+01                                            1409100201046 
 1.1500E-03 4.1077E+01                                            1409100201047 
 1.1400E-03 4.1394E+01                                            1409100201048 
 1.1400E-03 4.5121E+01                                            1409100201049 
 1.1300E-03 4.2445E+01                                            1409100201050 
 1.1200E-03 4.3678E+01                                            1409100201051 
 1.1200E-03 4.4699E+01                                            1409100201052 
 1.1100E-03 5.0698E+01                                            1409100201053 
 1.1100E-03 4.4146E+01                                            1409100201054 
 1.1000E-03 4.8066E+01                                            1409100201055 
 1.1000E-03 4.3804E+01                                            1409100201056 
 1.0900E-03 4.2646E+01                                            1409100201057 
 1.0900E-03 4.6136E+01                                            1409100201058 
 1.0800E-03 5.0424E+01                                            1409100201059 
 1.0800E-03 4.5557E+01                                            1409100201060 
 1.0700E-03 4.4864E+01                                            1409100201061 
 1.0700E-03 5.3258E+01                                            1409100201062 
 1.0600E-03 5.1580E+01                                            1409100201063 
 1.0600E-03 4.9648E+01                                            1409100201064 
 1.0500E-03 5.5151E+01                                            1409100201065 
 1.0500E-03 5.1638E+01                                            1409100201066 
 1.0400E-03 5.3045E+01                                            1409100201067 
 1.0400E-03 5.1044E+01                                            1409100201068 
 1.0300E-03 5.6425E+01                                            1409100201069 
 1.0300E-03 4.8008E+01                                            1409100201070 
 1.0300E-03 5.2631E+01                                            1409100201071 
 1.0200E-03 5.4347E+01                                            1409100201072 
 1.0200E-03 5.8254E+01                                            1409100201073 
 1.0100E-03 6.6319E+01                                            1409100201074 
 1.0100E-03 5.6835E+01                                            1409100201075 
 1.0000E-03 5.0565E+01                                            1409100201076 
 9.9326E-04 5.6030E+01                                            1409100201077 
 9.8007E-04 5.5236E+01                                            1409100201078 
 9.6715E-04 5.6170E+01                                            1409100201079 
 9.5448E-04 5.6197E+01                                            1409100201080 
 9.4205E-04 5.8913E+01                                            1409100201081 
 9.2987E-04 5.9964E+01                                            1409100201082 
 9.1792E-04 6.3277E+01                                            1409100201083 
 9.0621E-04 6.0757E+01                                            1409100201084 
 8.9471E-04 6.1351E+01                                            1409100201085 
 8.8343E-04 5.8412E+01                                            1409100201086 
 8.7237E-04 6.3258E+01                                            1409100201087 
 8.6151E-04 6.0051E+01                                            1409100201088 
 8.5085E-04 6.5544E+01                                            1409100201089 
 8.4039E-04 5.9433E+01                                            1409100201090 
 8.3012E-04 6.3277E+01                                            1409100201091 
 8.2003E-04 6.3411E+01                                            1409100201092 
 8.1013E-04 6.6883E+01                                            1409100201093 
 8.0041E-04 6.3037E+01                                            1409100201094 
 7.9086E-04 6.4326E+01                                            1409100201095 
 7.8149E-04 7.3676E+01                                            1409100201096 
 7.7227E-04 6.6641E+01                                            1409100201097 
 7.6322E-04 6.4245E+01                                            1409100201098 
 7.5433E-04 6.6052E+01                                            1409100201099 
 7.4559E-04 7.2592E+01                                            1409100201100 
 7.3701E-04 6.5785E+01                                            1409100201101 
 7.2857E-04 6.8273E+01                                            1409100201102 
 7.2027E-04 7.1417E+01                                            1409100201103 
 7.1212E-04 7.1409E+01                                            1409100201104 
 7.0410E-04 7.5944E+01                                            1409100201105 
 6.9622E-04 7.4341E+01                                            1409100201106 
 6.8847E-04 7.4962E+01                                            1409100201107 
 6.8085E-04 6.9957E+01                                            1409100201108 
 6.7335E-04 7.4841E+01                                            1409100201109 
 6.6598E-04 7.1283E+01                                            1409100201110 
 6.5873E-04 7.7469E+01                                            1409100201111 
 6.5159E-04 8.3911E+01                                            1409100201112 
 6.4457E-04 7.5744E+01                                            1409100201113 
 6.3767E-04 8.3575E+01                                            1409100201114 
 6.3087E-04 7.4148E+01                                            1409100201115 
 6.2418E-04 9.0428E+01                                            1409100201116 
 6.1760E-04 8.6725E+01                                            1409100201117 
 6.1112E-04 8.2251E+01                                            1409100201118 
 6.0474E-04 7.9966E+01                                            1409100201119 
 5.9847E-04 8.4674E+01                                            1409100201120 
 5.9229E-04 8.9866E+01                                            1409100201121 
 5.8620E-04 8.6312E+01                                            1409100201122 
 5.8021E-04 8.7231E+01                                            1409100201123 
 5.7431E-04 9.1979E+01                                            1409100201124 
 5.6850E-04 8.8869E+01                                            1409100201125 
 5.6277E-04 9.4396E+01                                            1409100201126 
 5.5714E-04 9.3364E+01                                            1409100201127 
 5.5158E-04 9.0224E+01                                            1409100201128 
 5.4611E-04 8.2196E+01                                            1409100201129 
 5.4072E-04 9.7908E+01                                            1409100201130 
 5.3541E-04 1.1047E+02                                            1409100201131 
 5.3018E-04 9.1490E+01                                            1409100201132 
 5.2503E-04 9.7454E+01                                            1409100201133 
 5.1995E-04 1.0209E+02                                            1409100201134 
 5.1494E-04 1.0006E+02                                            1409100201135 
 5.1000E-04 1.0382E+02                                            1409100201136 
 5.0514E-04 9.7053E+01                                            1409100201137 
 5.0034E-04 9.4743E+01                                            1409100201138 
 4.9561E-04 1.0357E+02                                            1409100201139 
 4.9095E-04 9.2083E+01                                            1409100201140 
 4.8636E-04 1.0959E+02                                            1409100201141 
 4.8183E-04 1.2143E+02                                            1409100201142 
 4.7736E-04 1.1968E+02                                            1409100201143 
 4.7295E-04 1.1196E+02                                            1409100201144 
 4.6860E-04 1.0658E+02                                            1409100201145 
 4.6432E-04 1.1510E+02                                            1409100201146 
 4.6009E-04 1.1579E+02                                            1409100201147 
 4.5592E-04 1.2254E+02                                            1409100201148 
 4.5181E-04 1.0979E+02                                            1409100201149 
 4.4775E-04 1.1499E+02                                            1409100201150 
 4.4375E-04 1.0715E+02                                            1409100201151 
 4.3979E-04 1.2679E+02                                            1409100201152 
 4.3590E-04 1.1365E+02                                            1409100201153 
 4.3205E-04 1.2133E+02                                            1409100201154 
 4.2826E-04 1.2924E+02                                            1409100201155 
 4.2451E-04 1.4302E+02                                            1409100201156 
 4.2081E-04 1.4221E+02                                            1409100201157 
 4.1716E-04 1.3654E+02                                            1409100201158 
 4.1356E-04 1.4635E+02                                            1409100201159 
 4.1001E-04 1.3662E+02                                            1409100201160 
 4.0650E-04 1.3907E+02                                            1409100201161 
 4.0303E-04 1.3869E+02                                            1409100201162 
 3.9961E-04 1.3670E+02                                            1409100201163 
 3.9624E-04 1.3985E+02                                            1409100201164 
 3.9290E-04 1.2343E+02                                            1409100201165 
 3.8961E-04 1.3479E+02                                            1409100201166 
 3.8636E-04 1.3330E+02                                            1409100201167 
 3.8315E-04 1.3607E+02                                            1409100201168 
 3.7998E-04 1.2368E+02                                            1409100201169 
 3.7684E-04 1.2891E+02                                            1409100201170 
 3.7375E-04 1.3150E+02                                            1409100201171 
 3.7070E-04 1.2560E+02                                            1409100201172 
 3.6768E-04 1.4024E+02                                            1409100201173 
 3.6470E-04 1.3498E+02                                            1409100201174 
 3.6175E-04 1.4705E+02                                            1409100201175 
 3.5884E-04 1.3943E+02                                            1409100201176 
 3.5597E-04 1.3657E+02                                            1409100201177 
 3.5313E-04 1.4976E+02                                            1409100201178 
 3.5032E-04 1.4603E+02                                            1409100201179 
 3.4755E-04 1.3336E+02                                            1409100201180 
 3.4481E-04 1.3879E+02                                            1409100201181 
 3.4210E-04 1.3505E+02                                            1409100201182 
 3.3942E-04 1.4056E+02                                            1409100201183 
 3.3678E-04 1.4295E+02                                            1409100201184 
 3.3416E-04 1.4546E+02                                            1409100201185 
 3.3158E-04 1.4475E+02                                            1409100201186 
 3.2903E-04 1.4767E+02                                            1409100201187 
 3.2650E-04 1.5726E+02                                            1409100201188 
 3.2401E-04 1.5700E+02                                            1409100201189 
 3.2154E-04 1.4268E+02                                            1409100201190 
 3.1910E-04 1.4821E+02                                            1409100201191 
 3.1669E-04 1.5282E+02                                            1409100201192 
 3.1430E-04 1.4259E+02                                            1409100201193 
 3.1195E-04 1.3351E+02                                            1409100201194 
 3.0962E-04 1.5918E+02                                            1409100201195 
 3.0731E-04 1.4177E+02                                            1409100201196 
 3.0503E-04 1.5223E+02                                            1409100201197 
 3.0278E-04 1.6489E+02                                            1409100201198 
 3.0055E-04 1.4918E+02                                            1409100201199 
 2.9834E-04 1.5129E+02                                            1409100201200 
 2.9616E-04 1.5250E+02                                            1409100201201 
 2.9401E-04 1.4388E+02                                            1409100201202 
 2.9187E-04 1.6723E+02                                            1409100201203 
 2.8976E-04 1.4935E+02                                            1409100201204 
 2.8768E-04 1.7324E+02                                            1409100201205 
 2.8561E-04 1.4652E+02                                            1409100201206 
 2.8357E-04 1.6182E+02                                            1409100201207 
 2.8155E-04 1.6982E+02                                            1409100201208 
 2.7955E-04 1.6923E+02                                            1409100201209 
 2.7757E-04 1.5930E+02                                            1409100201210 
 2.7562E-04 1.4668E+02                                            1409100201211 
 2.7368E-04 1.6074E+02                                            1409100201212 
 2.7176E-04 1.5990E+02                                            1409100201213 
 2.6987E-04 1.6821E+02                                            1409100201214 
 2.6799E-04 1.6227E+02                                            1409100201215 
 2.6613E-04 1.6815E+02                                            1409100201216 
 2.6430E-04 1.5412E+02                                            1409100201217 
 2.6248E-04 1.4928E+02                                            1409100201218 
 2.6068E-04 1.7458E+02                                            1409100201219 
 2.5890E-04 1.6387E+02                                            1409100201220 
 2.5713E-04 1.6443E+02                                            1409100201221 
 2.5539E-04 1.8383E+02                                            1409100201222 
 2.5366E-04 1.7115E+02                                            1409100201223 
 2.5195E-04 1.6048E+02                                            1409100201224 
 2.5026E-04 1.7526E+02                                            1409100201225 
 2.4858E-04 1.8219E+02                                            1409100201226 
 2.4692E-04 1.5602E+02                                            1409100201227 
 2.4528E-04 1.7296E+02                                            1409100201228 
 2.4365E-04 1.7232E+02                                            1409100201229 
 2.4204E-04 1.7950E+02                                            1409100201230 
 2.4045E-04 1.8973E+02                                            1409100201231 
 2.3887E-04 1.9530E+02                                            1409100201232 
 2.3731E-04 1.7869E+02                                            1409100201233 
 2.3576E-04 1.6545E+02                                            1409100201234 
 2.3423E-04 1.7714E+02                                            1409100201235 
 2.3271E-04 1.7442E+02                                            1409100201236 
 2.3121E-04 1.5813E+02                                            1409100201237 
 2.2972E-04 1.8038E+02                                            1409100201238 
 2.2824E-04 1.8810E+02                                            1409100201239 
 2.2678E-04 1.7402E+02                                            1409100201240 
 2.2534E-04 1.9174E+02                                            1409100201241 
 2.2391E-04 1.8884E+02                                            1409100201242 
 2.2249E-04 2.0155E+02                                            1409100201243 
 2.2108E-04 1.8294E+02                                            1409100201244 
 2.1969E-04 1.7908E+02                                            1409100201245 
 2.1831E-04 1.9054E+02                                            1409100201246 
 2.1695E-04 1.9524E+02                                            1409100201247 
 2.1559E-04 1.8634E+02                                            1409100201248 
 2.1425E-04 1.9096E+02                                            1409100201249 
 2.1292E-04 1.9054E+02                                            1409100201250 
 2.1161E-04 1.8575E+02                                            1409100201251 
 2.1030E-04 1.8822E+02                                            1409100201252 
 2.0901E-04 1.7280E+02                                            1409100201253 
 2.0773E-04 1.8196E+02                                            1409100201254 
 2.0647E-04 1.7140E+02                                            1409100201255 
 2.0521E-04 2.0134E+02                                            1409100201256 
 2.0396E-04 1.9860E+02                                            1409100201257 
 2.0273E-04 1.6600E+02                                            1409100201258 
 2.0151E-04 1.8801E+02                                            1409100201259 
 2.0030E-04 1.8178E+02                                            1409100201260 
 1.9910E-04 2.2119E+02                                            1409100201261 
 1.9791E-04 2.0455E+02                                            1409100201262 
 1.9673E-04 1.9178E+02                                            1409100201263 
 1.9556E-04 1.9333E+02                                            1409100201264 
 1.9440E-04 1.8141E+02                                            1409100201265 
 1.9325E-04 1.8230E+02                                            1409100201266 
 1.9211E-04 1.7974E+02                                            1409100201267 
 1.9099E-04 1.8880E+02                                            1409100201268 
 1.8987E-04 1.7720E+02                                            1409100201269 
 1.8876E-04 1.8045E+02                                            1409100201270 
 1.8766E-04 1.7186E+02                                            1409100201271 
 1.8657E-04 1.7676E+02                                            1409100201272 
 1.8549E-04 1.7142E+02                                            1409100201273 
 1.8442E-04 2.0153E+02                                            1409100201274 
 1.8336E-04 1.8142E+02                                            1409100201275 
 1.8231E-04 2.1134E+02                                            1409100201276 
 1.8127E-04 2.0779E+02                                            1409100201277 
 1.8023E-04 2.1951E+02                                            1409100201278 
 1.7921E-04 2.0225E+02                                            1409100201279 
 1.7819E-04 1.9761E+02                                            1409100201280 
 1.7718E-04 1.6977E+02                                            1409100201281 
 1.7618E-04 1.8074E+02                                            1409100201282 
 1.7519E-04 1.8369E+02                                            1409100201283 
 1.7421E-04 2.1538E+02                                            1409100201284 
 1.7324E-04 2.0984E+02                                            1409100201285 
 1.7227E-04 1.8649E+02                                            1409100201286 
 1.7131E-04 1.8716E+02                                            1409100201287 
 1.7036E-04 1.6795E+02                                            1409100201288 
 1.6942E-04 1.7508E+02                                            1409100201289 
 1.6849E-04 1.8235E+02                                            1409100201290 
 1.6756E-04 2.1671E+02                                            1409100201291 
 1.6664E-04 1.8962E+02                                            1409100201292 
 1.6573E-04 1.6151E+02                                            1409100201293 
 1.6483E-04 1.8478E+02                                            1409100201294 
 1.6393E-04 1.7759E+02                                            1409100201295 
 1.6304E-04 2.1121E+02                                            1409100201296 
 1.6216E-04 2.0403E+02                                            1409100201297 
 1.6128E-04 1.9088E+02                                            1409100201298 
 1.6042E-04 2.0548E+02                                            1409100201299 
 1.5955E-04 1.9899E+02                                            1409100201300 
 1.5870E-04 1.8750E+02                                            1409100201301 
 1.5785E-04 2.0544E+02                                            1409100201302 
 1.5701E-04 2.0012E+02                                            1409100201303 
 1.5618E-04 1.7854E+02                                            1409100201304 
 1.5535E-04 1.7201E+02                                            1409100201305 
 1.5453E-04 1.7849E+02                                            1409100201306 
 1.5372E-04 1.8702E+02                                            1409100201307 
 1.5291E-04 1.8957E+02                                            1409100201308 
 1.5211E-04 2.0671E+02                                            1409100201309 
 1.5131E-04 2.1894E+02                                            1409100201310 
 1.5052E-04 2.0045E+02                                            1409100201311 
 1.4974E-04 2.1480E+02                                            1409100201312 
 1.4897E-04 2.0788E+02                                            1409100201313 
 1.4819E-04 2.0955E+02                                            1409100201314 
 1.4743E-04 1.8047E+02                                            1409100201315 
 1.4667E-04 2.0396E+02                                            1409100201316 
 1.4592E-04 2.1445E+02                                            1409100201317 
 1.4517E-04 1.7917E+02                                            1409100201318 
 1.4443E-04 1.8157E+02                                            1409100201319 
 1.4369E-04 1.7624E+02                                            1409100201320 
 1.4296E-04 2.0625E+02                                            1409100201321 
 1.4224E-04 2.2282E+02                                            1409100201322 
 1.4152E-04 1.5704E+02                                            1409100201323 
 1.4081E-04 2.0875E+02                                            1409100201324 
 1.4010E-04 1.8780E+02                                            1409100201325 
 1.3940E-04 2.1546E+02                                            1409100201326 
 1.3870E-04 1.7629E+02                                            1409100201327 
 1.3801E-04 2.1633E+02                                            1409100201328 
 1.3732E-04 2.0568E+02                                            1409100201329 
 1.3664E-04 1.9614E+02                                            1409100201330 
 1.3596E-04 2.0760E+02                                            1409100201331 
 1.3529E-04 2.1658E+02                                            1409100201332 
 1.3462E-04 2.2325E+02                                            1409100201333 
 1.3396E-04 2.3246E+02                                            1409100201334 
 1.3330E-04 2.0871E+02                                            1409100201335 
 1.3265E-04 2.1788E+02                                            1409100201336 
 1.3200E-04 2.0918E+02                                            1409100201337 
 1.3136E-04 2.0292E+02                                            1409100201338 
 1.3072E-04 1.8080E+02                                            1409100201339 
 1.3009E-04 1.7556E+02                                            1409100201340 
 1.2946E-04 2.0605E+02                                            1409100201341 
 1.2883E-04 2.0492E+02                                            1409100201342 
 1.2821E-04 1.8896E+02                                            1409100201343 
 1.2760E-04 2.0653E+02                                            1409100201344 
 1.2699E-04 1.9298E+02                                            1409100201345 
 1.2638E-04 2.5501E+02                                            1409100201346 
 1.2578E-04 2.0128E+02                                            1409100201347 
 1.2518E-04 1.7198E+02                                            1409100201348 
 1.2459E-04 2.0428E+02                                            1409100201349 
 1.2400E-04 1.9005E+02                                            1409100201350 
 1.2341E-04 2.2566E+02                                            1409100201351 
 1.2283E-04 2.2595E+02                                            1409100201352 
 1.2225E-04 2.4204E+02                                            1409100201353 
 1.2168E-04 2.1737E+02                                            1409100201354 
 1.2111E-04 2.2926E+02                                            1409100201355 
 1.2055E-04 2.5152E+02                                            1409100201356 
 1.1999E-04 1.8625E+02                                            1409100201357 
 1.1943E-04 2.2208E+02                                            1409100201358 
 1.1888E-04 2.0551E+02                                            1409100201359 
 1.1833E-04 2.2522E+02                                            1409100201360 
 1.1778E-04 1.9921E+02                                            1409100201361 
 1.1724E-04 2.3143E+02                                            1409100201362 
 1.1670E-04 2.2371E+02                                            1409100201363 
 1.1617E-04 2.2213E+02                                            1409100201364 
 1.1563E-04 2.3317E+02                                            1409100201365 
 1.1511E-04 2.0146E+02                                            1409100201366 
 1.1458E-04 2.1075E+02                                            1409100201367 
 1.1406E-04 2.7173E+02                                            1409100201368 
 1.1355E-04 1.8450E+02                                            1409100201369 
 1.1303E-04 2.2984E+02                                            1409100201370 
 1.1252E-04 1.9528E+02                                            1409100201371 
 1.1202E-04 2.2298E+02                                            1409100201372 
 1.1152E-04 2.2455E+02                                            1409100201373 
 1.1102E-04 2.2944E+02                                            1409100201374 
 1.1052E-04 2.0901E+02                                            1409100201375 
 1.1003E-04 2.0877E+02                                            1409100201376 
 1.0954E-04 2.4774E+02                                            1409100201377 
 1.0905E-04 2.1329E+02                                            1409100201378 
 1.0857E-04 2.2156E+02                                            1409100201379 
 1.0809E-04 2.6486E+02                                            1409100201380 
 1.0761E-04 2.6834E+02                                            1409100201381 
 1.0714E-04 2.5435E+02                                            1409100201382 
 1.0667E-04 2.4885E+02                                            1409100201383 
 1.0620E-04 2.1650E+02                                            1409100201384 
 1.0574E-04 2.2514E+02                                            1409100201385 
 1.0528E-04 2.2486E+02                                            1409100201386 
 1.0482E-04 2.5009E+02                                            1409100201387 
 1.0436E-04 2.3517E+02                                            1409100201388 
 1.0391E-04 2.4222E+02                                            1409100201389 
 1.0346E-04 2.5868E+02                                            1409100201390 
 1.0302E-04 2.2669E+02                                            1409100201391 
 1.0257E-04 2.3189E+02                                            1409100201392 
 1.0213E-04 2.0307E+02                                            1409100201393 
 1.0169E-04 2.2146E+02                                            1409100201394 
 1.0126E-04 2.6129E+02                                            1409100201395 
 1.0083E-04 2.5350E+02                                            1409100201396 
 1.0040E-04 2.3361E+02                                            1409100201397 
 9.9971E-05 2.2143E+02                                            1409100201398 
 9.9547E-05 2.2480E+02                                            1409100201399 
 9.9126E-05 1.9646E+02                                            1409100201400 
 9.8708E-05 2.1776E+02                                            1409100201401 
 9.8292E-05 2.0901E+02                                            1409100201402 
 9.7878E-05 2.2860E+02                                            1409100201403 
 9.7468E-05 2.3817E+02                                            1409100201404 
 9.7060E-05 2.2328E+02                                            1409100201405 
 9.6654E-05 2.6388E+02                                            1409100201406 
 9.6251E-05 2.2406E+02                                            1409100201407 
 9.5851E-05 2.1082E+02                                            1409100201408 
 9.5453E-05 2.2264E+02                                            1409100201409 
 9.5057E-05 2.1340E+02                                            1409100201410 
 9.4664E-05 1.9138E+02                                            1409100201411 
 9.4273E-05 2.2891E+02                                            1409100201412 
 9.3885E-05 2.3475E+02                                            1409100201413 
 9.3499E-05 2.2319E+02                                            1409100201414 
 9.3116E-05 2.4417E+02                                            1409100201415 
 9.2735E-05 2.4567E+02                                            1409100201416 
 9.2356E-05 2.4943E+02                                            1409100201417 
 9.1979E-05 2.3755E+02                                            1409100201418 
 9.1605E-05 2.3012E+02                                            1409100201419 
 9.1233E-05 2.1581E+02                                            1409100201420 
 9.0864E-05 2.3966E+02                                            1409100201421 
 9.0496E-05 2.0699E+02                                            1409100201422 
 9.0131E-05 2.1748E+02                                            1409100201423 
 8.9768E-05 2.3256E+02                                            1409100201424 
 8.9408E-05 2.7103E+02                                            1409100201425 
 8.9049E-05 2.4710E+02                                            1409100201426 
 8.8693E-05 2.6269E+02                                            1409100201427 
 8.8338E-05 2.5239E+02                                            1409100201428 
 8.7986E-05 2.4201E+02                                            1409100201429 
 8.7636E-05 2.7217E+02                                            1409100201430 
 8.7288E-05 2.7151E+02                                            1409100201431 
 8.6942E-05 2.6088E+02                                            1409100201432 
 8.6598E-05 2.4298E+02                                            1409100201433 
 8.6256E-05 2.4938E+02                                            1409100201434 
 8.5917E-05 2.0900E+02                                            1409100201435 
 8.5579E-05 2.4732E+02                                            1409100201436 
 8.5243E-05 2.7626E+02                                            1409100201437 
 8.4909E-05 2.2782E+02                                            1409100201438 
 8.4577E-05 2.4167E+02                                            1409100201439 
 8.4247E-05 3.0393E+02                                            1409100201440 
 8.3919E-05 2.8793E+02                                            1409100201441 
 8.3593E-05 2.6399E+02                                            1409100201442 
 8.3269E-05 2.4743E+02                                            1409100201443 
 8.2947E-05 2.2035E+02                                            1409100201444 
 8.2626E-05 2.9467E+02                                            1409100201445 
 8.2307E-05 2.1770E+02                                            1409100201446 
 8.1991E-05 2.6109E+02                                            1409100201447 
 8.1676E-05 2.6261E+02                                            1409100201448 
 8.1363E-05 2.6689E+02                                            1409100201449 
 8.1051E-05 2.4966E+02                                            1409100201450 
 8.0742E-05 2.9151E+02                                            1409100201451 
 8.0434E-05 2.5512E+02                                            1409100201452 
 8.0128E-05 2.5667E+02                                            1409100201453 
 7.9824E-05 2.5266E+02                                            1409100201454 
 7.9521E-05 2.8447E+02                                            1409100201455 
 7.9220E-05 2.6110E+02                                            1409100201456 
 7.8921E-05 2.0668E+02                                            1409100201457 
 7.8624E-05 1.9663E+02                                            1409100201458 
 7.8328E-05 2.1475E+02                                            1409100201459 
 7.8034E-05 2.5561E+02                                            1409100201460 
 7.7741E-05 2.7437E+02                                            1409100201461 
 7.7450E-05 2.8736E+02                                            1409100201462 
 7.7161E-05 2.3697E+02                                            1409100201463 
 7.6874E-05 2.7022E+02                                            1409100201464 
 7.6588E-05 2.6591E+02                                            1409100201465 
 7.6303E-05 2.3805E+02                                            1409100201466 
 7.6021E-05 2.0984E+02                                            1409100201467 
 7.5739E-05 2.6746E+02                                            1409100201468 
 7.5460E-05 2.5699E+02                                            1409100201469 
 7.5182E-05 2.7950E+02                                            1409100201470 
 7.4905E-05 2.8702E+02                                            1409100201471 
 7.4630E-05 2.7956E+02                                            1409100201472 
 7.4357E-05 2.4442E+02                                            1409100201473 
 7.4084E-05 2.5197E+02                                            1409100201474 
 7.3814E-05 2.1927E+02                                            1409100201475 
 7.3545E-05 2.0501E+02                                            1409100201476 
 7.3277E-05 2.6234E+02                                            1409100201477 
 7.3011E-05 2.7628E+02                                            1409100201478 
 7.2746E-05 2.3998E+02                                            1409100201479 
 7.2483E-05 2.8245E+02                                            1409100201480 
 7.2221E-05 2.7120E+02                                            1409100201481 
 7.1961E-05 2.8234E+02                                            1409100201482 
 7.1788E-05 2.5116E+02                                            1409100201483 
ENDDATA           1475          0                                 1409100201484 
ENDSUBENT         1483          0                                 1409100299999 
SUBENT        14091003   20061027                             13421409100300001 
BIB                  4          5                                 1409100300002 
REACTION   (94-PU-239(N,F),,SIG,,AV)                              1409100300003 
            Data averaged over large energy bins                  1409100300004 
ERR-ANALYS (ERR-S) Statistical uncertainties                      1409100300005 
SAMPLE     27 ng of Pu-239                                        1409100300006 
STATUS     Data received from main author                         1409100300007 
ENDBIB               5          0                                 1409100300008 
NOCOMMON             0          0                                 1409100300009 
DATA                 3        106                                 1409100300010 
EN         DATA       ERR-S                                       1409100300011 
KEV        B          B                                           1409100300012 
 5.6778E+01 1.1900E+00 1.9400E-01                                 1409100300013 
 5.0591E+01 1.7700E+00 2.4800E-01                                 1409100300014 
 4.5363E+01 1.4600E+00 2.3700E-01                                 1409100300015 
 4.0906E+01 1.5300E+00 2.5500E-01                                 1409100300016 
 3.7074E+01 1.6300E+00 2.7600E-01                                 1409100300017 
 3.3757E+01 1.8900E+00 3.1200E-01                                 1409100300018 
 3.0866E+01 1.5600E+00 2.9400E-01                                 1409100300019 
 2.7214E+01 1.4800E+00 2.1600E-01                                 1409100300020 
 2.3234E+01 1.4800E+00 2.3400E-01                                 1409100300021 
 2.0068E+01 2.1200E+00 2.9900E-01                                 1409100300022 
 1.7507E+01 1.2000E+00 2.4200E-01                                 1409100300023 
 1.5408E+01 2.0900E+00 3.3900E-01                                 1409100300024 
 1.3664E+01 1.3100E+00 2.8700E-01                                 1409100300025 
 1.2201E+01 1.8800E+00 3.6300E-01                                 1409100300026 
 1.0961E+01 2.1800E+00 4.1300E-01                                 1409100300027 
 9.4438E+00 1.9400E+00 2.9700E-01                                 1409100300028 
 7.8483E+00 2.7700E+00 3.8900E-01                                 1409100300029 
 6.6256E+00 1.8500E+00 3.4500E-01                                 1409100300030 
 5.6680E+00 3.5000E+00 5.1200E-01                                 1409100300031 
 4.9040E+00 2.6700E+00 4.8000E-01                                 1409100300032 
 4.2847E+00 2.6500E+00 5.1000E-01                                 1409100300033 
 3.7758E+00 4.0000E+00 6.6800E-01                                 1409100300034 
 3.3524E+00 2.6500E+00 5.7900E-01                                 1409100300035 
 2.9965E+00 3.6900E+00 7.2300E-01                                 1409100300036 
 2.6944E+00 3.4200E+00 7.3100E-01                                 1409100300037 
 2.4358E+00 4.1300E+00 8.4300E-01                                 1409100300038 
 2.2127E+00 5.1800E+00 9.9800E-01                                 1409100300039 
 2.0189E+00 5.6300E+00 1.0800E+00                                 1409100300040 
 1.7751E+00 4.2400E+00 7.0800E-01                                 1409100300041 
 1.5105E+00 4.9400E+00 8.3600E-01                                 1409100300042 
 1.3010E+00 6.3800E+00 1.0200E+00                                 1409100300043 
 1.1322E+00 4.6400E+00 9.2900E-01                                 1409100300044 
 9.9432E-01 4.8600E+00 1.0100E+00                                 1409100300045 
 8.8015E-01 4.1400E+00 1.0000E+00                                 1409100300046 
 7.8458E-01 5.7300E+00 1.2500E+00                                 1409100300047 
 7.0378E-01 1.0900E+01 1.8200E+00                                 1409100300048 
 6.3484E-01 8.3400E+00 1.6700E+00                                 1409100300049 
 5.7556E-01 8.8200E+00 1.8000E+00                                 1409100300050 
 5.2421E-01 1.4100E+01 2.3900E+00                                 1409100300051 
 4.5981E-01 8.0700E+00 1.3700E+00                                 1409100300052 
 3.9019E-01 8.2200E+00 1.5000E+00                                 1409100300053 
 3.3527E-01 1.1800E+01 1.9500E+00                                 1409100300054 
 2.9118E-01 1.7200E+01 2.5100E+00                                 1409100300055 
 2.5526E-01 1.3400E+01 2.4300E+00                                 1409100300056 
 2.2559E-01 1.8900E+01 2.9900E+00                                 1409100300057 
 2.0082E-01 1.1100E+01 2.4200E+00                                 1409100300058 
 1.7991E-01 1.7200E+01 3.2000E+00                                 1409100300059 
 1.6210E-01 1.1000E+01 2.6700E+00                                 1409100300060 
 1.4682E-01 1.6500E+01 3.4500E+00                                 1409100300061 
 1.3360E-01 8.7000E+00 2.6200E+00                                 1409100300062 
 1.2208E-01 1.2200E+01 3.2600E+00                                 1409100300063 
 1.1200E-01 2.0900E+01 4.4600E+00                                 1409100300064 
 1.0311E-01 1.7400E+01 4.2200E+00                                 1409100300065 
 9.1740E-02 3.8900E+01 4.7600E+00                                 1409100300066 
 7.9180E-02 3.4400E+01 4.8200E+00                                 1409100300067 
 6.9030E-02 4.6100E+01 5.9500E+00                                 1409100300068 
 6.0720E-02 5.3800E+01 6.8400E+00                                 1409100300069 
 5.3820E-02 4.0200E+01 6.2800E+00                                 1409100300070 
 4.8030E-02 3.3200E+01 6.0600E+00                                 1409100300071 
 4.3130E-02 2.1100E+01 5.1300E+00                                 1409100300072 
 3.8950E-02 3.3900E+01 6.7800E+00                                 1409100300073 
 3.5340E-02 1.5300E+01 4.8500E+00                                 1409100300074 
 3.2210E-02 1.3300E+01 4.7000E+00                                 1409100300075 
 2.8290E-02 2.1500E+01 4.4900E+00                                 1409100300076 
 2.4030E-02 2.9200E+01 5.7300E+00                                 1409100300077 
 2.0670E-02 2.7200E+01 5.9300E+00                                 1409100300078 
 1.7970E-02 6.7700E+01 9.9900E+00                                 1409100300079 
 1.5770E-02 4.1300E+01 8.2700E+00                                 1409100300080 
 1.3940E-02 7.9000E+01 1.2200E+01                                 1409100300081 
 1.2420E-02 5.1500E+01 1.0500E+01                                 1409100300082 
 1.0590E-02 8.3800E+01 1.0300E+01                                 1409100300083 
 8.6900E-03 7.1300E+01 1.0500E+01                                 1409100300084 
 7.2600E-03 5.9500E+01 1.0400E+01                                 1409100300085 
 6.1500E-03 6.8200E+01 1.2100E+01                                 1409100300086 
 4.9300E-03 4.1500E+01 7.4700E+00                                 1409100300087 
 3.7800E-03 5.3900E+01 9.7100E+00                                 1409100300088 
 2.9900E-03 4.9600E+01 1.0600E+01                                 1409100300089 
 2.4300E-03 3.1500E+01 9.5000E+00                                 1409100300090 
 2.0100E-03 6.3400E+01 1.4600E+01                                 1409100300091 
 1.6900E-03 3.4700E+01 1.1600E+01                                 1409100300092 
 1.4400E-03 8.8800E+01 2.0400E+01                                 1409100300093 
 1.2400E-03 1.2400E+02 2.5900E+01                                 1409100300094 
 1.0800E-03 7.8100E+01 2.2600E+01                                 1409100300095 
 9.5200E-04 7.8800E+01 2.5000E+01                                 1409100300096 
 8.4400E-04 1.2500E+02 3.4600E+01                                 1409100300097 
 7.5300E-04 1.7700E+02 4.4300E+01                                 1409100300098 
 6.7600E-04 2.0800E+02 5.2000E+01                                 1409100300099 
 6.1000E-04 3.4300E+02 7.3100E+01                                 1409100300100 
 5.5400E-04 3.5800E+02 8.0200E+01                                 1409100300101 
 5.0500E-04 3.4600E+02 8.3900E+01                                 1409100300102 
 4.6200E-04 4.6500E+02 1.0400E+02                                 1409100300103 
 4.2400E-04 4.8600E+02 1.1500E+02                                 1409100300104 
 3.7600E-04 7.4703E+02 9.1457E+01                                 1409100300105 
 3.2400E-04 7.8729E+02 1.0549E+02                                 1409100300106 
 2.8100E-04 6.3062E+02 9.6602E+01                                 1409100300107 
 2.4700E-04 7.9323E+02 1.1976E+02                                 1409100300108 
 2.1800E-04 9.0368E+02 1.3742E+02                                 1409100300109 
 1.9400E-04 7.1745E+02 1.3561E+02                                 1409100300110 
 1.6600E-04 7.9737E+02 1.0632E+02                                 1409100300111 
 1.3600E-04 8.1119E+02 1.2402E+02                                 1409100300112 
 1.1400E-04 8.5101E+02 1.4913E+02                                 1409100300113 
 8.9400E-05 8.1047E+02 1.2792E+02                                 1409100300114 
 6.7300E-05 1.2467E+03 1.8975E+02                                 1409100300115 
 5.2500E-05 1.2461E+03 2.1787E+02                                 1409100300116 
 4.2000E-05 7.8214E+02 1.9041E+02                                 1409100300117 
 3.4400E-05 8.5976E+02 2.3845E+02                                 1409100300118 
ENDDATA            108          0                                 1409100300119 
ENDSUBENT          118          0                                 1409100399999 
ENDENTRY             3          0                                 1409199999999 
