ENTRY            14218   20160812                             142214218  0    1 
SUBENT        14218001   20160812                             142214218  1    1 
BIB                 11         26                                 14218  1    2 
TITLE      Total Neutron Cross Section of Water                   14218  1    3 
AUTHOR     (J.M.Neill,J.L.Russell Jr,J.R.Brown)                   14218  1    4 
REFERENCE  (J,NSE,33,265,1968)                                    14218  1    5 
REL-REF    (A,,D.J.Hughes+,R,BNL-325,1958)                        14218  1    6 
           (A,11149001,E.Melkonian,J,PR,76,1744,1949)             14218  1    7 
           (A,11150001,E.Melkonian,J,PR,76,1750,1949)             14218  1    8 
INSTITUTE  (1USAGGA)                                              14218  1    9 
FACILITY   (LINAC,1USAGGA)                                        14218  1   10 
SAMPLE     The H2O samples were between two thin quartz disks.    14218  1   11 
           The sample thicknesses were used: 0.3213+-0.0025,      14218  1   12 
           0.7635+-0.0025, and 1.2713+-0.0025 cm. The sample      14218  1   13 
           temperature was 23 degrees Celsius.                    14218  1   14 
DETECTOR   (BF3)                                                  14218  1   15 
METHOD     (TOF) 4 in. cadmium covered cube of 1 wt.% of borated  14218  1   16 
           polyethylene that acted as a source of thermal         14218  1   17 
           neutrons. The assembly was excited by fast neutrons    14218  1   18 
           obtained from LINAC electron pulse on tungsten         14218  1   19 
           target. The neutron beam was extracted through a hole  14218  1   20 
           and collimated along 16 m flight path to a bank of 32  14218  1   21 
           BF3 detectors.                                         14218  1   22 
ERR-ANALYS (DATA-ERR) In general, the dominant sources of error   14218  1   23 
           in the experiment were either counting statistics or   14218  1   24 
           uncertainty in the sample thickness. Sample            14218  1   25 
           temperature possible variations +-3 degrees would      14218  1   26 
           result in negligible error.                            14218  1   27 
HISTORY    (20160812C) BP                                         14218  1   28 
ENDBIB              26          0                                 14218  1   29 
COMMON               1          3                                 14218  1   30 
TEMP                                                              14218  1   31 
K                                                                 14218  1   32 
      296.0                                                       14218  1   33 
ENDCOMMON            3          0                                 14218  1   34 
ENDSUBENT           33          0                                 14218  199999 
SUBENT        14218002   20160812                             142214218  2    1 
BIB                  2          2                                 14218  2    2 
REACTION   (1-H-WTR(N,TOT),,SIG)                                  14218  2    3 
STATUS     (CURVE) Fig. 1, page 266.                              14218  2    4 
ENDBIB               2          0                                 14218  2    5 
NOCOMMON             0          0                                 14218  2    6 
DATA                 3        132                                 14218  2    7 
EN         DATA       DATA-ERR                                    14218  2    8 
EV         B          B                                           14218  2    9 
  3.627E-03    189.669                                            14218  2   10 
  3.808E-03    179.371                                            14218  2   11 
  3.990E-03    175.659      7.766                                 14218  2   12 
  4.194E-03    161.815                                            14218  2   13 
  4.427E-03    170.431                                            14218  2   14 
  4.636E-03    168.070                                            14218  2   15 
  4.860E-03    163.007                                            14218  2   16 
  5.200E-03    164.701                                            14218  2   17 
  5.453E-03    158.456                                            14218  2   18 
  5.715E-03    153.731                                            14218  2   19 
  5.977E-03    155.591                                            14218  2   20 
  6.324E-03    156.609                                            14218  2   21 
  6.773E-03    155.600      3.712                                 14218  2   22 
  7.018E-03    150.874                                            14218  2   23 
  7.265E-03    149.526                                            14218  2   24 
  7.700E-03    145.477                                            14218  2   25 
  8.324E-03    150.211                                            14218  2   26 
  8.626E-03    145.485                                            14218  2   27 
  9.332E-03    148.193                                            14218  2   28 
  9.557E-03    144.817                                            14218  2   29 
  1.001E-02    141.105      2.026                                 14218  2   30 
  1.061E-02    138.407                                            14218  2   31 
  1.111E-02    135.539                                            14218  2   32 
  1.176E-02    136.388                                            14218  2   33 
  1.261E-02    130.482                                            14218  2   34 
  1.304E-02    131.667                                            14218  2   35 
  1.366E-02    129.812                                            14218  2   36 
  1.463E-02    128.804                                            14218  2   37 
  1.515E-02    126.273      1.519                                 14218  2   38 
  1.622E-02    125.434                                            14218  2   39 
  1.698E-02    123.411                                            14218  2   40 
  1.799E-02    121.388                                            14218  2   41 
  1.883E-02    119.872                                            14218  2   42 
  1.996E-02    115.992                                            14218  2   43 
  2.137E-02    115.659                                            14218  2   44 
  2.213E-02    113.128                                            14218  2   45 
  2.371E-02    110.431                                            14218  2   46 
  2.512E-02    107.902                                            14218  2   47 
  2.630E-02    106.216                                            14218  2   48 
  2.786E-02    103.519                                            14218  2   49 
  2.918E-02    101.495                                            14218  2   50 
  3.090E-02     99.304                                            14218  2   51 
  3.272E-02     98.126                                            14218  2   52 
  3.427E-02     95.427                                            14218  2   53 
  3.671E-02     94.081                                            14218  2   54 
  3.758E-02     91.718                                            14218  2   55 
  4.117E-02     90.374                                            14218  2   56 
  4.312E-02     88.182                                            14218  2   57 
  4.515E-02     86.496                                            14218  2   58 
  4.780E-02     85.318                                            14218  2   59 
  5.063E-02     83.296                                            14218  2   60 
  5.423E-02     81.612                                            14218  2   61 
  5.677E-02     80.940                                            14218  2   62 
  5.944E-02     79.254                                            14218  2   63 
  6.365E-02     78.584                                            14218  2   64 
  6.590E-02     76.560                                            14218  2   65 
  6.977E-02     75.382                                            14218  2   66 
  7.472E-02     74.542                                            14218  2   67 
  7.910E-02     74.040                                            14218  2   68 
  8.374E-02     73.199                                            14218  2   69 
  8.766E-02     72.358                                            14218  2   70 
  9.388E-02     71.181                                            14218  2   71 
  1.005E-01     70.173                                            14218  2   72 
  1.076E-01     69.671                                            14218  2   73 
  1.089E-01     68.152                                            14218  2   74 
  1.193E-01     67.652                                            14218  2   75 
  1.249E-01     66.473                                            14218  2   76 
  1.338E-01     65.296                                            14218  2   77 
  1.400E-01     64.455                                            14218  2   78 
  1.517E-01     63.616                                            14218  2   79 
  1.588E-01     62.437                                            14218  2   80 
  1.681E-01     61.259                                            14218  2   81 
  1.779E-01     61.432                                            14218  2   82 
  1.905E-01     60.424                                            14218  2   83 
  1.995E-01     59.076                                            14218  2   84 
  2.136E-01     58.743                                            14218  2   85 
  2.262E-01     57.396                                            14218  2   86 
  2.506E-01     56.390                                            14218  2   87 
  2.653E-01     55.381                                            14218  2   88 
  2.841E-01     54.542                                            14218  2   89 
  3.149E-01     53.198                                            14218  2   90 
  3.410E-01     52.528                                            14218  2   91 
  3.570E-01     51.180                                            14218  2   92 
  3.867E-01     50.004                                            14218  2   93 
  4.187E-01     50.347                                            14218  2   94 
  4.383E-01     49.000                                            14218  2   95 
  4.800E-01     49.175                                            14218  2   96 
  5.082E-01     48.672                                            14218  2   97 
  5.319E-01     48.000                                            14218  2   98 
  5.694E-01     48.174                                            14218  2   99 
  5.958E-01     48.346                                            14218  2  100 
  6.451E-01     48.521                                            14218  2  101 
  6.676E-01     47.848                                            14218  2  102 
  7.067E-01     47.514                                            14218  2  103 
  7.651E-01     47.857                                            14218  2  104 
  8.008E-01     47.354                                            14218  2  105 
  8.477E-01     47.189                                            14218  2  106 
  9.076E-01     46.856                                            14218  2  107 
  9.940E-01     46.694                                            14218  2  108 
  1.064E+00     46.530                                            14218  2  109 
  1.152E+00     46.198                                            14218  2  110 
  1.248E+00     46.204                                            14218  2  111 
  1.351E+00     46.041                                            14218  2  112 
  1.463E+00     45.877                                            14218  2  113 
  1.621E+00     45.716                                            14218  2  114 
  1.775E+00     45.722                                            14218  2  115 
  1.966E+00     45.730                                            14218  2  116 
  2.128E+00     46.242                                            14218  2  117 
  2.203E+00     45.062                                            14218  2  118 
  2.358E+00     45.236                                            14218  2  119 
  2.524E+00     45.917                                            14218  2  120 
  2.642E+00     44.738                                            14218  2  121 
  2.829E+00     44.743                                            14218  2  122 
  2.994E+00     45.084                                            14218  2  123 
  3.169E+00     45.088                                            14218  2  124 
  3.431E+00     44.925                                            14218  2  125 
  3.633E+00     44.085                                            14218  2  126 
  3.888E+00     45.103                                            14218  2  127 
  4.210E+00     45.109                                            14218  2  128 
  4.559E+00     44.777                                            14218  2  129 
  4.880E+00     44.951                                            14218  2  130 
  5.405E+00     44.958                                            14218  2  131 
  5.918E+00     45.471                                            14218  2  132 
  6.338E+00     44.463                                            14218  2  133 
  7.102E+00     43.964                                            14218  2  134 
  7.777E+00     44.140                                            14218  2  135 
  8.615E+00     43.978                                            14218  2  136 
  9.762E+00     43.987                                            14218  2  137 
  1.106E+01     43.827                                            14218  2  138 
  1.225E+01     44.679                                            14218  2  139 
  1.388E+01     43.674                                            14218  2  140 
  1.609E+01     43.854                                            14218  2  141 
ENDDATA            134          0                                 14218  2  142 
ENDSUBENT          141          0                                 14218  299999 
ENDENTRY             2          0                                 1421899999999 
