ENTRY            14221   20110930                             13761422100000001 
SUBENT        14221001   20110930                             13761422100100001 
BIB                 10         22                                 1422100100002 
TITLE      Review of Livermore-led neutron capture studies using  1422100100003 
           DANCE                                                  1422100100004 
AUTHOR     (W.E.Parker,S.A.Sheets,U.Agvaanluvsan,J.A.Becker,      1422100100005 
           F.Becvar,T.A.Bredeweg,R.Clement,A.Couture,E.Esch,      1422100100006 
           R.C.Haight,M.Jandel,M.Krticka,G.E.Mitchell,R.Macri,    1422100100007 
           J.M.O'Donnell,R.Reifarth,R.S.Rundberg,J.M.Schwantes,   1422100100008 
           J.L.Ullmann,D.J.Vieira,J.M.Wouters,P.A.Wilk)           1422100100009 
INSTITUTE  (1USALRL,1USANCS,3CZRCHU,1USALAS,1USATNL)              1422100100010 
REFERENCE  (C,2007NICE,1,491,2007)                                1422100100011 
FACILITY   (LINAC,1USALAS) Experiment at the Lujan Center of the  1422100100012 
           Los Alamos National Laboratory using the DANCE         1422100100013 
           detector array                                         1422100100014 
DETECTOR   (BAF2) The DANCE detector array consist of 160 barium  1422100100015 
           fluoride crystals arranged in a sphere, covering       1422100100016 
           almost 4Pi solid angle as viewed from the sample       1422100100017 
METHOD     (TOF) Incident neutron energy was determined by time-  1422100100018 
           of-flight over the flight path of 20.25 m and pulse    1422100100019 
           repetition rate of 20 Hz.                              1422100100020 
INC-SOURCE (SPALL) Neutrons were produced by spallation reaction  1422100100021 
           of 800 MeV protons impinging on tungsten target        1422100100022 
ERR-ANALYS (DATA-ERR) No information given                        1422100100023 
HISTORY    (20110930C) Compiled by S.H.                           1422100100024 
ENDBIB              22          0                                 1422100100025 
NOCOMMON             0          0                                 1422100100026 
ENDSUBENT           25          0                                 1422100199999 
SUBENT        14221002   20110930                             13761422100200001 
BIB                  3          5                                 1422100200002 
REACTION   (63-EU-151(N,G)63-EU-152,,SIG)                         1422100200003 
SAMPLE     (61-EU-151,ENR=0.9683) Enriched europium target with   1422100200004 
           thickness of 0.836+-0.04 mg/cm2 was, electroplated     1422100200005 
           onto 0.5 mil beryllium foil.                           1422100200006 
STATUS     (CURVE) Data taken from fig. 3 of the reference        1422100200007 
ENDBIB               5          0                                 1422100200008 
NOCOMMON             0          0                                 1422100200009 
DATA                 3         12                                 1422100200010 
EN         DATA       DATA-ERR                                    1422100200011 
KEV        B          B                                           1422100200012 
   3.76E-01       61.4        1.6                                 1422100200013 
   4.75E-01       58.9        2.1                                 1422100200014 
   5.96E-01       45.4        1.8                                 1422100200015 
   7.56E-01       41.5        1.9                                 1422100200016 
   9.50E-01       34.6        1.4                                 1422100200017 
   1.20E+00       29.8        1.6                                 1422100200018 
   1.51E+00       21.9        1.3                                 1422100200019 
   1.90E+00       23.4        1.2                                 1422100200020 
   2.40E+00       16.7        1.3                                 1422100200021 
   3.03E+00       16.2        1.3                                 1422100200022 
   3.82E+00       13.9        1.0                                 1422100200023 
   4.83E+00       11.9        0.9                                 1422100200024 
ENDDATA             14          0                                 1422100200025 
ENDSUBENT           24          0                                 1422100299999 
SUBENT        14221003   20110930                             13761422100300001 
BIB                  3          3                                 1422100300002 
REACTION   (95-AM-242-M(N,F),,SIG)                                1422100300003 
SAMPLE     242mAm target with mass of 47 mu-g                     1422100300004 
STATUS     (CURVE) Data taken from fig. 4 of the reference        1422100300005 
ENDBIB               3          0                                 1422100300006 
NOCOMMON             0          0                                 1422100300007 
DATA                 3        305                                 1422100300008 
EN         DATA       DATA-ERR                                    1422100300009 
EV         B          B                                           1422100300010 
   2.18E+00      280.6       15.3                                 1422100300011 
   2.20E+00      285.6       15.9                                 1422100300012 
   2.21E+00      296.5       17.5                                 1422100300013 
   2.24E+00      294.9       14.2                                 1422100300014 
   2.25E+00      255.4       14.8                                 1422100300015 
   2.27E+00      247.2       13.1                                 1422100300016 
   2.30E+00      223.7       13.7                                 1422100300017 
   2.32E+00      205.6       12.6                                 1422100300018 
   2.34E+00      185.3        9.3                                 1422100300019 
   2.36E+00      172.7                                            1422100300020 
   2.38E+00      163.9        7.1                                 1422100300021 
   2.41E+00      151.3        7.7                                 1422100300022 
   2.44E+00      146.4        7.1                                 1422100300023 
   2.46E+00      120.1        8.2                                 1422100300024 
   2.49E+00      126.1       13.1                                 1422100300025 
   2.52E+00      121.2        8.2                                 1422100300026 
   2.55E+00      130.5        8.2                                 1422100300027 
   2.59E+00      117.4        8.8                                 1422100300028 
   2.64E+00      117.4        9.3                                 1422100300029 
   2.66E+00      128.3        8.2                                 1422100300030 
   2.69E+00      121.7        9.9                                 1422100300031 
   2.72E+00      128.3        9.9                                 1422100300032 
   2.74E+00      153.0        7.7                                 1422100300033 
   2.77E+00      134.3        8.2                                 1422100300034 
   2.80E+00      160.6        8.2                                 1422100300035 
   2.82E+00      154.6        9.3                                 1422100300036 
   2.86E+00      203.4       11.0                                 1422100300037 
   2.89E+00      210.5       13.1                                 1422100300038 
   2.91E+00      215.4       12.6                                 1422100300039 
   2.94E+00      224.7       11.0                                 1422100300040 
   2.97E+00      220.4       11.5                                 1422100300041 
   3.00E+00      256.0       14.2                                 1422100300042 
   3.02E+00      298.7       16.4                                 1422100300043 
   3.06E+00      304.2       17.0                                 1422100300044 
   3.10E+00      329.9       15.3                                 1422100300045 
   3.12E+00      343.1       17.5                                 1422100300046 
   3.15E+00      355.7       16.4                                 1422100300047 
   3.18E+00      376.0       14.2                                 1422100300048 
   3.20E+00      369.4       17.5                                 1422100300049 
   3.24E+00      374.3       15.9                                 1422100300050 
   3.28E+00      378.7       19.2                                 1422100300051 
   3.32E+00      375.4       17.0                                 1422100300052 
   3.35E+00      342.5       15.9                                 1422100300053 
   3.38E+00      357.3       19.7                                 1422100300054 
   3.41E+00      341.4       12.6                                 1422100300055 
   3.45E+00      329.4       16.4                                 1422100300056 
   3.48E+00      289.9       15.9                                 1422100300057 
   3.51E+00      274.6       15.3                                 1422100300058 
   3.55E+00      218.7       12.1                                 1422100300059 
   3.60E+00      201.2       13.1                                 1422100300060 
   3.62E+00      178.2       13.1                                 1422100300061 
   3.65E+00      168.3       11.0                                 1422100300062 
   3.69E+00      143.7       11.5                                 1422100300063 
   3.74E+00      153.5       12.1                                 1422100300064 
   3.78E+00      145.3       10.4                                 1422100300065 
   3.81E+00      161.7       11.0                                 1422100300066 
   3.89E+00      208.3       11.5                                 1422100300067 
   3.93E+00      268.0       13.7                                 1422100300068 
   3.97E+00      306.4       17.0                                 1422100300069 
   4.02E+00      323.4       17.5                                 1422100300070 
   4.04E+00      333.2       15.3                                 1422100300071 
   4.09E+00      341.4       14.8                                 1422100300072 
   4.13E+00      327.7       16.4                                 1422100300073 
   4.18E+00      319.0        6.6                                 1422100300074 
   4.20E+00      303.6       15.3                                 1422100300075 
   4.27E+00      327.7       17.5                                 1422100300076 
   4.31E+00      339.3        9.3                                 1422100300077 
   4.34E+00      322.8       11.0                                 1422100300078 
   4.38E+00      294.9       14.8                                 1422100300079 
   4.43E+00      247.8       11.0                                 1422100300080 
   4.46E+00      217.6        9.9                                 1422100300081 
   4.51E+00      184.2       11.0                                 1422100300082 
   4.56E+00      176.0        8.8                                 1422100300083 
   4.61E+00      157.4                                            1422100300084 
   4.64E+00      143.7                                            1422100300085 
   4.67E+00      134.9                                            1422100300086 
   4.74E+00      137.6        6.6                                 1422100300087 
   4.80E+00      121.2        8.8                                 1422100300088 
   4.89E+00      108.1        6.6                                 1422100300089 
   4.95E+00      115.2       11.0                                 1422100300090 
   5.04E+00      113.5        6.6                                 1422100300091 
   5.08E+00      121.7        8.8                                 1422100300092 
   5.13E+00      146.4       11.0                                 1422100300093 
   5.23E+00      160.1        9.9                                 1422100300094 
   5.30E+00      193.0       11.5                                 1422100300095 
   5.35E+00      220.9       13.7                                 1422100300096 
   5.40E+00      227.5       12.1                                 1422100300097 
   5.45E+00      234.1       11.5                                 1422100300098 
   5.51E+00      201.7        7.7                                 1422100300099 
   5.56E+00      189.7       13.1                                 1422100300100 
   5.62E+00      206.1       11.5                                 1422100300101 
   5.68E+00      179.3       12.1                                 1422100300102 
   5.73E+00      188.0        7.7                                 1422100300103 
   5.78E+00      182.0        9.9                                 1422100300104 
   5.85E+00      179.3        9.9                                 1422100300105 
   5.92E+00      218.2       11.5                                 1422100300106 
   6.04E+00      239.5       12.6                                 1422100300107 
   6.08E+00      190.8        8.2                                 1422100300108 
   6.13E+00      179.8       12.6                                 1422100300109 
   6.21E+00      137.6        9.3                                 1422100300110 
   6.28E+00      125.6        8.8                                 1422100300111 
   6.33E+00      103.7        6.6                                 1422100300112 
   6.38E+00       96.5                                            1422100300113 
   6.41E+00       88.3        7.1                                 1422100300114 
   6.54E+00       87.8        7.7                                 1422100300115 
   6.58E+00      113.5        9.9                                 1422100300116 
   6.68E+00      148.0       11.0                                 1422100300117 
   6.76E+00      137.1        8.2                                 1422100300118 
   6.85E+00      119.0        8.2                                 1422100300119 
   6.93E+00       94.9        7.7                                 1422100300120 
   7.02E+00       77.9                                            1422100300121 
   7.11E+00       70.2                                            1422100300122 
   7.19E+00       62.6                                            1422100300123 
   7.27E+00       52.7        4.9                                 1422100300124 
   7.34E+00       40.1                                            1422100300125 
   7.44E+00       46.1                                            1422100300126 
   7.54E+00       39.6                                            1422100300127 
   7.66E+00       33.5                                            1422100300128 
   7.79E+00       40.7                                            1422100300129 
   7.88E+00       33.0        4.9                                 1422100300130 
   7.95E+00       46.1        5.5                                 1422100300131 
   8.04E+00       59.3                                            1422100300132 
   8.14E+00       53.8                                            1422100300133 
   8.28E+00       54.9                                            1422100300134 
   8.37E+00       47.2        6.6                                 1422100300135 
   8.46E+00       56.6                                            1422100300136 
   8.53E+00       62.6                                            1422100300137 
   8.62E+00       55.5        8.8                                 1422100300138 
   8.71E+00       64.8                                            1422100300139 
   8.81E+00       69.2                                            1422100300140 
   8.90E+00       76.8                                            1422100300141 
   9.02E+00       72.4                                            1422100300142 
   9.17E+00       89.4        8.8                                 1422100300143 
   9.28E+00       64.2        9.3                                 1422100300144 
   9.39E+00       74.1                                            1422100300145 
   9.56E+00       62.0                                            1422100300146 
   9.71E+00       49.4        7.1                                 1422100300147 
   9.84E+00       59.3        4.9                                 1422100300148 
   9.96E+00       52.2        6.6                                 1422100300149 
   1.01E+01       41.2                                            1422100300150 
   1.02E+01       52.2        6.0                                 1422100300151 
   1.03E+01       36.3        4.7                                 1422100300152 
   1.05E+01       43.4        4.0                                 1422100300153 
   1.08E+01       61.6        6.3                                 1422100300154 
   1.11E+01       60.0        7.1                                 1422100300155 
   1.13E+01       60.8                                            1422100300156 
   1.15E+01       68.7        7.1                                 1422100300157 
   1.17E+01       68.0        7.1                                 1422100300158 
   1.19E+01       80.6        9.5                                 1422100300159 
   1.21E+01       99.6                                            1422100300160 
   1.23E+01       83.0       11.1                                 1422100300161 
   1.24E+01      104.3       10.3                                 1422100300162 
   1.26E+01      130.5       10.3                                 1422100300163 
   1.28E+01      185.0       12.7                                 1422100300164 
   1.30E+01      166.8       11.1                                 1422100300165 
   1.31E+01      179.5       11.9                                 1422100300166 
   1.33E+01      207.2       13.4                                 1422100300167 
   1.34E+01      180.3       10.3                                 1422100300168 
   1.36E+01      195.3        8.7                                 1422100300169 
   1.37E+01      139.9       10.3                                 1422100300170 
   1.39E+01      107.5                                            1422100300171 
   1.40E+01       96.4                                            1422100300172 
   1.42E+01       83.0       11.1                                 1422100300173 
   1.45E+01       94.9                                            1422100300174 
   1.46E+01      106.7                                            1422100300175 
   1.49E+01       98.0                                            1422100300176 
   1.52E+01       67.2       12.7                                 1422100300177 
   1.55E+01       76.7        7.9                                 1422100300178 
   1.56E+01      103.6                                            1422100300179 
   1.59E+01      123.3       11.9                                 1422100300180 
   1.62E+01      104.3       10.3                                 1422100300181 
   1.65E+01      108.3       10.3                                 1422100300182 
   1.66E+01      113.1                                            1422100300183 
   1.68E+01      135.2        9.5                                 1422100300184 
   1.72E+01      155.8       15.0                                 1422100300185 
   1.73E+01      110.7                                            1422100300186 
   1.75E+01       95.6       10.3                                 1422100300187 
   1.80E+01       92.5        8.7                                 1422100300188 
   1.81E+01       83.8        7.1                                 1422100300189 
   1.83E+01       77.4       10.3                                 1422100300190 
   1.84E+01       96.4        7.9                                 1422100300191 
   1.88E+01      121.0        9.5                                 1422100300192 
   1.91E+01      131.2        9.5                                 1422100300193 
   1.91E+01      169.2                                            1422100300194 
   1.94E+01      167.6        7.1                                 1422100300195 
   1.95E+01      154.2        9.5                                 1422100300196 
   1.96E+01      137.6                                            1422100300197 
   1.99E+01      128.9                                            1422100300198 
   2.01E+01      118.6                                            1422100300199 
   2.03E+01      109.1                                            1422100300200 
   2.04E+01       94.1                                            1422100300201 
   2.10E+01       73.5       10.3                                 1422100300202 
   2.14E+01       98.0        7.1                                 1422100300203 
   2.18E+01      109.9        5.5                                 1422100300204 
   2.21E+01       92.5       11.9                                 1422100300205 
   2.26E+01      107.5        8.7                                 1422100300206 
   2.28E+01       94.9        7.1                                 1422100300207 
   2.32E+01       72.7        9.5                                 1422100300208 
   2.38E+01       37.1                                            1422100300209 
   2.44E+01       18.1        7.9                                 1422100300210 
   2.48E+01       30.8        7.1                                 1422100300211 
   2.54E+01       49.8        7.1                                 1422100300212 
   2.61E+01       41.1                                            1422100300213 
   2.67E+01       45.8        5.5                                 1422100300214 
   2.69E+01      128.9       11.1                                 1422100300215 
   2.73E+01      160.5                                            1422100300216 
   2.73E+01      198.5       11.9                                 1422100300217 
   2.75E+01      115.4       12.7                                 1422100300218 
   2.76E+01      153.4                                            1422100300219 
   2.77E+01      102.8       11.1                                 1422100300220 
   2.79E+01       76.7       10.3                                 1422100300221 
   2.82E+01       94.9        8.7                                 1422100300222 
   2.85E+01      110.7        9.5                                 1422100300223 
   2.89E+01      148.7        7.1                                 1422100300224 
   2.95E+01      143.1                                            1422100300225 
   2.97E+01      128.1        7.9                                 1422100300226 
   3.00E+01      113.1        7.9                                 1422100300227 
   3.03E+01       90.1                                            1422100300228 
   3.07E+01       54.5                                            1422100300229 
   3.10E+01       43.4                                            1422100300230 
   3.15E+01       41.8       10.3                                 1422100300231 
   3.17E+01       54.5        6.3                                 1422100300232 
   3.23E+01       52.1                                            1422100300233 
   3.27E+01       33.9                                            1422100300234 
   3.34E+01       29.2                                            1422100300235 
   3.39E+01       65.6                                            1422100300236 
   3.45E+01       72.7                                            1422100300237 
   3.51E+01       92.5        9.5                                 1422100300238 
   3.54E+01      132.0                                            1422100300239 
   3.60E+01      109.9       11.1                                 1422100300240 
   3.63E+01      133.6       11.1                                 1422100300241 
   3.70E+01      146.3        9.5                                 1422100300242 
   3.74E+01       69.5                                            1422100300243 
   3.79E+01       96.4                                            1422100300244 
   3.84E+01      105.1        9.5                                 1422100300245 
   3.88E+01       49.8                                            1422100300246 
   3.92E+01       58.5                                            1422100300247 
   3.95E+01       68.0                                            1422100300248 
   4.02E+01       73.5                                            1422100300249 
   4.08E+01       83.8        7.9                                 1422100300250 
   4.10E+01       28.4                                            1422100300251 
   4.16E+01       49.0                                            1422100300252 
   4.20E+01       56.9                                            1422100300253 
   4.26E+01       38.7                                            1422100300254 
   4.33E+01       26.8                                            1422100300255 
   4.42E+01       11.8                                            1422100300256 
   4.48E+01       16.5                                            1422100300257 
   4.51E+01       11.0                                            1422100300258 
   4.57E+01       20.5                                            1422100300259 
   4.61E+01       31.6                                            1422100300260 
   4.77E+01       28.4        8.7                                 1422100300261 
   4.82E+01       37.9                                            1422100300262 
   4.86E+01       71.1        7.9                                 1422100300263 
   4.92E+01       88.5                                            1422100300264 
   4.99E+01       93.3       11.9                                 1422100300265 
   5.08E+01      109.9        7.9                                 1422100300266 
   5.11E+01       98.0                                            1422100300267 
   5.14E+01       75.9                                            1422100300268 
   5.19E+01       64.8                                            1422100300269 
   5.27E+01       56.1                                            1422100300270 
   5.37E+01       45.8        7.9                                 1422100300271 
   5.45E+01       91.7        7.9                                 1422100300272 
   5.52E+01       69.5        6.3                                 1422100300273 
   5.59E+01       60.0       11.9                                 1422100300274 
   5.68E+01       72.7        6.3                                 1422100300275 
   5.76E+01       58.5        5.5                                 1422100300276 
   5.84E+01       41.8        9.5                                 1422100300277 
   5.92E+01       46.6        4.7                                 1422100300278 
   5.97E+01       39.5        6.3                                 1422100300279 
   6.08E+01       59.3        7.9                                 1422100300280 
   6.12E+01       41.8        7.1                                 1422100300281 
   6.23E+01       44.2        9.5                                 1422100300282 
   6.29E+01       54.5        4.7                                 1422100300283 
   6.34E+01       45.0        6.3                                 1422100300284 
   6.48E+01       53.7        4.7                                 1422100300285 
   6.56E+01       73.5        7.9                                 1422100300286 
   6.62E+01       61.6                                            1422100300287 
   6.71E+01       41.1                                            1422100300288 
   6.82E+01       44.2                                            1422100300289 
   6.92E+01       30.0       11.9                                 1422100300290 
   7.05E+01       37.1        7.1                                 1422100300291 
   7.19E+01       41.1       11.1                                 1422100300292 
   7.26E+01       50.6        7.1                                 1422100300293 
   7.40E+01       46.6                                            1422100300294 
   7.47E+01       62.4        7.1                                 1422100300295 
   7.56E+01       32.4        9.5                                 1422100300296 
   7.63E+01       42.6                                            1422100300297 
   7.73E+01       33.9                                            1422100300298 
   7.87E+01       23.7        7.1                                 1422100300299 
   7.99E+01       45.0        6.3                                 1422100300300 
   8.08E+01       34.7                                            1422100300301 
   8.20E+01       41.8                                            1422100300302 
   8.25E+01       22.9        7.9                                 1422100300303 
   8.45E+01       33.9       11.1                                 1422100300304 
   8.61E+01       33.9                                            1422100300305 
   8.70E+01       27.6                                            1422100300306 
   8.79E+01       41.8                                            1422100300307 
   8.94E+01       60.8        9.5                                 1422100300308 
   9.02E+01       36.3                                            1422100300309 
   9.14E+01       15.7                                            1422100300310 
   9.23E+01       30.0                                            1422100300311 
   9.37E+01       45.8                                            1422100300312 
   9.55E+01       54.5                                            1422100300313 
   9.76E+01       33.9                                            1422100300314 
   9.90E+01       49.8        7.1                                 1422100300315 
ENDDATA            307          0                                 1422100300316 
ENDSUBENT          315          0                                 1422100399999 
ENDENTRY             3          0                                 1422199999999 
