ENTRY            14232   20090529                             13541423200000001 
SUBENT        14232001   20090529                             13541423200100001 
BIB                  9         21                                 1423200100002 
TITLE      Measurements of thermal neutron diffraction and        1423200100003 
           inelastic scattering in reactor-grade graphite         1423200100004 
AUTHOR     (C.D.Bowman,D.C.Bowman,T.Hill,J.Long,A.P.Tonchev,      1423200100005 
           W.Tornow,F.Trouw,S.Vogel,R.L.Walter,S.Wender,          1423200100006 
           V.Yuanb)                                               1423200100007 
INSTITUTE  (1USALAS,1USATNL)                                      1423200100008 
           (1USAUSA)ADNA Corporation,Los Alamos,New Mexico        1423200100009 
REFERENCE  (J,NSE,159,182,2008)                                   1423200100010 
FACILITY   (LINAC,1USALAS) Measurements were conducted at the     1423200100011 
           Los Alamos Neutron Science Center pulsed neutron       1423200100012 
           facility at the Los Alamos National Laboratory.        1423200100013 
COMMENT    Cross section of thermal neutron diffraction and       1423200100014 
           inelastic scattering depend on the structure           1423200100015 
           and manufacturing technology of the graphite sample.   1423200100016 
           In general, the inelastic scattering cross section of  1423200100017 
           reactor grade graphite is higher than cross section    1423200100018 
           of pyrolytic graphite with almost perfect crystaline   1423200100019 
           structure.                                             1423200100020 
METHOD     (TRN)                                                  1423200100021 
INC-SOURCE (SPALL)                                                1423200100022 
HISTORY    (20090529C)                                            1423200100023 
ENDBIB              21          0                                 1423200100024 
COMMON               1          3                                 1423200100025 
TEMP                                                              1423200100026 
DEG-C                                                             1423200100027 
24.0                                                              1423200100028 
ENDCOMMON            3          0                                 1423200100029 
ENDSUBENT           28          0                                 1423200199999 
SUBENT        14232002   20090529                             13541423200200001 
BIB                  5          8                                 1423200200002 
REACTION   (6-C-12(N,TOT),,SIG)                                   1423200200003 
STATUS     (CURVE) Data taken from fig. 1,2 and 4 of the reference1423200200004 
           Waiting on data from author.                           1423200200005 
DETECTOR   (FISCH)235U fission chamber with 235U deposits of      1423200200006 
           thickness 0.25 mg/cm2 and diameter of 15 cm            1423200200007 
METHOD     (TOF) Energy of neutrons determined by the time of     1423200200008 
           flight method over the flight path of 6 and 11 m       1423200200009 
SAMPLE     Granular graphite sample with diameter of 10 cm        1423200200010 
ENDBIB               8          0                                 1423200200011 
NOCOMMON             0          0                                 1423200200012 
DATA                 2        382                                 1423200200013 
EN         DATA                                                   1423200200014 
EV         B                                                      1423200200015 
    0.00047      13.91                                            1423200200016 
    0.00050      13.89                                            1423200200017 
    0.00055      13.52                                            1423200200018 
    0.00059      13.61                                            1423200200019 
    0.00061      13.06                                            1423200200020 
    0.00065      12.95                                            1423200200021 
    0.00070      12.93                                            1423200200022 
    0.00075      12.36                                            1423200200023 
    0.00080      11.79                                            1423200200024 
    0.00087      11.25                                            1423200200025 
    0.00092      10.76                                            1423200200026 
    0.00100      10.30                                            1423200200027 
    0.00109       9.60                                            1423200200028 
    0.00118       9.12                                            1423200200029 
    0.00129       8.43                                            1423200200030 
    0.00140       7.87                                            1423200200031 
    0.00154       7.24                                            1423200200032 
    0.00162       7.04                                            1423200200033 
    0.00165       6.92                                            1423200200034 
    0.00168       6.82                                            1423200200035 
    0.00170       6.49                                            1423200200036 
    0.00174       6.68                                            1423200200037 
    0.00176       6.47                                            1423200200038 
    0.00179       6.64                                            1423200200039 
    0.00181       6.98                                            1423200200040 
    0.00181       7.38                                            1423200200041 
    0.00182       7.64                                            1423200200042 
    0.00182       8.27                                            1423200200043 
    0.00183       8.57                                            1423200200044 
    0.00183       9.26                                            1423200200045 
    0.00183      10.19                                            1423200200046 
    0.00183      10.73                                            1423200200047 
    0.00184      11.41                                            1423200200048 
    0.00185      11.99                                            1423200200049 
    0.00186      12.25                                            1423200200050 
    0.00187      12.50                                            1423200200051 
    0.00188      12.67                                            1423200200052 
    0.00189      12.80                                            1423200200053 
    0.00192      12.57                                            1423200200054 
    0.00196      12.38                                            1423200200055 
    0.00199      12.25                                            1423200200056 
    0.00201      12.02                                            1423200200057 
    0.00202      11.78                                            1423200200058 
    0.00204      11.59                                            1423200200059 
    0.00207      11.42                                            1423200200060 
    0.00212      11.38                                            1423200200061 
    0.00214      11.22                                            1423200200062 
    0.00216      11.08                                            1423200200063 
    0.00219      10.89                                            1423200200064 
    0.00222      10.68                                            1423200200065 
    0.00227      10.68                                            1423200200066 
    0.00230      10.49                                            1423200200067 
    0.00233      10.29                                            1423200200068 
    0.00237      10.13                                            1423200200069 
    0.00240      10.12                                            1423200200070 
    0.00241       9.85                                            1423200200071 
    0.00245       9.66                                            1423200200072 
    0.00249       9.63                                            1423200200073 
    0.00252       9.40                                            1423200200074 
    0.00256       9.46                                            1423200200075 
    0.00260       9.19                                            1423200200076 
    0.00266       9.03                                            1423200200077 
    0.00269       8.80                                            1423200200078 
    0.00275       8.74                                            1423200200079 
    0.00277       8.57                                            1423200200080 
    0.00283       8.51                                            1423200200081 
    0.00285       8.31                                            1423200200082 
    0.00291       8.27                                            1423200200083 
    0.00296       8.03                                            1423200200084 
    0.00301       7.90                                            1423200200085 
    0.00307       7.73                                            1423200200086 
    0.00311       7.57                                            1423200200087 
    0.00316       7.43                                            1423200200088 
    0.00321       7.35                                            1423200200089 
    0.00325       7.24                                            1423200200090 
    0.00331       7.17                                            1423200200091 
    0.00336       7.05                                            1423200200092 
    0.00340       6.91                                            1423200200093 
    0.00344       6.82                                            1423200200094 
    0.00350       6.67                                            1423200200095 
    0.00356       6.60                                            1423200200096 
    0.00359       6.45                                            1423200200097 
    0.00365       6.47                                            1423200200098 
    0.00370       6.34                                            1423200200099 
    0.00374       6.24                                            1423200200100 
    0.00379       6.15                                            1423200200101 
    0.00384       6.04                                            1423200200102 
    0.00388       6.02                                            1423200200103 
    0.00393       5.88                                            1423200200104 
    0.00398       5.92                                            1423200200105 
    0.00402       5.74                                            1423200200106 
    0.00407       5.66                                            1423200200107 
    0.00411       5.66                                            1423200200108 
    0.00416       5.54                                            1423200200109 
    0.00421       5.46                                            1423200200110 
    0.00428       5.36                                            1423200200111 
    0.00432       5.39                                            1423200200112 
    0.00437       5.23                                            1423200200113 
    0.00441       5.21                                            1423200200114 
    0.00448       5.09                                            1423200200115 
    0.00451       5.19                                            1423200200116 
    0.00458       5.25                                            1423200200117 
    0.00462       5.39                                            1423200200118 
    0.00467       5.35                                            1423200200119 
    0.00472       5.41                                            1423200200120 
    0.00477       5.32                                            1423200200121 
    0.00484       5.36                                            1423200200122 
    0.00489       5.48                                            1423200200123 
    0.00493       5.59                                            1423200200124 
    0.00496       5.71                                            1423200200125 
    0.00499       5.98                                            1423200200126 
    0.00501       6.19                                            1423200200127 
    0.00504       6.34                                            1423200200128 
    0.00508       6.45                                            1423200200129 
    0.00512       6.49                                            1423200200130 
    0.00516       6.45                                            1423200200131 
    0.00519       6.47                                            1423200200132 
    0.00523       6.44                                            1423200200133 
    0.00529       6.39                                            1423200200134 
    0.00533       1.05                                            1423200200135 
    0.00534       6.41                                            1423200200136 
    0.00540       6.38                                            1423200200137 
    0.00543       6.25                                            1423200200138 
    0.00549       6.25                                            1423200200139 
    0.00554       6.25                                            1423200200140 
    0.00560       6.22                                            1423200200141 
    0.00564       6.13                                            1423200200142 
    0.00568       6.07                                            1423200200143 
    0.00574       6.04                                            1423200200144 
    0.00579       5.94                                            1423200200145 
    0.00590       5.91                                            1423200200146 
    0.00598       5.88                                            1423200200147 
    0.00603       5.82                                            1423200200148 
    0.00610       5.76                                            1423200200149 
    0.00618       5.67                                            1423200200150 
    0.00619       5.74                                            1423200200151 
    0.00629       5.64                                            1423200200152 
    0.00639       5.61                                            1423200200153 
    0.00649       5.58                                            1423200200154 
    0.00657       5.53                                            1423200200155 
    0.00668       5.48                                            1423200200156 
    0.00674       5.45                                            1423200200157 
    0.00683       5.42                                            1423200200158 
    0.00690       5.34                                            1423200200159 
    0.00696       5.29                                            1423200200160 
    0.00703       5.25                                            1423200200161 
    0.00707       5.20                                            1423200200162 
    0.00719       5.20                                            1423200200163 
    0.00723       5.26                                            1423200200164 
    0.00726       5.37                                            1423200200165 
    0.00728       5.50                                            1423200200166 
    0.00731       5.62                                            1423200200167 
    0.00738       5.72                                            1423200200168 
    0.00749       5.65                                            1423200200169 
    0.00756       5.58                                            1423200200170 
    0.00763       5.54                                            1423200200171 
    0.00768       5.50                                            1423200200172 
    0.00776       5.44                                            1423200200173 
    0.00782       5.41                                            1423200200174 
    0.00789       5.38                                            1423200200175 
    0.00795       5.35                                            1423200200176 
    0.00803       5.32                                            1423200200177 
    0.00810       5.28                                            1423200200178 
    0.00816       5.25                                            1423200200179 
    0.00824       5.19                                            1423200200180 
    0.00828       5.14                                            1423200200181 
    0.00842       5.19                                            1423200200182 
    0.00851       5.14                                            1423200200183 
    0.00862       5.26                                            1423200200184 
    0.00866       5.32                                            1423200200185 
    0.00875       5.31                                            1423200200186 
    0.00882       5.35                                            1423200200187 
    0.00888       5.31                                            1423200200188 
    0.00895       5.29                                            1423200200189 
    0.00907       5.27                                            1423200200190 
    0.00919       5.22                                            1423200200191 
    0.00929       5.17                                            1423200200192 
    0.00941       5.09                                            1423200200193 
    0.00952       5.06                                            1423200200194 
    0.00964       5.00                                            1423200200195 
    0.00973       4.97                                            1423200200196 
    0.00977       4.91                                            1423200200197 
    0.00991       4.87                                            1423200200198 
    0.01003       4.84                                            1423200200199 
    0.01013       4.79                                            1423200200200 
    0.01024       4.73                                            1423200200201 
    0.01032       4.70                                            1423200200202 
    0.01043       4.63                                            1423200200203 
    0.01055       4.61                                            1423200200204 
    0.01060       4.57                                            1423200200205 
    0.01070       4.55                                            1423200200206 
    0.01075       4.51                                            1423200200207 
    0.01087       4.48                                            1423200200208 
    0.01096       4.42                                            1423200200209 
    0.01115       4.35                                            1423200200210 
    0.01122       4.31                                            1423200200211 
    0.01138       4.28                                            1423200200212 
    0.01160       4.22                                            1423200200213 
    0.01178       4.18                                            1423200200214 
    0.01200       4.10                                            1423200200215 
    0.01216       4.09                                            1423200200216 
    0.01225       4.04                                            1423200200217 
    0.01241       4.05                                            1423200200218 
    0.01255       3.98                                            1423200200219 
    0.01265       3.95                                            1423200200220 
    0.01280       3.92                                            1423200200221 
    0.01297       3.90                                            1423200200222 
    0.01307       3.84                                            1423200200223 
    0.01327       3.82                                            1423200200224 
    0.01344       3.86                                            1423200200225 
    0.01349       4.02                                            1423200200226 
    0.01362       4.39                                            1423200200227 
    0.01370       4.74                                            1423200200228 
    0.01384       4.81                                            1423200200229 
    0.01398       4.77                                            1423200200230 
    0.01411       4.74                                            1423200200231 
    0.01425       4.73                                            1423200200232 
    0.01437       4.68                                            1423200200233 
    0.01454       4.68                                            1423200200234 
    0.01468       4.65                                            1423200200235 
    0.01482       4.61                                            1423200200236 
    0.01496       4.66                                            1423200200237 
    0.01506       4.71                                            1423200200238 
    0.01516       4.74                                            1423200200239 
    0.01523       4.88                                            1423200200240 
    0.01530       5.15                                            1423200200241 
    0.01541       5.44                                            1423200200242 
    0.01553       5.91                                            1423200200243 
    0.01567       6.02                                            1423200200244 
    0.01578       6.02                                            1423200200245 
    0.01596       6.07                                            1423200200246 
    0.01615       6.07                                            1423200200247 
    0.01633       6.06                                            1423200200248 
    0.01643       6.08                                            1423200200249 
    0.01659       6.11                                            1423200200250 
    0.01673       6.08                                            1423200200251 
    0.01689       6.06                                            1423200200252 
    0.01702       6.02                                            1423200200253 
    0.01716       5.97                                            1423200200254 
    0.01729       5.93                                            1423200200255 
    0.01741       5.90                                            1423200200256 
    0.01763       5.86                                            1423200200257 
    0.01776       5.79                                            1423200200258 
    0.01795       5.74                                            1423200200259 
    0.01808       5.74                                            1423200200260 
    0.01822       5.75                                            1423200200261 
    0.01840       5.75                                            1423200200262 
    0.01857       5.78                                            1423200200263 
    0.01868       5.81                                            1423200200264 
    0.01884       5.81                                            1423200200265 
    0.01900       5.81                                            1423200200266 
    0.01905       5.77                                            1423200200267 
    0.01918       5.74                                            1423200200268 
    0.01933       5.71                                            1423200200269 
    0.01942       5.68                                            1423200200270 
    0.01958       5.66                                            1423200200271 
    0.01972       5.64                                            1423200200272 
    0.01987       5.64                                            1423200200273 
    0.02001       5.64                                            1423200200274 
    0.02016       5.63                                            1423200200275 
    0.02027       5.61                                            1423200200276 
    0.02040       5.63                                            1423200200277 
    0.02060       5.68                                            1423200200278 
    0.02070       5.77                                            1423200200279 
    0.02092       5.95                                            1423200200280 
    0.02107       6.06                                            1423200200281 
    0.02123       6.14                                            1423200200282 
    0.02138       6.13                                            1423200200283 
    0.02152       6.13                                            1423200200284 
    0.02171       6.12                                            1423200200285 
    0.02184       6.09                                            1423200200286 
    0.02205       6.09                                            1423200200287 
    0.02217       6.07                                            1423200200288 
    0.02237       6.07                                            1423200200289 
    0.02256       6.02                                            1423200200290 
    0.02271       6.00                                            1423200200291 
    0.02292       5.97                                            1423200200292 
    0.02307       5.93                                            1423200200293 
    0.02330       5.88                                            1423200200294 
    0.02351       5.84                                            1423200200295 
    0.02368       5.81                                            1423200200296 
    0.02387       5.76                                            1423200200297 
    0.02403       5.75                                            1423200200298 
    0.02424       5.66                                            1423200200299 
    0.02442       5.66                                            1423200200300 
    0.02468       5.60                                            1423200200301 
    0.02492       5.58                                            1423200200302 
    0.02598       5.42                                            1423200200303 
    0.02684       5.32                                            1423200200304 
    0.02759       5.20                                            1423200200305 
    0.02851       5.10                                            1423200200306 
    0.02931       5.16                                            1423200200307 
    0.03000       5.27                                            1423200200308 
    0.03128       5.27                                            1423200200309 
    0.03232       5.28                                            1423200200310 
    0.03339       5.23                                            1423200200311 
    0.03433       5.13                                            1423200200312 
    0.03498       5.01                                            1423200200313 
    0.03647       5.08                                            1423200200314 
    0.03733       4.96                                            1423200200315 
    0.03856       4.86                                            1423200200316 
    0.03984       4.79                                            1423200200317 
    0.04077       4.91                                            1423200200318 
    0.04173       5.06                                            1423200200319 
    0.04212       5.22                                            1423200200320 
    0.04351       5.28                                            1423200200321 
    0.04558       5.22                                            1423200200322 
    0.04666       5.06                                            1423200200323 
    0.04842       5.16                                            1423200200324 
    0.04979       5.11                                            1423200200325 
    0.05073       4.98                                            1423200200326 
    0.05265       4.89                                            1423200200327 
    0.05464       5.01                                            1423200200328 
    0.05645       5.10                                            1423200200329 
    0.05859       5.18                                            1423200200330 
    0.06166       5.22                                            1423200200331 
    0.06490       5.16                                            1423200200332 
    0.06767       5.11                                            1423200200333 
    0.07089       5.11                                            1423200200334 
    0.07460       5.08                                            1423200200335 
    0.07779       4.98                                            1423200200336 
    0.08149       4.87                                            1423200200337 
    0.08497       4.86                                            1423200200338 
    0.08860       4.86                                            1423200200339 
    0.09239       4.82                                            1423200200340 
    0.09544       4.92                                            1423200200341 
    0.09860       4.98                                            1423200200342 
    0.10186       5.06                                            1423200200343 
    0.10572       4.98                                            1423200200344 
    0.10972       5.06                                            1423200200345 
    0.11441       4.94                                            1423200200346 
    0.11874       4.89                                            1423200200347 
    0.12324       4.98                                            1423200200348 
    0.12910       5.06                                            1423200200349 
    0.13462       4.92                                            1423200200350 
    0.13972       5.01                                            1423200200351 
    0.14367       4.91                                            1423200200352 
    0.14911       4.98                                            1423200200353 
    0.15476       4.91                                            1423200200354 
    0.16137       4.82                                            1423200200355 
    0.16748       4.82                                            1423200200356 
    0.17464       4.84                                            1423200200357 
    0.18295       4.92                                            1423200200358 
    0.19165       4.92                                            1423200200359 
    0.20077       4.92                                            1423200200360 
    0.21032       4.92                                            1423200200361 
    0.22032       4.92                                            1423200200362 
    0.23080       4.92                                            1423200200363 
    0.24178       4.94                                            1423200200364 
    0.25211       4.89                                            1423200200365 
    0.25804       4.77                                            1423200200366 
    0.26534       4.89                                            1423200200367 
    0.27411       4.84                                            1423200200368 
    0.28715       4.91                                            1423200200369 
    0.29942       4.87                                            1423200200370 
    0.31659       4.86                                            1423200200371 
    0.33165       4.84                                            1423200200372 
    0.34421       4.86                                            1423200200373 
    0.35892       4.87                                            1423200200374 
    0.37079       4.87                                            1423200200375 
    0.39023       4.89                                            1423200200376 
    0.40127       4.87                                            1423200200377 
    0.41262       4.96                                            1423200200378 
    0.43024       4.94                                            1423200200379 
    0.45917       4.92                                            1423200200380 
    0.48325       4.89                                            1423200200381 
    0.50389       4.91                                            1423200200382 
    0.52298       4.91                                            1423200200383 
    0.54786       4.91                                            1423200200384 
    0.57393       4.91                                            1423200200385 
    0.60967       4.92                                            1423200200386 
    0.63571       4.89                                            1423200200387 
    0.65673       4.98                                            1423200200388 
    0.67217       4.86                                            1423200200389 
    0.71073       4.94                                            1423200200390 
    0.75149       4.91                                            1423200200391 
    0.79459       4.87                                            1423200200392 
    0.82469       4.82                                            1423200200393 
    0.85992       4.98                                            1423200200394 
    0.90503       4.86                                            1423200200395 
    0.95250       4.87                                            1423200200396 
    0.98858       4.89                                            1423200200397 
ENDDATA            384          0                                 1423200200398 
ENDSUBENT          397          0                                 1423200299999 
SUBENT        14232003   20090529                             13541423200300001 
BIB                  5          9                                 1423200300002 
REACTION   (6-C-12(N,TOT),,SIG)                                   1423200300003 
STATUS     (CURVE) Data taken from figs. 5,6,7,8 of the reference 1423200300004 
           Waiting on data from author.                           1423200300005 
DETECTOR   (SCIN)  A large-area 10 B-loaded plastic scintillator  1423200300006 
           neutron detector with an efficiency of nearly 100%,    1423200300007 
           consisting of 32 scintillators coupled with 5 cm diam  1423200300008 
           photomultipliers.                                      1423200300009 
SAMPLE     Granular graphite sample with diameter of 10 cm        1423200300010 
METHOD     (TOF) Time of flight with the flight path of 59 m      1423200300011 
ENDBIB               9          0                                 1423200300012 
NOCOMMON             0          0                                 1423200300013 
DATA                 2        879                                 1423200300014 
EN         DATA                                                   1423200300015 
EV         B                                                      1423200300016 
    0.02507       5.91                                            1423200300017 
    0.02513       5.88                                            1423200300018 
    0.02523       5.90                                            1423200300019 
    0.02525       5.86                                            1423200300020 
    0.02537       5.83                                            1423200300021 
    0.02549       5.81                                            1423200300022 
    0.02558       5.79                                            1423200300023 
    0.02567       5.76                                            1423200300024 
    0.02581       5.74                                            1423200300025 
    0.02593       5.71                                            1423200300026 
    0.02611       5.69                                            1423200300027 
    0.02623       5.66                                            1423200300028 
    0.02630       5.63                                            1423200300029 
    0.02644       5.63                                            1423200300030 
    0.02654       5.60                                            1423200300031 
    0.02670       5.58                                            1423200300032 
    0.02675       5.54                                            1423200300033 
    0.02689       5.52                                            1423200300034 
    0.02695       5.50                                            1423200300035 
    0.02696       5.43                                            1423200300036 
    0.02709       5.52                                            1423200300037 
    0.02716       5.43                                            1423200300038 
    0.02717       5.48                                            1423200300039 
    0.02731       5.43                                            1423200300040 
    0.02737       5.49                                            1423200300041 
    0.02754       5.47                                            1423200300042 
    0.02761       5.43                                            1423200300043 
    0.02773       5.40                                            1423200300044 
    0.02775       5.40                                            1423200300045 
    0.02780       5.38                                            1423200300046 
    0.02789       5.31                                            1423200300047 
    0.02793       5.35                                            1423200300048 
    0.02810       5.32                                            1423200300049 
    0.02821       5.32                                            1423200300050 
    0.02836       5.27                                            1423200300051 
    0.02850       5.26                                            1423200300052 
    0.02859       5.22                                            1423200300053 
    0.02868       5.21                                            1423200300054 
    0.02880       5.18                                            1423200300055 
    0.02891       5.17                                            1423200300056 
    0.02903       5.16                                            1423200300057 
    0.02924       5.13                                            1423200300058 
    0.02940       5.13                                            1423200300059 
    0.02959       5.15                                            1423200300060 
    0.02968       5.21                                            1423200300061 
    0.02982       5.16                                            1423200300062 
    0.02987       5.19                                            1423200300063 
    0.02999       5.24                                            1423200300064 
    0.03012       5.26                                            1423200300065 
    0.03020       5.31                                            1423200300066 
    0.03027       5.35                                            1423200300067 
    0.03033       5.38                                            1423200300068 
    0.03034       5.41                                            1423200300069 
    0.03040       5.46                                            1423200300070 
    0.03050       5.52                                            1423200300071 
    0.03054       5.58                                            1423200300072 
    0.03062       5.66                                            1423200300073 
    0.03076       5.72                                            1423200300074 
    0.03085       5.67                                            1423200300075 
    0.03089       5.63                                            1423200300076 
    0.03104       5.67                                            1423200300077 
    0.03113       5.61                                            1423200300078 
    0.03129       5.65                                            1423200300079 
    0.03138       5.63                                            1423200300080 
    0.03150       5.59                                            1423200300081 
    0.03157       5.57                                            1423200300082 
    0.03174       5.56                                            1423200300083 
    0.03180       5.52                                            1423200300084 
    0.03195       5.54                                            1423200300085 
    0.03201       5.57                                            1423200300086 
    0.03209       5.49                                            1423200300087 
    0.03225       5.51                                            1423200300088 
    0.03236       5.53                                            1423200300089 
    0.03237       5.55                                            1423200300090 
    0.03239       5.58                                            1423200300091 
    0.03248       5.61                                            1423200300092 
    0.03251       5.65                                            1423200300093 
    0.03258       5.70                                            1423200300094 
    0.03258       5.72                                            1423200300095 
    0.03265       5.75                                            1423200300096 
    0.03271       5.77                                            1423200300097 
    0.03283       5.80                                            1423200300098 
    0.03297       5.76                                            1423200300099 
    0.03313       5.75                                            1423200300100 
    0.03325       5.74                                            1423200300101 
    0.03339       5.73                                            1423200300102 
    0.03346       5.70                                            1423200300103 
    0.03353       5.67                                            1423200300104 
    0.03362       5.63                                            1423200300105 
    0.03372       5.66                                            1423200300106 
    0.03379       5.63                                            1423200300107 
    0.03388       5.61                                            1423200300108 
    0.03399       5.64                                            1423200300109 
    0.03409       5.61                                            1423200300110 
    0.03418       5.63                                            1423200300111 
    0.03425       5.59                                            1423200300112 
    0.03444       5.59                                            1423200300113 
    0.03453       5.56                                            1423200300114 
    0.03463       5.53                                            1423200300115 
    0.03476       5.50                                            1423200300116 
    0.03493       5.48                                            1423200300117 
    0.03504       5.46                                            1423200300118 
    0.03511       5.45                                            1423200300119 
    0.03519       5.41                                            1423200300120 
    0.03528       5.42                                            1423200300121 
    0.03540       5.44                                            1423200300122 
    0.03547       5.39                                            1423200300123 
    0.03560       5.38                                            1423200300124 
    0.03568       5.36                                            1423200300125 
    0.03577       5.34                                            1423200300126 
    0.03586       5.36                                            1423200300127 
    0.03596       5.35                                            1423200300128 
    0.03600       5.32                                            1423200300129 
    0.03616       5.31                                            1423200300130 
    0.03623       5.36                                            1423200300131 
    0.03626       5.33                                            1423200300132 
    0.03633       5.39                                            1423200300133 
    0.03645       5.38                                            1423200300134 
    0.03651       5.41                                            1423200300135 
    0.03672       5.42                                            1423200300136 
    0.03675       5.39                                            1423200300137 
    0.03686       5.37                                            1423200300138 
    0.03691       5.35                                            1423200300139 
    0.03707       5.32                                            1423200300140 
    0.03724       5.32                                            1423200300141 
    0.03736       5.28                                            1423200300142 
    0.03749       5.27                                            1423200300143 
    0.03763       5.25                                            1423200300144 
    0.03770       5.23                                            1423200300145 
    0.03780       5.20                                            1423200300146 
    0.03792       5.18                                            1423200300147 
    0.03815       5.16                                            1423200300148 
    0.03824       5.13                                            1423200300149 
    0.03849       5.10                                            1423200300150 
    0.03863       5.08                                            1423200300151 
    0.03870       5.05                                            1423200300152 
    0.03878       5.03                                            1423200300153 
    0.03887       5.01                                            1423200300154 
    0.03896       4.99                                            1423200300155 
    0.03908       5.02                                            1423200300156 
    0.03915       4.99                                            1423200300157 
    0.03927       4.97                                            1423200300158 
    0.03941       4.95                                            1423200300159 
    0.03955       4.95                                            1423200300160 
    0.03964       4.93                                            1423200300161 
    0.03982       4.91                                            1423200300162 
    0.03994       4.89                                            1423200300163 
    0.04006       4.87                                            1423200300164 
    0.04015       4.85                                            1423200300165 
    0.04027       4.86                                            1423200300166 
    0.04039       4.84                                            1423200300167 
    0.04052       4.82                                            1423200300168 
    0.04062       4.80                                            1423200300169 
    0.04083       4.79                                            1423200300170 
    0.04099       4.79                                            1423200300171 
    0.04111       4.81                                            1423200300172 
    0.04122       4.83                                            1423200300173 
    0.04123       4.89                                            1423200300174 
    0.04134       4.99                                            1423200300175 
    0.04143       5.08                                            1423200300176 
    0.04150       5.12                                            1423200300177 
    0.04165       5.09                                            1423200300178 
    0.04171       5.13                                            1423200300179 
    0.04186       5.08                                            1423200300180 
    0.04204       5.13                                            1423200300181 
    0.04213       5.10                                            1423200300182 
    0.04228       5.10                                            1423200300183 
    0.04242       5.09                                            1423200300184 
    0.04255       5.10                                            1423200300185 
    0.04267       5.13                                            1423200300186 
    0.04283       5.14                                            1423200300187 
    0.04288       5.19                                            1423200300188 
    0.04299       5.24                                            1423200300189 
    0.04304       5.30                                            1423200300190 
    0.04309       5.36                                            1423200300191 
    0.04314       5.46                                            1423200300192 
    0.04320       5.57                                            1423200300193 
    0.04325       5.70                                            1423200300194 
    0.04334       5.72                                            1423200300195 
    0.04342       5.79                                            1423200300196 
    0.04342       5.83                                            1423200300197 
    0.04348       5.86                                            1423200300198 
    0.04360       5.87                                            1423200300199 
    0.04369       5.91                                            1423200300200 
    0.04386       5.94                                            1423200300201 
    0.04393       5.96                                            1423200300202 
    0.04412       5.95                                            1423200300203 
    0.04432       5.94                                            1423200300204 
    0.04453       5.95                                            1423200300205 
    0.04470       5.94                                            1423200300206 
    0.04489       5.91                                            1423200300207 
    0.04496       5.88                                            1423200300208 
    0.04512       5.86                                            1423200300209 
    0.04523       5.85                                            1423200300210 
    0.04542       5.84                                            1423200300211 
    0.04554       5.82                                            1423200300212 
    0.04565       5.80                                            1423200300213 
    0.04582       5.76                                            1423200300214 
    0.04598       5.79                                            1423200300215 
    0.04598       5.75                                            1423200300216 
    0.04615       5.77                                            1423200300217 
    0.04622       5.73                                            1423200300218 
    0.04635       5.68                                            1423200300219 
    0.04643       5.74                                            1423200300220 
    0.04657       5.71                                            1423200300221 
    0.04671       5.67                                            1423200300222 
    0.04685       5.68                                            1423200300223 
    0.04705       5.62                                            1423200300224 
    0.04719       5.63                                            1423200300225 
    0.04731       5.60                                            1423200300226 
    0.04740       5.58                                            1423200300227 
    0.04747       6.43                                            1423200300228 
    0.04752       5.61                                            1423200300229 
    0.04755       5.56                                            1423200300230 
    0.04771       5.59                                            1423200300231 
    0.04777       5.54                                            1423200300232 
    0.04792       5.56                                            1423200300233 
    0.04801       5.54                                            1423200300234 
    0.04813       5.55                                            1423200300235 
    0.04826       5.53                                            1423200300236 
    0.04845       5.53                                            1423200300237 
    0.04854       5.57                                            1423200300238 
    0.04857       5.65                                            1423200300239 
    0.04869       5.66                                            1423200300240 
    0.04878       5.71                                            1423200300241 
    0.04887       5.78                                            1423200300242 
    0.04901       5.79                                            1423200300243 
    0.04913       5.78                                            1423200300244 
    0.04931       5.80                                            1423200300245 
    0.04941       5.78                                            1423200300246 
    0.04957       5.76                                            1423200300247 
    0.04976       5.75                                            1423200300248 
    0.04985       5.74                                            1423200300249 
    0.04994       5.72                                            1423200300250 
    0.05002       5.73                                            1423200300251 
    0.05008       5.08                                            1423200300252 
    0.05015       5.06                                            1423200300253 
    0.05031       5.06                                            1423200300254 
    0.05042       5.05                                            1423200300255 
    0.05058       5.04                                            1423200300256 
    0.05065       5.03                                            1423200300257 
    0.05077       5.02                                            1423200300258 
    0.05089       5.01                                            1423200300259 
    0.05100       5.01                                            1423200300260 
    0.05112       5.00                                            1423200300261 
    0.05127       4.99                                            1423200300262 
    0.05131       4.98                                            1423200300263 
    0.05154       4.98                                            1423200300264 
    0.05158       4.96                                            1423200300265 
    0.05181       4.96                                            1423200300266 
    0.05189       4.96                                            1423200300267 
    0.05197       4.94                                            1423200300268 
    0.05220       4.94                                            1423200300269 
    0.05231       4.93                                            1423200300270 
    0.05258       4.91                                            1423200300271 
    0.05274       4.90                                            1423200300272 
    0.05285       4.90                                            1423200300273 
    0.05304       4.88                                            1423200300274 
    0.05324       4.87                                            1423200300275 
    0.05343       4.86                                            1423200300276 
    0.05370       4.85                                            1423200300277 
    0.05385       4.84                                            1423200300278 
    0.05393       4.83                                            1423200300279 
    0.05405       4.82                                            1423200300280 
    0.05435       4.82                                            1423200300281 
    0.05466       4.82                                            1423200300282 
    0.05478       4.83                                            1423200300283 
    0.05497       4.84                                            1423200300284 
    0.05505       4.86                                            1423200300285 
    0.05524       4.89                                            1423200300286 
    0.05547       4.90                                            1423200300287 
    0.05570       4.88                                            1423200300288 
    0.05586       4.89                                            1423200300289 
    0.05609       4.88                                            1423200300290 
    0.05624       4.88                                            1423200300291 
    0.05640       4.89                                            1423200300292 
    0.05647       4.90                                            1423200300293 
    0.05659       4.91                                            1423200300294 
    0.05674       4.93                                            1423200300295 
    0.05682       4.94                                            1423200300296 
    0.05694       4.97                                            1423200300297 
    0.05701       5.00                                            1423200300298 
    0.05705       5.03                                            1423200300299 
    0.05728       5.03                                            1423200300300 
    0.05748       5.04                                            1423200300301 
    0.05759       5.05                                            1423200300302 
    0.05786       5.06                                            1423200300303 
    0.05790       5.07                                            1423200300304 
    0.05805       5.09                                            1423200300305 
    0.05821       5.09                                            1423200300306 
    0.05840       5.10                                            1423200300307 
    0.05852       5.09                                            1423200300308 
    0.05867       5.08                                            1423200300309 
    0.05898       5.10                                            1423200300310 
    0.05917       5.09                                            1423200300311 
    0.05944       5.09                                            1423200300312 
    0.05960       5.10                                            1423200300313 
    0.05987       5.11                                            1423200300314 
    0.06014       5.13                                            1423200300315 
    0.06040       5.17                                            1423200300316 
    0.06067       5.16                                            1423200300317 
    0.06098       5.16                                            1423200300318 
    0.06110       5.15                                            1423200300319 
    0.06141       5.15                                            1423200300320 
    0.06172       5.15                                            1423200300321 
    0.06187       5.16                                            1423200300322 
    0.06202       5.16                                            1423200300323 
    0.06218       5.18                                            1423200300324 
    0.06245       5.20                                            1423200300325 
    0.06256       5.21                                            1423200300326 
    0.06264       5.23                                            1423200300327 
    0.06291       5.24                                            1423200300328 
    0.06314       5.24                                            1423200300329 
    0.06333       5.23                                            1423200300330 
    0.06353       5.22                                            1423200300331 
    0.06376       5.23                                            1423200300332 
    0.06403       5.23                                            1423200300333 
    0.06422       5.22                                            1423200300334 
    0.06453       5.22                                            1423200300335 
    0.06476       5.21                                            1423200300336 
    0.06507       5.20                                            1423200300337 
    0.06522       5.19                                            1423200300338 
    0.06545       5.17                                            1423200300339 
    0.06568       5.18                                            1423200300340 
    0.06580       5.16                                            1423200300341 
    0.06592       5.14                                            1423200300342 
    0.06603       5.15                                            1423200300343 
    0.06634       5.14                                            1423200300344 
    0.06661       5.13                                            1423200300345 
    0.06676       5.12                                            1423200300346 
    0.06715       5.12                                            1423200300347 
    0.06730       5.11                                            1423200300348 
    0.06757       5.09                                            1423200300349 
    0.06777       5.09                                            1423200300350 
    0.06796       5.08                                            1423200300351 
    0.06819       5.06                                            1423200300352 
    0.06846       5.06                                            1423200300353 
    0.06869       5.04                                            1423200300354 
    0.06884       5.05                                            1423200300355 
    0.06908       5.03                                            1423200300356 
    0.06946       5.03                                            1423200300357 
    0.06969       5.03                                            1423200300358 
    0.06992       5.03                                            1423200300359 
    0.07000       5.02                                            1423200300360 
    0.07035       5.02                                            1423200300361 
    0.07050       5.03                                            1423200300362 
    0.07085       5.04                                            1423200300363 
    0.07096       5.05                                            1423200300364 
    0.07127       5.06                                            1423200300365 
    0.07131       5.07                                            1423200300366 
    0.07147       5.09                                            1423200300367 
    0.07162       5.10                                            1423200300368 
    0.07177       5.11                                            1423200300369 
    0.07204       5.11                                            1423200300370 
    0.07231       5.12                                            1423200300371 
    0.07243       5.11                                            1423200300372 
    0.07270       5.09                                            1423200300373 
    0.07289       5.11                                            1423200300374 
    0.07320       5.11                                            1423200300375 
    0.07332       5.09                                            1423200300376 
    0.07343       5.08                                            1423200300377 
    0.07355       5.09                                            1423200300378 
    0.07370       5.08                                            1423200300379 
    0.07389       5.09                                            1423200300380 
    0.07409       5.08                                            1423200300381 
    0.07439       5.09                                            1423200300382 
    0.07455       5.08                                            1423200300383 
    0.07463       5.06                                            1423200300384 
    0.07490       5.07                                            1423200300385 
    0.07509       5.06                                            1423200300386 
    0.07532       5.05                                            1423200300387 
    0.07551       5.04                                            1423200300388 
    0.07567       5.03                                            1423200300389 
    0.07605       5.02                                            1423200300390 
    0.07632       5.01                                            1423200300391 
    0.07663       5.01                                            1423200300392 
    0.07686       5.00                                            1423200300393 
    0.07705       4.99                                            1423200300394 
    0.07740       4.98                                            1423200300395 
    0.07763       4.96                                            1423200300396 
    0.07782       4.97                                            1423200300397 
    0.07809       4.97                                            1423200300398 
    0.07833       4.96                                            1423200300399 
    0.07840       4.94                                            1423200300400 
    0.07863       4.95                                            1423200300401 
    0.07871       4.94                                            1423200300402 
    0.07890       4.95                                            1423200300403 
    0.07913       4.93                                            1423200300404 
    0.07921       4.93                                            1423200300405 
    0.07952       4.92                                            1423200300406 
    0.07994       4.90                                            1423200300407 
    0.08018       4.90                                            1423200300408 
    0.08052       4.90                                            1423200300409 
    0.08091       4.89                                            1423200300410 
    0.08114       4.88                                            1423200300411 
    0.08129       4.89                                            1423200300412 
    0.08152       4.88                                            1423200300413 
    0.08176       4.88                                            1423200300414 
    0.08214       4.88                                            1423200300415 
    0.08222       4.87                                            1423200300416 
    0.08249       4.86                                            1423200300417 
    0.08260       4.87                                            1423200300418 
    0.08276       4.84                                            1423200300419 
    0.08303       4.86                                            1423200300420 
    0.08326       4.85                                            1423200300421 
    0.08353       4.85                                            1423200300422 
    0.08380       4.84                                            1423200300423 
    0.08411       4.83                                            1423200300424 
    0.08449       4.84                                            1423200300425 
    0.08488       4.84                                            1423200300426 
    0.08522       4.84                                            1423200300427 
    0.08549       4.85                                            1423200300428 
    0.08572       4.85                                            1423200300429 
    0.08588       4.84                                            1423200300430 
    0.08603       4.83                                            1423200300431 
    0.08619       4.84                                            1423200300432 
    0.08642       4.82                                            1423200300433 
    0.08684       4.82                                            1423200300434 
    0.08711       4.83                                            1423200300435 
    0.08754       4.85                                            1423200300436 
    0.08784       4.85                                            1423200300437 
    0.08823       4.85                                            1423200300438 
    0.08858       4.86                                            1423200300439 
    0.08881       4.84                                            1423200300440 
    0.08923       4.85                                            1423200300441 
    0.08950       4.84                                            1423200300442 
    0.08977       4.84                                            1423200300443 
    0.09012       4.83                                            1423200300444 
    0.09039       4.83                                            1423200300445 
    0.09058       4.82                                            1423200300446 
    0.09073       4.81                                            1423200300447 
    0.09100       4.82                                            1423200300448 
    0.09135       4.81                                            1423200300449 
    0.09162       4.81                                            1423200300450 
    0.09193       4.81                                            1423200300451 
    0.09231       4.80                                            1423200300452 
    0.09251       4.79                                            1423200300453 
    0.09293       4.79                                            1423200300454 
    0.09316       4.77                                            1423200300455 
    0.09328       4.77                                            1423200300456 
    0.09362       4.77                                            1423200300457 
    0.09393       4.76                                            1423200300458 
    0.09409       4.75                                            1423200300459 
    0.09436       4.75                                            1423200300460 
    0.09474       4.74                                            1423200300461 
    0.09497       4.74                                            1423200300462 
    0.09524       4.74                                            1423200300463 
    0.09601       4.74                                            1423200300464 
    0.09625       4.76                                            1423200300465 
    0.09648       4.77                                            1423200300466 
    0.09671       4.78                                            1423200300467 
    0.09686       4.81                                            1423200300468 
    0.09702       4.79                                            1423200300469 
    0.09725       4.81                                            1423200300470 
    0.09763       4.80                                            1423200300471 
    0.09798       4.82                                            1423200300472 
    0.09813       4.84                                            1423200300473 
    0.09833       4.88                                            1423200300474 
    0.09863       4.90                                            1423200300475 
    0.09902       4.91                                            1423200300476 
    0.09941       4.91                                            1423200300477 
    0.09979       4.91                                            1423200300478 
    0.10021       4.91                                            1423200300479 
    0.10058       4.90                                            1423200300480 
    0.10103       4.90                                            1423200300481 
    0.10118       4.89                                            1423200300482 
    0.10162       4.89                                            1423200300483 
    0.10192       4.88                                            1423200300484 
    0.10229       4.90                                            1423200300485 
    0.10311       4.91                                            1423200300486 
    0.10318       4.89                                            1423200300487 
    0.10370       4.92                                            1423200300488 
    0.10393       4.94                                            1423200300489 
    0.10423       4.95                                            1423200300490 
    0.10430       4.97                                            1423200300491 
    0.10475       4.98                                            1423200300492 
    0.10504       4.96                                            1423200300493 
    0.10564       4.95                                            1423200300494 
    0.10579       4.96                                            1423200300495 
    0.10623       4.95                                            1423200300496 
    0.10646       4.95                                            1423200300497 
    0.10646       4.94                                            1423200300498 
    0.10675       4.93                                            1423200300499 
    0.10735       4.93                                            1423200300500 
    0.10750       4.94                                            1423200300501 
    0.10765       4.92                                            1423200300502 
    0.10839       4.91                                            1423200300503 
    0.10846       4.92                                            1423200300504 
    0.10876       4.92                                            1423200300505 
    0.10898       4.91                                            1423200300506 
    0.10928       4.91                                            1423200300507 
    0.10965       4.90                                            1423200300508 
    0.10995       4.90                                            1423200300509 
    0.11010       4.91                                            1423200300510 
    0.11032       4.90                                            1423200300511 
    0.11047       4.89                                            1423200300512 
    0.11129       4.89                                            1423200300513 
    0.11159       4.88                                            1423200300514 
    0.11181       4.89                                            1423200300515 
    0.11218       4.90                                            1423200300516 
    0.11226       4.89                                            1423200300517 
    0.11278       4.89                                            1423200300518 
    0.11292       4.90                                            1423200300519 
    0.11322       4.90                                            1423200300520 
    0.11322       4.91                                            1423200300521 
    0.11359       4.92                                            1423200300522 
    0.11389       4.92                                            1423200300523 
    0.11397       4.91                                            1423200300524 
    0.11456       4.92                                            1423200300525 
    0.11493       4.91                                            1423200300526 
    0.11553       4.91                                            1423200300527 
    0.11597       4.90                                            1423200300528 
    0.11627       4.89                                            1423200300529 
    0.11649       4.89                                            1423200300530 
    0.11701       4.88                                            1423200300531 
    0.11739       4.88                                            1423200300532 
    0.11768       4.87                                            1423200300533 
    0.11813       4.87                                            1423200300534 
    0.11858       4.86                                            1423200300535 
    0.11895       4.85                                            1423200300536 
    0.11947       4.86                                            1423200300537 
    0.11969       4.84                                            1423200300538 
    0.12014       4.84                                            1423200300539 
    0.12051       4.85                                            1423200300540 
    0.12073       4.83                                            1423200300541 
    0.12103       4.82                                            1423200300542 
    0.12140       4.82                                            1423200300543 
    0.12162       4.83                                            1423200300544 
    0.12192       4.81                                            1423200300545 
    0.12237       4.82                                            1423200300546 
    0.12252       4.81                                            1423200300547 
    0.12304       4.81                                            1423200300548 
    0.12378       4.81                                            1423200300549 
    0.12415       4.82                                            1423200300550 
    0.12445       4.82                                            1423200300551 
    0.12490       4.83                                            1423200300552 
    0.12534       4.83                                            1423200300553 
    0.12571       4.83                                            1423200300554 
    0.12594       4.86                                            1423200300555 
    0.12631       4.86                                            1423200300556 
    0.12661       4.88                                            1423200300557 
    0.12690       4.88                                            1423200300558 
    0.12727       4.87                                            1423200300559 
    0.12765       4.88                                            1423200300560 
    0.12787       4.86                                            1423200300561 
    0.12824       4.87                                            1423200300562 
    0.12869       4.87                                            1423200300563 
    0.12884       4.87                                            1423200300564 
    0.12921       4.86                                            1423200300565 
    0.12958       4.87                                            1423200300566 
    0.12980       4.88                                            1423200300567 
    0.13017       4.89                                            1423200300568 
    0.13055       4.87                                            1423200300569 
    0.13084       4.88                                            1423200300570 
    0.13114       4.87                                            1423200300571 
    0.13151       4.88                                            1423200300572 
    0.13188       4.87                                            1423200300573 
    0.13233       4.88                                            1423200300574 
    0.13263       4.89                                            1423200300575 
    0.13300       4.88                                            1423200300576 
    0.13352       4.89                                            1423200300577 
    0.13382       4.88                                            1423200300578 
    0.13419       4.86                                            1423200300579 
    0.13464       4.87                                            1423200300580 
    0.13501       4.86                                            1423200300581 
    0.13568       4.85                                            1423200300582 
    0.13612       4.86                                            1423200300583 
    0.13620       4.85                                            1423200300584 
    0.13664       4.84                                            1423200300585 
    0.13702       4.85                                            1423200300586 
    0.13754       4.84                                            1423200300587 
    0.13806       4.84                                            1423200300588 
    0.13850       4.83                                            1423200300589 
    0.13902       4.83                                            1423200300590 
    0.13925       4.82                                            1423200300591 
    0.13991       4.81                                            1423200300592 
    0.14044       4.83                                            1423200300593 
    0.14051       4.83                                            1423200300594 
    0.14118       4.83                                            1423200300595 
    0.14155       4.83                                            1423200300596 
    0.14229       4.83                                            1423200300597 
    0.14252       4.83                                            1423200300598 
    0.14274       4.85                                            1423200300599 
    0.14326       4.85                                            1423200300600 
    0.14356       4.85                                            1423200300601 
    0.14393       4.85                                            1423200300602 
    0.14430       4.85                                            1423200300603 
    0.14475       4.85                                            1423200300604 
    0.14505       4.84                                            1423200300605 
    0.14586       4.83                                            1423200300606 
    0.14653       4.84                                            1423200300607 
    0.14690       4.84                                            1423200300608 
    0.14720       4.83                                            1423200300609 
    0.14750       4.82                                            1423200300610 
    0.14809       4.82                                            1423200300611 
    0.14832       4.83                                            1423200300612 
    0.14899       4.82                                            1423200300613 
    0.14958       4.81                                            1423200300614 
    0.15003       4.80                                            1423200300615 
    0.15062       4.78                                            1423200300616 
    0.15085       4.80                                            1423200300617 
    0.15151       4.79                                            1423200300618 
    0.15218       4.79                                            1423200300619 
    0.15278       4.79                                            1423200300620 
    0.15308       4.78                                            1423200300621 
    0.15397       4.78                                            1423200300622 
    0.15441       4.79                                            1423200300623 
    0.15493       4.77                                            1423200300624 
    0.15523       4.78                                            1423200300625 
    0.15620       4.77                                            1423200300626 
    0.15724       4.75                                            1423200300627 
    0.15783       4.75                                            1423200300628 
    0.15858       4.74                                            1423200300629 
    0.15940       4.74                                            1423200300630 
    0.15977       4.73                                            1423200300631 
    0.16014       4.72                                            1423200300632 
    0.16066       4.71                                            1423200300633 
    0.16111       4.72                                            1423200300634 
    0.16148       4.73                                            1423200300635 
    0.16200       4.72                                            1423200300636 
    0.16259       4.73                                            1423200300637 
    0.16304       4.72                                            1423200300638 
    0.16341       4.71                                            1423200300639 
    0.16393       4.72                                            1423200300640 
    0.16445       4.71                                            1423200300641 
    0.16542       4.71                                            1423200300642 
    0.16572       4.72                                            1423200300643 
    0.16646       4.72                                            1423200300644 
    0.16720       4.73                                            1423200300645 
    0.16772       4.74                                            1423200300646 
    0.16824       4.73                                            1423200300647 
    0.16869       4.73                                            1423200300648 
    0.16914       4.73                                            1423200300649 
    0.16951       4.72                                            1423200300650 
    0.17003       4.73                                            1423200300651 
    0.17055       4.73                                            1423200300652 
    0.17107       4.72                                            1423200300653 
    0.17137       4.74                                            1423200300654 
    0.17189       4.73                                            1423200300655 
    0.17241       4.73                                            1423200300656 
    0.17315       4.74                                            1423200300657 
    0.17352       4.74                                            1423200300658 
    0.17419       4.73                                            1423200300659 
    0.17427       4.73                                            1423200300660 
    0.17516       4.73                                            1423200300661 
    0.17568       4.73                                            1423200300662 
    0.17650       4.74                                            1423200300663 
    0.17717       4.72                                            1423200300664 
    0.17821       4.72                                            1423200300665 
    0.17873       4.72                                            1423200300666 
    0.17917       4.72                                            1423200300667 
    0.17992       4.73                                            1423200300668 
    0.18029       4.74                                            1423200300669 
    0.18081       4.75                                            1423200300670 
    0.18140       4.78                                            1423200300671 
    0.18192       4.77                                            1423200300672 
    0.18237       4.78                                            1423200300673 
    0.18304       4.77                                            1423200300674 
    0.18349       4.78                                            1423200300675 
    0.18408       4.76                                            1423200300676 
    0.18475       4.78                                            1423200300677 
    0.18520       4.77                                            1423200300678 
    0.18572       4.77                                            1423200300679 
    0.18639       4.79                                            1423200300680 
    0.18698       4.79                                            1423200300681 
    0.18750       4.81                                            1423200300682 
    0.18802       4.80                                            1423200300683 
    0.18854       4.80                                            1423200300684 
    0.18906       4.80                                            1423200300685 
    0.18981       4.80                                            1423200300686 
    0.19040       4.79                                            1423200300687 
    0.19092       4.80                                            1423200300688 
    0.19144       4.80                                            1423200300689 
    0.19219       4.79                                            1423200300690 
    0.19271       4.78                                            1423200300691 
    0.19338       4.78                                            1423200300692 
    0.19404       4.79                                            1423200300693 
    0.19449       4.79                                            1423200300694 
    0.19494       4.80                                            1423200300695 
    0.19575       4.80                                            1423200300696 
    0.19635       4.79                                            1423200300697 
    0.19694       4.80                                            1423200300698 
    0.19746       4.81                                            1423200300699 
    0.19813       4.81                                            1423200300700 
    0.19873       4.81                                            1423200300701 
    0.19932       4.81                                            1423200300702 
    0.19999       4.80                                            1423200300703 
    0.20275       4.79                                            1423200300704 
    0.20329       4.81                                            1423200300705 
    0.20708       4.78                                            1423200300706 
    0.20979       4.80                                            1423200300707 
    0.21087       4.80                                            1423200300708 
    0.21521       4.79                                            1423200300709 
    0.21521       4.78                                            1423200300710 
    0.21738       4.77                                            1423200300711 
    0.22117       4.76                                            1423200300712 
    0.22442       4.77                                            1423200300713 
    0.22550       4.78                                            1423200300714 
    0.22929       4.79                                            1423200300715 
    0.23038       4.79                                            1423200300716 
    0.23363       4.78                                            1423200300717 
    0.23959       4.79                                            1423200300718 
    0.24121       4.77                                            1423200300719 
    0.24717       4.78                                            1423200300720 
    0.24826       4.78                                            1423200300721 
    0.25205       4.78                                            1423200300722 
    0.25313       4.77                                            1423200300723 
    0.25584       4.76                                            1423200300724 
    0.25693       4.76                                            1423200300725 
    0.26180       4.75                                            1423200300726 
    0.26397       4.76                                            1423200300727 
    0.26776       4.77                                            1423200300728 
    0.26993       4.78                                            1423200300729 
    0.27372       4.77                                            1423200300730 
    0.27535       4.76                                            1423200300731 
    0.27968       4.77                                            1423200300732 
    0.28347       4.78                                            1423200300733 
    0.28510       4.77                                            1423200300734 
    0.28835       4.76                                            1423200300735 
    0.29214       4.77                                            1423200300736 
    0.29268       4.78                                            1423200300737 
    0.29648       4.79                                            1423200300738 
    0.30189       4.80                                            1423200300739 
    0.30677       4.80                                            1423200300740 
    0.30839       4.80                                            1423200300741 
    0.31273       4.80                                            1423200300742 
    0.31327       4.81                                            1423200300743 
    0.31490       4.79                                            1423200300744 
    0.32031       4.80                                            1423200300745 
    0.32411       4.79                                            1423200300746 
    0.32790       4.79                                            1423200300747 
    0.33278       4.78                                            1423200300748 
    0.33873       4.79                                            1423200300749 
    0.34415       4.79                                            1423200300750 
    0.34524       4.78                                            1423200300751 
    0.35065       4.79                                            1423200300752 
    0.35336       4.78                                            1423200300753 
    0.35499       4.77                                            1423200300754 
    0.35932       4.77                                            1423200300755 
    0.36203       4.78                                            1423200300756 
    0.36799       4.78                                            1423200300757 
    0.37178       4.77                                            1423200300758 
    0.37449       4.78                                            1423200300759 
    0.37774       4.78                                            1423200300760 
    0.38316       4.78                                            1423200300761 
    0.38479       4.77                                            1423200300762 
    0.38641       4.76                                            1423200300763 
    0.39020       4.79                                            1423200300764 
    0.39237       4.77                                            1423200300765 
    0.39291       4.78                                            1423200300766 
    0.39671       4.79                                            1423200300767 
    0.40104       4.78                                            1423200300768 
    0.40592       4.78                                            1423200300769 
    0.41025       4.77                                            1423200300770 
    0.41783       4.78                                            1423200300771 
    0.42109       4.78                                            1423200300772 
    0.42704       4.78                                            1423200300773 
    0.42921       4.78                                            1423200300774 
    0.43355       4.78                                            1423200300775 
    0.43680       4.79                                            1423200300776 
    0.44113       4.78                                            1423200300777 
    0.44655       4.79                                            1423200300778 
    0.44763       4.80                                            1423200300779 
    0.45034       4.80                                            1423200300780 
    0.45468       4.78                                            1423200300781 
    0.45901       4.79                                            1423200300782 
    0.46118       4.78                                            1423200300783 
    0.46605       4.79                                            1423200300784 
    0.47364       4.79                                            1423200300785 
    0.47635       4.79                                            1423200300786 
    0.48068       4.79                                            1423200300787 
    0.48393       4.78                                            1423200300788 
    0.48610       4.78                                            1423200300789 
    0.48881       4.79                                            1423200300790 
    0.49260       4.77                                            1423200300791 
    0.49693       4.78                                            1423200300792 
    0.50344       4.77                                            1423200300793 
    0.50777       4.78                                            1423200300794 
    0.50994       4.78                                            1423200300795 
    0.51590       4.78                                            1423200300796 
    0.51915       4.78                                            1423200300797 
    0.52511       4.76                                            1423200300798 
    0.52511       4.79                                            1423200300799 
    0.52944       4.79                                            1423200300800 
    0.53107       4.78                                            1423200300801 
    0.53811       4.78                                            1423200300802 
    0.54136       4.78                                            1423200300803 
    0.54624       4.77                                            1423200300804 
    0.55220       4.78                                            1423200300805 
    0.55599       4.78                                            1423200300806 
    0.56086       4.79                                            1423200300807 
    0.56303       4.78                                            1423200300808 
    0.56791       4.78                                            1423200300809 
    0.57170       4.77                                            1423200300810 
    0.57766       4.78                                            1423200300811 
    0.58145       4.77                                            1423200300812 
    0.58524       4.78                                            1423200300813 
    0.58958       4.78                                            1423200300814 
    0.59662       4.78                                            1423200300815 
    0.60475       4.78                                            1423200300816 
    0.60692       4.79                                            1423200300817 
    0.61071       4.79                                            1423200300818 
    0.61450       4.79                                            1423200300819 
    0.61938       4.78                                            1423200300820 
    0.62425       4.79                                            1423200300821 
    0.62696       4.78                                            1423200300822 
    0.63075       4.79                                            1423200300823 
    0.63509       4.78                                            1423200300824 
    0.63726       4.78                                            1423200300825 
    0.64322       4.78                                            1423200300826 
    0.64809       4.78                                            1423200300827 
    0.65459       4.78                                            1423200300828 
    0.65947       4.78                                            1423200300829 
    0.66380       4.78                                            1423200300830 
    0.66760       4.78                                            1423200300831 
    0.67139       4.78                                            1423200300832 
    0.67464       4.77                                            1423200300833 
    0.68060       4.78                                            1423200300834 
    0.68710       4.79                                            1423200300835 
    0.69143       4.77                                            1423200300836 
    0.69468       4.78                                            1423200300837 
    0.69848       4.79                                            1423200300838 
    0.70281       4.78                                            1423200300839 
    0.70931       4.78                                            1423200300840 
    0.71581       4.78                                            1423200300841 
    0.71961       4.79                                            1423200300842 
    0.72286       4.78                                            1423200300843 
    0.72773       4.78                                            1423200300844 
    0.73207       4.79                                            1423200300845 
    0.73478       4.78                                            1423200300846 
    0.73965       4.78                                            1423200300847 
    0.74399       4.78                                            1423200300848 
    0.75103       4.78                                            1423200300849 
    0.75645       4.78                                            1423200300850 
    0.75970       4.80                                            1423200300851 
    0.76620       4.78                                            1423200300852 
    0.76945       4.79                                            1423200300853 
    0.77541       4.80                                            1423200300854 
    0.78191       4.79                                            1423200300855 
    0.78841       4.78                                            1423200300856 
    0.79275       4.78                                            1423200300857 
    0.79925       4.79                                            1423200300858 
    0.80358       4.78                                            1423200300859 
    0.80737       4.78                                            1423200300860 
    0.81279       4.78                                            1423200300861 
    0.81713       4.79                                            1423200300862 
    0.82092       4.78                                            1423200300863 
    0.82742       4.79                                            1423200300864 
    0.83230       4.79                                            1423200300865 
    0.83880       4.79                                            1423200300866 
    0.84422       4.79                                            1423200300867 
    0.85072       4.79                                            1423200300868 
    0.85613       4.78                                            1423200300869 
    0.86209       4.78                                            1423200300870 
    0.86805       4.78                                            1423200300871 
    0.87347       4.78                                            1423200300872 
    0.87889       4.78                                            1423200300873 
    0.88377       4.78                                            1423200300874 
    0.88810       4.78                                            1423200300875 
    0.89243       4.78                                            1423200300876 
    0.89677       4.78                                            1423200300877 
    0.90164       4.79                                            1423200300878 
    0.90760       4.78                                            1423200300879 
    0.91356       4.79                                            1423200300880 
    0.91952       4.78                                            1423200300881 
    0.92657       4.79                                            1423200300882 
    0.93253       4.78                                            1423200300883 
    0.93957       4.79                                            1423200300884 
    0.94336       4.78                                            1423200300885 
    0.94499       4.79                                            1423200300886 
    0.95203       4.80                                            1423200300887 
    0.95907       4.79                                            1423200300888 
    0.96232       4.79                                            1423200300889 
    0.96557       4.78                                            1423200300890 
    0.97099       4.79                                            1423200300891 
    0.97749       4.79                                            1423200300892 
    0.98345       4.79                                            1423200300893 
    0.98725       4.79                                            1423200300894 
    0.99566       4.79                                            1423200300895 
ENDDATA            881          0                                 1423200300896 
ENDSUBENT          895          0                                 1423200399999 
ENDENTRY             3          0                                 1423299999999 
