ENTRY            14247   20160126                             141314247  0    1 
SUBENT        14247001   20160126                             141314247  1    1 
BIB                  9         10                                 14247  1    2 
TITLE      J.A.Harvey Files (File 5)                              14247  1    3 
AUTHOR     (R.W.Benjamin,C.E.Ahlfeld,J.A.Harvey,N.W.Hill)         14247  1    4 
REFERENCE  (W,HARVEY,5,1998) File 5 on Harvey's CD.               14247  1    5 
INSTITUTE  (1USAORL)                                              14247  1    6 
FACILITY   (LINAC,1USAORL)  ORELA                                 14247  1    7 
DETECTOR   (GLASD) 6Li glass.                                     14247  1    8 
METHOD     (TOF) 17.711 m Flight Path.                            14247  1    9 
COMMENT    Comment by compiler: Only incomplete information       14247  1   10 
           on the experiment is available.                        14247  1   11 
HISTORY    (20160126C) BP                                         14247  1   12 
ENDBIB              10          0                                 14247  1   13 
NOCOMMON             0          0                                 14247  1   14 
ENDSUBENT           13          0                                 14247  199999 
SUBENT        14247002   20160126                             141314247  2    1 
BIB                  4          4                                 14247  2    2 
REACTION   (96-CM-244(N,TOT),,SIG) Run: 24432.                    14247  2    3 
SAMPLE     244CmO2 Thickness: 7413 b/atom, measured at RT.        14247  2    4 
ERR-ANALYS (DATA-ERR) Absolute uncertainty.                       14247  2    5 
STATUS     (TABLE) J. Harvey's CD.                                14247  2    6 
ENDBIB               4          0                                 14247  2    7 
NOCOMMON             0          0                                 14247  2    8 
DATA                 3       1860                                 14247  2    9 
EN         DATA       DATA-ERR                                    14247  2   10 
EV         B          B                                           14247  2   11 
 7.6473E-01 1.7108E+02 5.6136E+02                                 14247  2   12 
 7.7117E-01-7.1861E+02 5.8489E+02                                 14247  2   13 
 7.7769E-01 2.2107E+02 5.5862E+02                                 14247  2   14 
 7.8429E-01-2.1652E+02 5.8130E+02                                 14247  2   15 
 7.9097E-01 5.5489E+02 5.1860E+02                                 14247  2   16 
 7.9774E-01 1.3261E+02 5.6434E+02                                 14247  2   17 
 8.0460E-01 8.7646E+02 5.0900E+02                                 14247  2   18 
 8.1155E-01 2.9710E+02 4.6009E+02                                 14247  2   19 
 8.1859E-01 4.2245E+02 5.1312E+02                                 14247  2   20 
 8.2572E-01-7.1628E+02 4.9244E+02                                 14247  2   21 
 8.3294E-01 4.4934E+02 4.6684E+02                                 14247  2   22 
 8.4026E-01-8.2591E+02 4.8938E+02                                 14247  2   23 
 8.4767E-01-1.9636E+02 5.0340E+02                                 14247  2   24 
 8.5519E-01 1.9518E+01 4.1470E+02                                 14247  2   25 
 8.6280E-01 2.8112E+02 4.4123E+02                                 14247  2   26 
 8.7052E-01 6.5264E+02 4.0849E+02                                 14247  2   27 
 8.7834E-01 1.0814E+03 4.0776E+02                                 14247  2   28 
 8.8626E-01-8.0781E+01 4.1818E+02                                 14247  2   29 
 8.9430E-01 9.8555E+02 4.0400E+02                                 14247  2   30 
 9.0244E-01 1.0726E+03 3.8944E+02                                 14247  2   31 
 9.1070E-01 5.8159E+01 4.3376E+02                                 14247  2   32 
 9.1907E-01 8.7956E+02 4.0041E+02                                 14247  2   33 
 9.2755E-01 2.1142E+02 4.0655E+02                                 14247  2   34 
 9.3615E-01 3.6913E+02 3.9259E+02                                 14247  2   35 
 9.4488E-01 3.5187E+02 3.7546E+02                                 14247  2   36 
 9.5372E-01 8.4770E+02 3.7955E+02                                 14247  2   37 
 9.5969E-01 2.0036E+03 8.6711E+02                                 14247  2   38 
 9.6269E-01-3.3496E+02 6.3282E+02                                 14247  2   39 
 9.6571E-01 1.5814E+03 6.2335E+02                                 14247  2   40 
 9.6874E-01 2.8766E+02 7.7708E+02                                 14247  2   41 
 9.7179E-01-7.3232E+02 8.4914E+02                                 14247  2   42 
 9.7485E-01 4.5470E+02 6.8082E+02                                 14247  2   43 
 9.7792E-01 1.2165E+03 8.8970E+02                                 14247  2   44 
 9.8102E-01 2.1351E+03 6.1544E+02                                 14247  2   45 
 9.8412E-01-1.3526E+02 6.7494E+02                                 14247  2   46 
 9.8724E-01 1.5099E+03 6.0518E+02                                 14247  2   47 
 9.9037E-01 1.3260E+03 6.2828E+02                                 14247  2   48 
 9.9352E-01 1.7539E+03 5.8294E+02                                 14247  2   49 
 9.9669E-01-9.4400E+02 7.3135E+02                                 14247  2   50 
 9.9987E-01 1.0644E+03 6.3851E+02                                 14247  2   51 
 1.0031E+00 2.7801E+03 5.5483E+02                                 14247  2   52 
 1.0063E+00 1.7246E+03 7.3700E+02                                 14247  2   53 
 1.0095E+00 3.8551E+03 5.5354E+02                                 14247  2   54 
 1.0127E+00 2.0199E+03 7.2273E+02                                 14247  2   55 
 1.0160E+00 4.5282E+03 6.9735E+02                                 14247  2   56 
 1.0193E+00 4.5848E+03 5.9664E+02                                 14247  2   57 
 1.0226E+00 3.7216E+03 6.6511E+02                                 14247  2   58 
 1.0259E+00 4.7241E+03 6.8381E+02                                 14247  2   59 
 1.0292E+00 5.3336E+03 6.1121E+02                                 14247  2   60 
 1.0325E+00 6.6718E+03 6.8099E+02                                 14247  2   61 
 1.0359E+00 8.7052E+03 6.0629E+02                                 14247  2   62 
 1.0392E+00 8.7020E+03 6.3124E+02                                 14247  2   63 
 1.0426E+00 1.0627E+04 6.4994E+02                                 14247  2   64 
 1.0460E+00 1.0705E+04 6.2055E+02                                 14247  2   65 
 1.0495E+00 9.3700E+03 7.6230E+02                                 14247  2   66 
 1.0529E+00 1.2288E+04 6.7481E+02                                 14247  2   67 
 1.0563E+00 1.2329E+04 6.6394E+02                                 14247  2   68 
 1.0598E+00 1.0530E+04 6.5351E+02                                 14247  2   69 
 1.0633E+00 9.8985E+03 6.7444E+02                                 14247  2   70 
 1.0668E+00 1.0585E+04 6.4567E+02                                 14247  2   71 
 1.0703E+00 9.8967E+03 5.9677E+02                                 14247  2   72 
 1.0739E+00 8.2591E+03 5.8170E+02                                 14247  2   73 
 1.0774E+00 7.3247E+03 6.2765E+02                                 14247  2   74 
 1.0810E+00 7.9845E+03 5.2475E+02                                 14247  2   75 
 1.0846E+00 5.5666E+03 5.7559E+02                                 14247  2   76 
 1.0882E+00 3.9452E+03 6.2249E+02                                 14247  2   77 
 1.0918E+00 4.1363E+03 5.8951E+02                                 14247  2   78 
 1.0955E+00 3.6584E+03 5.6096E+02                                 14247  2   79 
 1.0991E+00 1.0080E+03 6.1589E+02                                 14247  2   80 
 1.1028E+00 2.6981E+03 5.8703E+02                                 14247  2   81 
 1.1065E+00 1.9517E+03 6.3013E+02                                 14247  2   82 
 1.1102E+00 9.8692E+02 6.5980E+02                                 14247  2   83 
 1.1140E+00 1.0233E+03 5.7212E+02                                 14247  2   84 
 1.1177E+00 1.0785E+03 5.8926E+02                                 14247  2   85 
 1.1215E+00 2.6250E+03 5.1836E+02                                 14247  2   86 
 1.1253E+00 1.6966E+03 5.2010E+02                                 14247  2   87 
 1.1291E+00 1.4338E+03 5.1662E+02                                 14247  2   88 
 1.1330E+00 1.4473E+03 5.3739E+02                                 14247  2   89 
 1.1368E+00 1.1065E+03 5.3175E+02                                 14247  2   90 
 1.1407E+00 1.6019E+03 4.9872E+02                                 14247  2   91 
 1.1446E+00 1.4580E+03 5.0440E+02                                 14247  2   92 
 1.1485E+00 1.9233E+03 4.9045E+02                                 14247  2   93 
 1.1524E+00 3.0499E+02 5.4993E+02                                 14247  2   94 
 1.1564E+00 1.2940E+03 5.0378E+02                                 14247  2   95 
 1.1604E+00 5.1992E+02 5.1497E+02                                 14247  2   96 
 1.1684E+00-5.1087E+02 3.4403E+02                                 14247  2   97 
 1.1805E+00 4.6801E+02 3.0385E+02                                 14247  2   98 
 1.1929E+00 3.7643E+02 3.2521E+02                                 14247  2   99 
 1.2055E+00 1.0020E+02 3.1139E+02                                 14247  2  100 
 1.2182E+00 8.3552E+02 2.8739E+02                                 14247  2  101 
 1.2312E+00-2.1788E+02 3.1345E+02                                 14247  2  102 
 1.2444E+00 1.7101E+02 3.1358E+02                                 14247  2  103 
 1.2577E+00-2.9696E+01 2.8456E+02                                 14247  2  104 
 1.2713E+00-3.3152E+01 2.9701E+02                                 14247  2  105 
 1.2852E+00 5.6467E+02 2.7340E+02                                 14247  2  106 
 1.2992E+00 9.3953E+02 2.6914E+02                                 14247  2  107 
 1.3135E+00 5.8887E+02 2.7219E+02                                 14247  2  108 
 1.3280E+00 9.3225E+02 2.7130E+02                                 14247  2  109 
 1.3428E+00 8.9802E+02 2.7719E+02                                 14247  2  110 
 1.3578E+00 4.1509E+02 2.7027E+02                                 14247  2  111 
 1.3730E+00 4.4649E+02 2.7236E+02                                 14247  2  112 
 1.3886E+00 7.5292E+01 2.7134E+02                                 14247  2  113 
 1.4043E+00 7.2826E+02 2.5976E+02                                 14247  2  114 
 1.4204E+00 3.5416E+02 2.6195E+02                                 14247  2  115 
 1.4367E+00 2.4231E+02 2.7499E+02                                 14247  2  116 
 1.4533E+00 1.8876E+01 2.6503E+02                                 14247  2  117 
 1.4702E+00 7.9276E+02 2.4486E+02                                 14247  2  118 
 1.4874E+00 6.1163E+02 2.4758E+02                                 14247  2  119 
 1.5049E+00-1.6659E+02 2.7220E+02                                 14247  2  120 
 1.5228E+00 3.6363E+02 2.5085E+02                                 14247  2  121 
 1.5409E+00 3.5467E+02 2.4693E+02                                 14247  2  122 
 1.5593E+00 4.8712E+02 2.3620E+02                                 14247  2  123 
 1.5760E+00 1.7184E+01 3.4920E+02                                 14247  2  124 
 1.5861E+00-2.6347E+02 3.6041E+02                                 14247  2  125 
 1.5956E+00 3.0279E+02 3.4232E+02                                 14247  2  126 
 1.6053E+00 1.3109E+02 3.5253E+02                                 14247  2  127 
 1.6151E+00 5.7500E+02 3.3611E+02                                 14247  2  128 
 1.6250E+00 5.3564E+01 3.5895E+02                                 14247  2  129 
 1.6349E+00 2.2786E+02 3.4241E+02                                 14247  2  130 
 1.6450E+00 1.9757E+02 3.5874E+02                                 14247  2  131 
 1.6551E+00 2.6798E+01 3.5871E+02                                 14247  2  132 
 1.6653E+00 8.2808E+02 3.1805E+02                                 14247  2  133 
 1.6756E+00 7.7180E+00 3.5161E+02                                 14247  2  134 
 1.6861E+00-7.1142E+01 3.5163E+02                                 14247  2  135 
 1.6966E+00-1.3758E+01 3.3370E+02                                 14247  2  136 
 1.7072E+00-3.2331E+02 3.5163E+02                                 14247  2  137 
 1.7179E+00-1.9942E+02 3.5510E+02                                 14247  2  138 
 1.7287E+00-7.9269E+01 3.2934E+02                                 14247  2  139 
 1.7397E+00-3.3175E+01 3.2803E+02                                 14247  2  140 
 1.7507E+00 5.3385E+02 3.1597E+02                                 14247  2  141 
 1.7618E+00-2.7829E+02 3.3475E+02                                 14247  2  142 
 1.7730E+00-8.3468E+00 3.1803E+02                                 14247  2  143 
 1.7844E+00-2.4785E+02 3.2793E+02                                 14247  2  144 
 1.7958E+00-3.8740E+02 3.4250E+02                                 14247  2  145 
 1.8074E+00 1.3602E+02 3.3764E+02                                 14247  2  146 
 1.8191E+00-6.0113E+01 3.1177E+02                                 14247  2  147 
 1.8309E+00 4.7581E+02 3.1274E+02                                 14247  2  148 
 1.8428E+00-2.7776E+01 3.4682E+02                                 14247  2  149 
 1.8548E+00 1.2005E+02 2.9926E+02                                 14247  2  150 
 1.8669E+00 8.1520E+01 3.0985E+02                                 14247  2  151 
 1.8792E+00 1.5423E+02 3.1536E+02                                 14247  2  152 
 1.8916E+00-1.1242E+02 3.0824E+02                                 14247  2  153 
 1.9041E+00 8.2398E+01 2.9007E+02                                 14247  2  154 
 1.9167E+00 6.1673E+01 3.0280E+02                                 14247  2  155 
 1.9295E+00 6.2567E+02 2.8906E+02                                 14247  2  156 
 1.9423E+00-2.0733E+02 3.0999E+02                                 14247  2  157 
 1.9554E+00-3.5734E+02 3.2293E+02                                 14247  2  158 
 1.9685E+00-4.3149E+01 2.9817E+02                                 14247  2  159 
 1.9818E+00-2.1215E+02 3.1017E+02                                 14247  2  160 
 1.9952E+00 2.8568E+02 2.9618E+02                                 14247  2  161 
 2.0087E+00-3.0730E+02 3.1214E+02                                 14247  2  162 
 2.0224E+00 3.3543E+02 2.8531E+02                                 14247  2  163 
 2.0362E+00-1.1627E+02 2.9141E+02                                 14247  2  164 
 2.0502E+00-3.2791E+02 3.7153E+02                                 14247  2  165 
 2.0643E+00-2.5534E+02 2.9212E+02                                 14247  2  166 
 2.0786E+00 1.0008E+02 2.8913E+02                                 14247  2  167 
 2.0930E+00-3.0485E+02 2.8390E+02                                 14247  2  168 
 2.1075E+00 2.5174E+02 2.8038E+02                                 14247  2  169 
 2.1222E+00-2.1249E+02 3.1821E+02                                 14247  2  170 
 2.1371E+00 3.2651E+02 2.7133E+02                                 14247  2  171 
 2.1521E+00 4.4531E+02 2.9358E+02                                 14247  2  172 
 2.1673E+00 1.4277E+02 2.7147E+02                                 14247  2  173 
 2.1826E+00-3.0697E+02 2.9800E+02                                 14247  2  174 
 2.1981E+00 3.8817E+02 2.6340E+02                                 14247  2  175 
 2.2138E+00 3.8818E+02 2.6599E+02                                 14247  2  176 
 2.2296E+00-3.9254E+02 2.8082E+02                                 14247  2  177 
 2.2456E+00-4.5226E+01 2.6719E+02                                 14247  2  178 
 2.2618E+00 1.9086E+02 2.7009E+02                                 14247  2  179 
 2.2782E+00 4.3860E+02 2.6884E+02                                 14247  2  180 
 2.2947E+00-2.4552E+02 2.6818E+02                                 14247  2  181 
 2.3114E+00 4.7184E+02 2.5388E+02                                 14247  2  182 
 2.3283E+00 1.1378E+02 2.7542E+02                                 14247  2  183 
 2.3454E+00 1.7347E+02 2.6493E+02                                 14247  2  184 
 2.3627E+00 3.0649E+01 2.5831E+02                                 14247  2  185 
 2.3801E+00 2.6686E+02 2.5935E+02                                 14247  2  186 
 2.3978E+00-6.7161E+02 2.6407E+02                                 14247  2  187 
 2.4156E+00 2.6793E+02 2.5627E+02                                 14247  2  188 
 2.4337E+00-4.5360E+02 2.6212E+02                                 14247  2  189 
 2.4520E+00 6.9661E+02 2.4950E+02                                 14247  2  190 
 2.4704E+00-2.7266E+01 2.5240E+02                                 14247  2  191 
 2.4891E+00 7.1384E+00 2.5637E+02                                 14247  2  192 
 2.5080E+00 2.1342E+02 2.5101E+02                                 14247  2  193 
 2.5271E+00 7.9349E+01 2.4804E+02                                 14247  2  194 
 2.5464E+00-8.6998E-01 2.4682E+02                                 14247  2  195 
 2.5660E+00 2.7568E+02 2.4468E+02                                 14247  2  196 
 2.5857E+00 1.7396E+01 2.3814E+02                                 14247  2  197 
 2.6057E+00 4.8289E+02 2.3564E+02                                 14247  2  198 
 2.6260E+00 4.4282E+02 2.3307E+02                                 14247  2  199 
 2.6464E+00 2.0162E+02 2.3619E+02                                 14247  2  200 
 2.6671E+00 5.7116E+01 2.3694E+02                                 14247  2  201 
 2.6881E+00-3.1312E+02 2.3978E+02                                 14247  2  202 
 2.7093E+00-6.5041E+00 2.4501E+02                                 14247  2  203 
 2.7307E+00 1.8549E+02 2.4294E+02                                 14247  2  204 
 2.7524E+00-1.2319E+02 2.3722E+02                                 14247  2  205 
 2.7744E+00 1.5561E+02 2.3254E+02                                 14247  2  206 
 2.7966E+00 2.0128E+02 2.2907E+02                                 14247  2  207 
 2.8191E+00-1.3499E+02 2.3368E+02                                 14247  2  208 
 2.8419E+00 4.6368E+01 2.2807E+02                                 14247  2  209 
 2.8650E+00-2.3784E+02 2.3393E+02                                 14247  2  210 
 2.8883E+00 5.4046E+01 2.2299E+02                                 14247  2  211 
 2.9119E+00-1.4820E+02 2.2799E+02                                 14247  2  212 
 2.9358E+00 5.1501E+02 2.2080E+02                                 14247  2  213 
 2.9600E+00-8.7864E+01 2.2520E+02                                 14247  2  214 
 2.9845E+00 2.3476E+02 2.2270E+02                                 14247  2  215 
 3.0093E+00 1.1164E+01 2.2593E+02                                 14247  2  216 
 3.0345E+00-5.9150E+01 2.1915E+02                                 14247  2  217 
 3.0599E+00 7.6354E+01 2.1641E+02                                 14247  2  218 
 3.0857E+00-2.4621E+02 2.1486E+02                                 14247  2  219 
 3.1117E+00-7.8372E+01 2.2264E+02                                 14247  2  220 
 3.1382E+00-1.9001E+01 2.2043E+02                                 14247  2  221 
 3.1649E+00-1.1340E+02 2.1607E+02                                 14247  2  222 
 3.1920E+00 1.7594E+02 2.0966E+02                                 14247  2  223 
 3.2195E+00 4.0284E+01 2.0815E+02                                 14247  2  224 
 3.2473E+00 2.8102E+02 2.0815E+02                                 14247  2  225 
 3.2754E+00-2.0539E+02 2.1058E+02                                 14247  2  226 
 3.3040E+00 2.2693E+01 2.0631E+02                                 14247  2  227 
 3.3329E+00-3.7361E+01 2.0576E+02                                 14247  2  228 
 3.3621E+00 3.1882E+02 2.0133E+02                                 14247  2  229 
 3.3918E+00 2.9769E+02 1.9997E+02                                 14247  2  230 
 3.4219E+00 1.6669E+02 2.0212E+02                                 14247  2  231 
 3.4524E+00 1.3240E+02 2.0609E+02                                 14247  2  232 
 3.4832E+00 1.6028E+02 2.0010E+02                                 14247  2  233 
 3.5145E+00-3.3030E+01 2.0121E+02                                 14247  2  234 
 3.5463E+00 1.2685E+02 1.9621E+02                                 14247  2  235 
 3.5784E+00-1.4562E+02 2.0211E+02                                 14247  2  236 
 3.6110E+00-2.1655E+01 1.9818E+02                                 14247  2  237 
 3.6440E+00 7.8231E+01 1.9847E+02                                 14247  2  238 
 3.6775E+00 1.2144E+02 1.9455E+02                                 14247  2  239 
 3.7115E+00-1.9414E+01 1.9584E+02                                 14247  2  240 
 3.7459E+00 3.1415E+02 1.9082E+02                                 14247  2  241 
 3.7808E+00-1.5628E+01 1.9154E+02                                 14247  2  242 
 3.8162E+00 9.2013E+00 1.9091E+02                                 14247  2  243 
 3.8521E+00-2.4083E+02 1.9339E+02                                 14247  2  244 
 3.8886E+00 1.9168E+02 1.8732E+02                                 14247  2  245 
 3.9255E+00 3.5158E+02 1.8533E+02                                 14247  2  246 
 3.9629E+00 2.3370E+02 1.8531E+02                                 14247  2  247 
 4.0009E+00 3.5752E+02 1.7955E+02                                 14247  2  248 
 4.0395E+00 2.1386E+01 1.8533E+02                                 14247  2  249 
 4.0786E+00 1.8420E+02 1.8246E+02                                 14247  2  250 
 4.1183E+00 2.6361E+02 1.8240E+02                                 14247  2  251 
 4.1585E+00 1.7165E+02 1.8141E+02                                 14247  2  252 
 4.1994E+00 1.0981E+02 1.7891E+02                                 14247  2  253 
 4.2408E+00-1.2129E+01 1.8110E+02                                 14247  2  254 
 4.2829E+00 2.1839E+02 1.7786E+02                                 14247  2  255 
 4.3256E+00 3.6180E+02 1.7311E+02                                 14247  2  256 
 4.3690E+00-2.5154E+02 1.8137E+02                                 14247  2  257 
 4.4130E+00 9.3215E+01 1.7538E+02                                 14247  2  258 
 4.4576E+00-1.6438E+02 1.7772E+02                                 14247  2  259 
 4.5030E+00 9.0887E+01 1.7478E+02                                 14247  2  260 
 4.5490E+00 2.6515E+02 1.7091E+02                                 14247  2  261 
 4.5958E+00-8.6890E+01 1.7543E+02                                 14247  2  262 
 4.6433E+00-6.2469E+01 1.7380E+02                                 14247  2  263 
 4.6915E+00 1.2937E+02 1.6865E+02                                 14247  2  264 
 4.7405E+00-4.2938E+02 1.7369E+02                                 14247  2  265 
 4.7902E+00 3.9623E+02 1.6401E+02                                 14247  2  266 
 4.8407E+00 1.5228E+02 1.6486E+02                                 14247  2  267 
 4.8921E+00 2.1992E+02 1.6372E+02                                 14247  2  268 
 4.9442E+00 4.7698E+01 1.6478E+02                                 14247  2  269 
 4.9972E+00 3.8476E+02 1.6070E+02                                 14247  2  270 
 5.0511E+00-3.4149E+01 1.6436E+02                                 14247  2  271 
 5.1058E+00 1.2220E+02 1.6054E+02                                 14247  2  272 
 5.1614E+00 1.9207E+02 1.6198E+02                                 14247  2  273 
 5.2180E+00 8.5467E+01 1.6086E+02                                 14247  2  274 
 5.2754E+00 1.5966E+02 1.5922E+02                                 14247  2  275 
 5.3338E+00 1.8308E+01 1.6053E+02                                 14247  2  276 
 5.3932E+00-3.1971E+01 1.6006E+02                                 14247  2  277 
 5.4536E+00 1.5767E+01 1.5856E+02                                 14247  2  278 
 5.5151E+00-2.4939E+01 1.5647E+02                                 14247  2  279 
 5.5775E+00-6.4986E+01 1.5775E+02                                 14247  2  280 
 5.6411E+00 1.7001E+01 1.5585E+02                                 14247  2  281 
 5.7057E+00-2.9750E+01 1.5336E+02                                 14247  2  282 
 5.7714E+00 2.1675E+00 1.5287E+02                                 14247  2  283 
 5.8383E+00-1.9610E+01 1.5331E+02                                 14247  2  284 
 5.9063E+00-4.7083E+01 1.5007E+02                                 14247  2  285 
 5.9756E+00 1.7802E-01 1.5031E+02                                 14247  2  286 
 6.0461E+00-1.3147E+02 1.4945E+02                                 14247  2  287 
 6.1178E+00-1.2717E+02 1.5006E+02                                 14247  2  288 
 6.1908E+00 3.0721E+02 1.4494E+02                                 14247  2  289 
 6.2651E+00 2.7600E+02 1.4610E+02                                 14247  2  290 
 6.3217E+00-8.2207E+01 2.1127E+02                                 14247  2  291 
 6.3599E+00-6.1931E+01 2.1089E+02                                 14247  2  292 
 6.3984E+00 3.2122E+01 2.0741E+02                                 14247  2  293 
 6.4373E+00 7.3330E+01 2.0255E+02                                 14247  2  294 
 6.4765E+00 2.0477E+02 2.0622E+02                                 14247  2  295 
 6.5161E+00 2.2005E+02 2.0040E+02                                 14247  2  296 
 6.5560E+00-1.5387E+02 2.0938E+02                                 14247  2  297 
 6.5964E+00 9.8855E+01 2.0400E+02                                 14247  2  298 
 6.6371E+00 4.3007E+02 1.9835E+02                                 14247  2  299 
 6.6781E+00-2.5655E+02 2.0851E+02                                 14247  2  300 
 6.7196E+00 3.1773E+01 2.0113E+02                                 14247  2  301 
 6.7614E+00 3.5837E+02 1.9862E+02                                 14247  2  302 
 6.8037E+00-8.0270E+01 2.0491E+02                                 14247  2  303 
 6.8463E+00 1.2315E+02 1.9852E+02                                 14247  2  304 
 6.8893E+00 1.9507E+02 2.0035E+02                                 14247  2  305 
 6.9328E+00-2.4130E+01 1.9923E+02                                 14247  2  306 
 6.9766E+00 3.9757E+02 1.9731E+02                                 14247  2  307 
 7.0209E+00 5.4487E+01 1.9897E+02                                 14247  2  308 
 7.0656E+00-3.8070E+02 2.0402E+02                                 14247  2  309 
 7.1107E+00 3.7804E+02 1.9665E+02                                 14247  2  310 
 7.1563E+00 2.2026E+02 1.9425E+02                                 14247  2  311 
 7.2023E+00 1.6152E+02 1.9509E+02                                 14247  2  312 
 7.2487E+00 2.1040E+02 1.9685E+02                                 14247  2  313 
 7.2956E+00 3.0779E+02 1.9390E+02                                 14247  2  314 
 7.3429E+00 4.5872E+02 1.9301E+02                                 14247  2  315 
 7.3907E+00 6.9446E+02 1.9259E+02                                 14247  2  316 
 7.4229E+00 1.1442E+03 3.2331E+02                                 14247  2  317 
 7.4390E+00 1.0592E+03 3.2314E+02                                 14247  2  318 
 7.4552E+00 4.5012E+02 3.5288E+02                                 14247  2  319 
 7.4715E+00 9.5316E+02 3.3257E+02                                 14247  2  320 
 7.4878E+00 1.5981E+03 3.2387E+02                                 14247  2  321 
 7.5041E+00 9.0365E+02 3.4924E+02                                 14247  2  322 
 7.5205E+00 2.1178E+03 3.3253E+02                                 14247  2  323 
 7.5370E+00 2.5301E+03 3.3629E+02                                 14247  2  324 
 7.5535E+00 4.0209E+03 3.5001E+02                                 14247  2  325 
 7.5701E+00 5.9375E+03 3.4705E+02                                 14247  2  326 
 7.5867E+00 9.2297E+03 3.4831E+02                                 14247  2  327 
 7.6034E+00 1.3042E+04 3.8417E+02                                 14247  2  328 
 7.6201E+00 1.8263E+04 4.2739E+02                                 14247  2  329 
 7.6369E+00 2.1434E+04 4.8390E+02                                 14247  2  330 
 7.6538E+00 2.3207E+04 5.3702E+02                                 14247  2  331 
 7.6707E+00 2.4015E+04 5.4201E+02                                 14247  2  332 
 7.6876E+00 2.2898E+04 5.1577E+02                                 14247  2  333 
 7.7046E+00 1.7714E+04 4.4673E+02                                 14247  2  334 
 7.7217E+00 1.4044E+04 3.8769E+02                                 14247  2  335 
 7.7389E+00 1.0796E+04 3.5643E+02                                 14247  2  336 
 7.7560E+00 7.7066E+03 3.3528E+02                                 14247  2  337 
 7.7733E+00 5.0695E+03 3.4423E+02                                 14247  2  338 
 7.7906E+00 4.0549E+03 3.2529E+02                                 14247  2  339 
 7.8079E+00 2.9203E+03 3.2053E+02                                 14247  2  340 
 7.8254E+00 1.6273E+03 3.3754E+02                                 14247  2  341 
 7.8428E+00 2.0281E+03 3.1533E+02                                 14247  2  342 
 7.8604E+00 9.2324E+02 3.3010E+02                                 14247  2  343 
 7.8780E+00 8.3287E+02 3.2847E+02                                 14247  2  344 
 7.8956E+00 9.7675E+02 3.2589E+02                                 14247  2  345 
 7.9311E+00 7.8597E+02 1.8566E+02                                 14247  2  346 
 7.9848E+00 4.7112E+02 1.8502E+02                                 14247  2  347 
 8.0390E+00 2.0888E+02 1.8893E+02                                 14247  2  348 
 8.0938E+00 5.3995E+02 1.8506E+02                                 14247  2  349 
 8.1491E+00 2.8933E+02 1.8523E+02                                 14247  2  350 
 8.2051E+00 2.1426E+01 1.8970E+02                                 14247  2  351 
 8.2615E+00 1.9053E+02 1.8300E+02                                 14247  2  352 
 8.3186E+00-1.6951E+02 1.8706E+02                                 14247  2  353 
 8.3763E+00-2.4198E+02 1.8614E+02                                 14247  2  354 
 8.4345E+00-2.1338E+02 1.8621E+02                                 14247  2  355 
 8.4934E+00 7.0912E+01 1.7988E+02                                 14247  2  356 
 8.5529E+00-2.2927E+02 1.8528E+02                                 14247  2  357 
 8.6130E+00-1.8634E+02 1.8231E+02                                 14247  2  358 
 8.6738E+00-1.6428E+01 1.7836E+02                                 14247  2  359 
 8.7352E+00 3.3134E+02 1.7660E+02                                 14247  2  360 
 8.7973E+00 2.1442E+02 1.7755E+02                                 14247  2  361 
 8.8600E+00-5.2973E+01 1.8134E+02                                 14247  2  362 
 8.9234E+00-2.0376E+02 1.7952E+02                                 14247  2  363 
 8.9875E+00 2.0958E+02 1.7628E+02                                 14247  2  364 
 9.0522E+00 1.6643E+02 1.7372E+02                                 14247  2  365 
 9.1177E+00 4.4600E+00 1.7730E+02                                 14247  2  366 
 9.1839E+00-7.5802E+01 1.8109E+02                                 14247  2  367 
 9.2508E+00 1.4617E+02 1.7308E+02                                 14247  2  368 
 9.3184E+00-1.3010E+02 1.7564E+02                                 14247  2  369 
 9.3868E+00 2.5315E+02 1.6868E+02                                 14247  2  370 
 9.4560E+00-1.4630E+02 1.7216E+02                                 14247  2  371 
 9.5259E+00 1.4862E+02 1.7386E+02                                 14247  2  372 
 9.5966E+00 3.0447E+02 1.7398E+02                                 14247  2  373 
 9.6680E+00-4.5011E+02 1.7633E+02                                 14247  2  374 
 9.7403E+00-2.1842E+01 1.7026E+02                                 14247  2  375 
 9.8134E+00-1.7975E+01 1.6993E+02                                 14247  2  376 
 9.8873E+00 1.3778E+01 1.6892E+02                                 14247  2  377 
 9.9621E+00 1.7418E+02 1.6615E+02                                 14247  2  378 
 1.0038E+01 2.4171E+02 1.6715E+02                                 14247  2  379 
 1.0114E+01-2.7969E+02 1.7140E+02                                 14247  2  380 
 1.0192E+01 2.5324E+01 1.6582E+02                                 14247  2  381 
 1.0270E+01 1.5622E+01 1.6776E+02                                 14247  2  382 
 1.0349E+01-1.4362E+02 1.6729E+02                                 14247  2  383 
 1.0429E+01 3.8176E+01 1.6633E+02                                 14247  2  384 
 1.0510E+01 2.1339E+01 1.6366E+02                                 14247  2  385 
 1.0592E+01 1.1407E+02 1.6278E+02                                 14247  2  386 
 1.0675E+01-8.8346E+01 1.6244E+02                                 14247  2  387 
 1.0759E+01 5.0401E+00 1.6281E+02                                 14247  2  388 
 1.0844E+01 1.3773E+02 1.6076E+02                                 14247  2  389 
 1.0929E+01 2.3064E+02 1.5960E+02                                 14247  2  390 
 1.1016E+01-1.1922E+02 1.6682E+02                                 14247  2  391 
 1.1104E+01-9.5873E+01 1.6145E+02                                 14247  2  392 
 1.1193E+01 2.1818E+02 1.5779E+02                                 14247  2  393 
 1.1283E+01 1.5192E+02 1.6103E+02                                 14247  2  394 
 1.1375E+01 1.2652E+02 1.5777E+02                                 14247  2  395 
 1.1467E+01-2.1475E+02 1.6326E+02                                 14247  2  396 
 1.1560E+01 6.1753E+01 1.5824E+02                                 14247  2  397 
 1.1655E+01 7.5124E+01 1.5733E+02                                 14247  2  398 
 1.1751E+01-2.3636E+02 1.6101E+02                                 14247  2  399 
 1.1847E+01 2.7668E+02 1.5509E+02                                 14247  2  400 
 1.1946E+01-6.0675E+01 1.5680E+02                                 14247  2  401 
 1.2045E+01 1.2042E+02 1.5437E+02                                 14247  2  402 
 1.2146E+01-1.5930E+02 1.5760E+02                                 14247  2  403 
 1.2247E+01 3.9518E+01 1.5459E+02                                 14247  2  404 
 1.2350E+01-2.4018E+02 1.5988E+02                                 14247  2  405 
 1.2455E+01 2.4813E+02 1.5063E+02                                 14247  2  406 
 1.2561E+01 3.4176E+02 1.5136E+02                                 14247  2  407 
 1.2668E+01-1.0122E+02 1.5370E+02                                 14247  2  408 
 1.2776E+01 1.4028E+02 1.5003E+02                                 14247  2  409 
 1.2886E+01 1.6840E+01 1.5263E+02                                 14247  2  410 
 1.2998E+01-6.1826E+01 1.5258E+02                                 14247  2  411 
 1.3110E+01 1.0903E+02 1.5069E+02                                 14247  2  412 
 1.3225E+01 2.8677E+02 1.4717E+02                                 14247  2  413 
 1.3340E+01-9.6546E+01 1.4998E+02                                 14247  2  414 
 1.3458E+01-4.6145E+01 1.4904E+02                                 14247  2  415 
 1.3576E+01 1.0532E+02 1.4841E+02                                 14247  2  416 
 1.3697E+01 5.7515E+01 1.4804E+02                                 14247  2  417 
 1.3819E+01 8.5861E+01 1.4873E+02                                 14247  2  418 
 1.3942E+01-3.4143E+01 1.4868E+02                                 14247  2  419 
 1.4068E+01 3.1139E+02 1.4632E+02                                 14247  2  420 
 1.4195E+01 2.7764E+02 1.4414E+02                                 14247  2  421 
 1.4323E+01-2.1689E+02 1.4717E+02                                 14247  2  422 
 1.4454E+01 6.7601E+01 1.4412E+02                                 14247  2  423 
 1.4586E+01-9.1413E+01 1.4495E+02                                 14247  2  424 
 1.4720E+01 1.0611E+02 1.4304E+02                                 14247  2  425 
 1.4856E+01-6.7691E+00 1.4415E+02                                 14247  2  426 
 1.4994E+01-1.2743E+02 1.4428E+02                                 14247  2  427 
 1.5134E+01-2.9305E+01 1.4174E+02                                 14247  2  428 
 1.5276E+01 8.9425E+01 1.3975E+02                                 14247  2  429 
 1.5420E+01 1.8959E+02 1.3943E+02                                 14247  2  430 
 1.5565E+01 2.1709E+02 1.3922E+02                                 14247  2  431 
 1.5713E+01 1.5489E+02 1.3990E+02                                 14247  2  432 
 1.5863E+01-1.1686E+02 1.4009E+02                                 14247  2  433 
 1.6015E+01-9.8792E+01 1.4140E+02                                 14247  2  434 
 1.6170E+01 1.4624E+02 1.3752E+02                                 14247  2  435 
 1.6326E+01 1.3013E+02 1.3638E+02                                 14247  2  436 
 1.6485E+01 2.4483E+02 1.3660E+02                                 14247  2  437 
 1.6579E+01-1.4445E+02 3.3770E+02                                 14247  2  438 
 1.6606E+01 1.7701E+02 3.3780E+02                                 14247  2  439 
 1.6633E+01 8.5982E+02 3.2488E+02                                 14247  2  440 
 1.6660E+01 3.3911E+02 3.3815E+02                                 14247  2  441 
 1.6687E+01 4.9463E+02 3.3774E+02                                 14247  2  442 
 1.6714E+01 1.3251E+03 3.3156E+02                                 14247  2  443 
 1.6741E+01 1.4826E+03 3.4604E+02                                 14247  2  444 
 1.6769E+01 2.2626E+03 3.3174E+02                                 14247  2  445 
 1.6796E+01 2.1831E+03 3.3528E+02                                 14247  2  446 
 1.6824E+01 1.3952E+03 3.5048E+02                                 14247  2  447 
 1.6851E+01 1.8934E+03 3.3469E+02                                 14247  2  448 
 1.6879E+01 1.3361E+03 3.2911E+02                                 14247  2  449 
 1.6906E+01 9.2686E+02 3.2927E+02                                 14247  2  450 
 1.6934E+01 1.0992E+03 3.2055E+02                                 14247  2  451 
 1.6962E+01 4.5690E+02 3.2687E+02                                 14247  2  452 
 1.6990E+01 1.0670E+02 3.4636E+02                                 14247  2  453 
 1.7018E+01 5.7188E+02 3.2266E+02                                 14247  2  454 
 1.7046E+01 6.6481E+02 3.1739E+02                                 14247  2  455 
 1.7074E+01 1.3661E+02 3.2740E+02                                 14247  2  456 
 1.7102E+01 5.8402E+02 3.2311E+02                                 14247  2  457 
 1.7130E+01 5.7288E+02 3.2102E+02                                 14247  2  458 
 1.7159E+01 3.6969E+02 3.2243E+02                                 14247  2  459 
 1.7187E+01-6.4365E+02 3.4176E+02                                 14247  2  460 
 1.7215E+01 4.0614E+02 3.2644E+02                                 14247  2  461 
 1.7244E+01-2.5760E+02 3.4241E+02                                 14247  2  462 
 1.7272E+01 2.9075E+02 3.2727E+02                                 14247  2  463 
 1.7373E+01 2.2226E+02 1.3280E+02                                 14247  2  464 
 1.7548E+01-1.9793E+02 1.3745E+02                                 14247  2  465 
 1.7725E+01 4.4747E+00 1.3382E+02                                 14247  2  466 
 1.7904E+01 3.3951E+01 1.3273E+02                                 14247  2  467 
 1.8087E+01 8.2838E+01 1.3195E+02                                 14247  2  468 
 1.8272E+01-5.7432E+01 1.3394E+02                                 14247  2  469 
 1.8460E+01 3.9455E+01 1.3192E+02                                 14247  2  470 
 1.8652E+01 1.5687E+02 1.3055E+02                                 14247  2  471 
 1.8846E+01 8.2011E+01 1.3111E+02                                 14247  2  472 
 1.9043E+01-9.0363E+00 1.3084E+02                                 14247  2  473 
 1.9243E+01 2.1913E+02 1.2949E+02                                 14247  2  474 
 1.9447E+01 7.8602E+01 1.2987E+02                                 14247  2  475 
 1.9653E+01 1.4273E+02 1.2848E+02                                 14247  2  476 
 1.9863E+01 1.4642E+02 1.2746E+02                                 14247  2  477 
 2.0077E+01-2.4509E+02 1.3058E+02                                 14247  2  478 
 2.0293E+01 1.6082E+02 1.2793E+02                                 14247  2  479 
 2.0514E+01 2.1231E+02 1.2737E+02                                 14247  2  480 
 2.0738E+01 2.7662E+01 1.2724E+02                                 14247  2  481 
 2.0965E+01 8.5382E+01 1.2540E+02                                 14247  2  482 
 2.1197E+01-5.9210E+01 1.2716E+02                                 14247  2  483 
 2.1432E+01-6.8089E+01 1.2649E+02                                 14247  2  484 
 2.1671E+01 4.1507E+01 1.2549E+02                                 14247  2  485 
 2.1915E+01 1.1660E+01 1.2449E+02                                 14247  2  486 
 2.2162E+01 1.9153E+01 1.2391E+02                                 14247  2  487 
 2.2414E+01 2.4459E+02 1.2200E+02                                 14247  2  488 
 2.2669E+01 3.7308E+01 1.2408E+02                                 14247  2  489 
 2.2930E+01 3.8244E+02 1.2245E+02                                 14247  2  490 
 2.3195E+01 3.9339E+01 1.2162E+02                                 14247  2  491 
 2.3464E+01 1.3121E+02 1.2022E+02                                 14247  2  492 
 2.3738E+01 6.0270E+01 1.2067E+02                                 14247  2  493 
 2.4017E+01-4.5676E+01 1.2192E+02                                 14247  2  494 
 2.4301E+01 1.1075E+01 1.2000E+02                                 14247  2  495 
 2.4590E+01 6.3946E+01 1.1943E+02                                 14247  2  496 
 2.4884E+01-1.0667E+01 1.1927E+02                                 14247  2  497 
 2.5175E+01-2.3276E+02 1.3474E+02                                 14247  2  498 
 2.5361E+01 2.9616E+02 1.6593E+02                                 14247  2  499 
 2.5514E+01 5.7724E+01 1.6714E+02                                 14247  2  500 
 2.5669E+01-4.3214E+01 1.6998E+02                                 14247  2  501 
 2.5825E+01-2.7786E+02 1.6955E+02                                 14247  2  502 
 2.5983E+01 1.0233E+02 1.6515E+02                                 14247  2  503 
 2.6142E+01 4.0106E+02 1.6337E+02                                 14247  2  504 
 2.6302E+01 1.3825E+02 1.6557E+02                                 14247  2  505 
 2.6464E+01 6.5694E+00 1.6439E+02                                 14247  2  506 
 2.6628E+01 1.7900E+02 1.6364E+02                                 14247  2  507 
 2.6793E+01 1.7552E+01 1.6504E+02                                 14247  2  508 
 2.6959E+01 1.2195E+02 1.6698E+02                                 14247  2  509 
 2.7127E+01-3.9804E+01 1.6449E+02                                 14247  2  510 
 2.7297E+01-3.6151E+02 1.6981E+02                                 14247  2  511 
 2.7468E+01-1.5928E+02 1.6669E+02                                 14247  2  512 
 2.7641E+01 3.2284E+02 1.6095E+02                                 14247  2  513 
 2.7816E+01 2.0189E+02 1.6202E+02                                 14247  2  514 
 2.7992E+01 1.7714E+02 1.6127E+02                                 14247  2  515 
 2.8170E+01-6.8992E+00 1.6245E+02                                 14247  2  516 
 2.8350E+01-1.5107E+02 1.6663E+02                                 14247  2  517 
 2.8531E+01 1.3494E+02 1.6041E+02                                 14247  2  518 
 2.8714E+01-9.8617E+01 1.6335E+02                                 14247  2  519 
 2.8899E+01-7.6392E+01 1.6333E+02                                 14247  2  520 
 2.9086E+01-2.0986E+02 1.6223E+02                                 14247  2  521 
 2.9274E+01-1.1244E+02 1.6359E+02                                 14247  2  522 
 2.9464E+01-3.6528E+02 1.6578E+02                                 14247  2  523 
 2.9656E+01 7.3826E+00 1.6090E+02                                 14247  2  524 
 2.9850E+01 1.5453E+02 1.5797E+02                                 14247  2  525 
 3.0046E+01-3.5667E+01 1.5946E+02                                 14247  2  526 
 3.0244E+01-5.5232E+01 1.5910E+02                                 14247  2  527 
 3.0444E+01-7.7884E+01 1.5988E+02                                 14247  2  528 
 3.0646E+01 2.4959E+02 1.5632E+02                                 14247  2  529 
 3.0850E+01-2.5999E+02 1.6295E+02                                 14247  2  530 
 3.1056E+01 1.1124E+01 1.5813E+02                                 14247  2  531 
 3.1264E+01-7.7557E+01 1.5921E+02                                 14247  2  532 
 3.1474E+01 1.2533E+02 1.5592E+02                                 14247  2  533 
 3.1686E+01-1.0896E+02 1.5785E+02                                 14247  2  534 
 3.1900E+01-2.0612E+02 1.5911E+02                                 14247  2  535 
 3.2117E+01 1.2650E+02 1.5458E+02                                 14247  2  536 
 3.2335E+01 1.0242E+02 1.5658E+02                                 14247  2  537 
 3.2556E+01-4.5018E+00 1.5706E+02                                 14247  2  538 
 3.2779E+01 8.9514E+01 1.5488E+02                                 14247  2  539 
 3.3005E+01-8.1573E+01 1.5746E+02                                 14247  2  540 
 3.3233E+01 3.2279E+00 1.5556E+02                                 14247  2  541 
 3.3463E+01-1.7082E+02 1.5438E+02                                 14247  2  542 
 3.3696E+01 4.9743E+01 1.5440E+02                                 14247  2  543 
 3.3931E+01 2.1876E+02 1.5226E+02                                 14247  2  544 
 3.4168E+01 6.9348E+01 1.5232E+02                                 14247  2  545 
 3.4308E+01 5.4168E+02 3.5944E+02                                 14247  2  546 
 3.4348E+01 2.9384E+02 3.6506E+02                                 14247  2  547 
 3.4388E+01-1.7728E+02 3.7249E+02                                 14247  2  548 
 3.4428E+01 5.5006E+02 3.6131E+02                                 14247  2  549 
 3.4469E+01 4.3125E+01 3.7220E+02                                 14247  2  550 
 3.4509E+01-3.7557E+01 3.7069E+02                                 14247  2  551 
 3.4549E+01-3.0430E+01 3.7131E+02                                 14247  2  552 
 3.4590E+01-2.6516E+01 3.7261E+02                                 14247  2  553 
 3.4630E+01 2.2370E+02 3.6780E+02                                 14247  2  554 
 3.4671E+01 3.9165E+02 3.6177E+02                                 14247  2  555 
 3.4712E+01 7.7911E+02 3.5302E+02                                 14247  2  556 
 3.4753E+01 8.5624E+02 3.6139E+02                                 14247  2  557 
 3.4793E+01 1.0515E+03 3.5444E+02                                 14247  2  558 
 3.4834E+01 3.1674E+02 3.8332E+02                                 14247  2  559 
 3.4875E+01 1.8030E+02 3.8229E+02                                 14247  2  560 
 3.4916E+01 1.3437E+03 3.7132E+02                                 14247  2  561 
 3.4958E+01 1.1468E+03 3.7769E+02                                 14247  2  562 
 3.4999E+01 1.0344E+03 3.8349E+02                                 14247  2  563 
 3.5040E+01 7.9263E+02 3.8561E+02                                 14247  2  564 
 3.5081E+01 1.5166E+03 3.6850E+02                                 14247  2  565 
 3.5123E+01 4.9546E+02 3.7979E+02                                 14247  2  566 
 3.5164E+01 6.2976E+02 3.6640E+02                                 14247  2  567 
 3.5206E+01 6.0594E+02 3.6162E+02                                 14247  2  568 
 3.5248E+01 6.8454E+01 3.7328E+02                                 14247  2  569 
 3.5289E+01-1.2852E+02 3.7411E+02                                 14247  2  570 
 3.5331E+01-4.2698E+02 3.7724E+02                                 14247  2  571 
 3.5373E+01 7.6317E+02 3.4964E+02                                 14247  2  572 
 3.5415E+01 4.3599E+02 3.6454E+02                                 14247  2  573 
 3.5457E+01 1.9388E+02 3.6625E+02                                 14247  2  574 
 3.5499E+01 2.9396E+01 3.6952E+02                                 14247  2  575 
 3.5541E+01 5.2587E+02 3.6000E+02                                 14247  2  576 
 3.5584E+01-8.8967E+01 3.7109E+02                                 14247  2  577 
 3.5626E+01 2.6489E+02 3.6597E+02                                 14247  2  578 
 3.5668E+01 5.4411E+02 3.5860E+02                                 14247  2  579 
 3.5817E+01 1.3820E+02 1.5094E+02                                 14247  2  580 
 3.6075E+01-2.0612E+02 1.5259E+02                                 14247  2  581 
 3.6336E+01 2.5056E+02 1.4883E+02                                 14247  2  582 
 3.6599E+01 6.1728E+01 1.5379E+02                                 14247  2  583 
 3.6865E+01 1.4883E+02 1.4942E+02                                 14247  2  584 
 3.7134E+01-2.8546E+01 1.4982E+02                                 14247  2  585 
 3.7406E+01 5.7868E+01 1.4881E+02                                 14247  2  586 
 3.7555E+01-4.9969E+02 5.1492E+02                                 14247  2  587 
 3.7577E+01-9.5046E+02 5.3769E+02                                 14247  2  588 
 3.7600E+01 3.8056E+02 5.0566E+02                                 14247  2  589 
 3.7623E+01 7.3171E+02 4.8979E+02                                 14247  2  590 
 3.7646E+01 2.4272E+02 4.9885E+02                                 14247  2  591 
 3.7669E+01 2.4067E+01 5.0046E+02                                 14247  2  592 
 3.7692E+01 6.8717E+02 4.8575E+02                                 14247  2  593 
 3.7716E+01-4.2595E+02 5.2473E+02                                 14247  2  594 
 3.7739E+01-7.0257E+02 5.3168E+02                                 14247  2  595 
 3.7762E+01-1.0570E+02 5.1702E+02                                 14247  2  596 
 3.7785E+01-3.1881E+02 5.1302E+02                                 14247  2  597 
 3.7808E+01-5.5305E+02 5.3861E+02                                 14247  2  598 
 3.7831E+01-1.4131E+03 5.5059E+02                                 14247  2  599 
 3.7854E+01-2.1355E+02 5.1211E+02                                 14247  2  600 
 3.7878E+01 2.8344E+01 5.0703E+02                                 14247  2  601 
 3.7901E+01 3.1827E+02 4.9905E+02                                 14247  2  602 
 3.7924E+01 1.0277E+03 4.7809E+02                                 14247  2  603 
 3.7947E+01-5.1877E+02 5.1845E+02                                 14247  2  604 
 3.7971E+01 1.9834E+02 4.9153E+02                                 14247  2  605 
 3.7994E+01 5.9987E+02 4.9149E+02                                 14247  2  606 
 3.8017E+01 1.4178E+02 5.1183E+02                                 14247  2  607 
 3.8041E+01 2.9340E+02 4.9690E+02                                 14247  2  608 
 3.8064E+01 8.0978E+02 4.8414E+02                                 14247  2  609 
 3.8087E+01 5.9439E+02 4.8948E+02                                 14247  2  610 
 3.8111E+01 6.9177E+02 4.9072E+02                                 14247  2  611 
 3.8134E+01 1.0822E+03 4.8104E+02                                 14247  2  612 
 3.8158E+01 1.0415E+01 5.1616E+02                                 14247  2  613 
 3.8181E+01 6.2919E+02 4.9774E+02                                 14247  2  614 
 3.8205E+01-4.9841E+00 5.1380E+02                                 14247  2  615 
 3.8228E+01 1.6838E+02 5.1538E+02                                 14247  2  616 
 3.8252E+01 6.3947E+02 5.0094E+02                                 14247  2  617 
 3.8276E+01 7.0635E+02 5.0112E+02                                 14247  2  618 
 3.8299E+01 1.2477E+03 4.8821E+02                                 14247  2  619 
 3.8323E+01 1.2425E+03 4.8528E+02                                 14247  2  620 
 3.8346E+01 1.7035E+03 4.7356E+02                                 14247  2  621 
 3.8370E+01 3.2616E+02 5.1697E+02                                 14247  2  622 
 3.8394E+01 8.9885E+02 5.0706E+02                                 14247  2  623 
 3.8417E+01-3.2289E+01 5.2085E+02                                 14247  2  624 
 3.8441E+01-1.7288E+02 5.2172E+02                                 14247  2  625 
 3.8465E+01-4.1246E+02 5.2733E+02                                 14247  2  626 
 3.8489E+01 1.4890E+01 5.0817E+02                                 14247  2  627 
 3.8513E+01-3.3438E+02 5.2256E+02                                 14247  2  628 
 3.8536E+01 9.1679E+02 4.8064E+02                                 14247  2  629 
 3.8560E+01-1.3223E+03 5.4943E+02                                 14247  2  630 
 3.8584E+01-8.6487E+02 5.3270E+02                                 14247  2  631 
 3.8608E+01-1.0768E+03 5.3885E+02                                 14247  2  632 
 3.8632E+01-3.1900E+02 5.1542E+02                                 14247  2  633 
 3.8788E+01-1.1587E+02 1.4936E+02                                 14247  2  634 
 3.9078E+01-7.4532E+01 1.4715E+02                                 14247  2  635 
 3.9372E+01 3.2321E+02 1.4592E+02                                 14247  2  636 
 3.9669E+01-1.7453E+02 1.4891E+02                                 14247  2  637 
 3.9969E+01-6.7773E+01 1.4826E+02                                 14247  2  638 
 4.0273E+01-3.1139E+01 1.4598E+02                                 14247  2  639 
 4.0581E+01-4.9217E+01 1.4741E+02                                 14247  2  640 
 4.0891E+01 5.1696E+01 1.4475E+02                                 14247  2  641 
 4.1206E+01-1.2814E+01 1.4430E+02                                 14247  2  642 
 4.1524E+01 3.1713E+02 1.4290E+02                                 14247  2  643 
 4.1846E+01 3.4315E+02 1.4268E+02                                 14247  2  644 
 4.2171E+01 3.9356E+02 1.4202E+02                                 14247  2  645 
 4.2500E+01 1.6977E+02 1.4388E+02                                 14247  2  646 
 4.2834E+01 1.2140E+02 1.4302E+02                                 14247  2  647 
 4.3171E+01 1.4357E+02 1.4248E+02                                 14247  2  648 
 4.3512E+01-5.6836E+01 1.4303E+02                                 14247  2  649 
 4.3857E+01-3.7253E+02 1.4537E+02                                 14247  2  650 
 4.4206E+01-1.6286E+02 1.4371E+02                                 14247  2  651 
 4.4560E+01 1.2072E+01 1.4142E+02                                 14247  2  652 
 4.4887E+01-5.1271E+01 1.7813E+02                                 14247  2  653 
 4.5083E+01-5.9038E+01 2.0365E+02                                 14247  2  654 
 4.5264E+01 7.0567E+01 2.0125E+02                                 14247  2  655 
 4.5447E+01-2.0548E+02 2.0495E+02                                 14247  2  656 
 4.5631E+01-1.5213E+02 2.0304E+02                                 14247  2  657 
 4.5815E+01-1.0194E+02 2.0243E+02                                 14247  2  658 
 4.6001E+01 2.0921E+02 1.9558E+02                                 14247  2  659 
 4.6188E+01-1.6995E+02 2.0337E+02                                 14247  2  660 
 4.6377E+01-1.4663E+02 2.0083E+02                                 14247  2  661 
 4.6566E+01-5.5197E+01 2.0599E+02                                 14247  2  662 
 4.6757E+01-2.5529E+01 2.0240E+02                                 14247  2  663 
 4.6948E+01-1.7862E+02 2.0188E+02                                 14247  2  664 
 4.7141E+01 7.5049E+00 1.9729E+02                                 14247  2  665 
 4.7335E+01-3.2360E+02 2.0258E+02                                 14247  2  666 
 4.7531E+01 2.7893E+02 1.9536E+02                                 14247  2  667 
 4.7727E+01-2.7857E+02 2.0175E+02                                 14247  2  668 
 4.7925E+01 2.6049E+02 1.9636E+02                                 14247  2  669 
 4.8124E+01 4.2510E+02 1.9314E+02                                 14247  2  670 
 4.8324E+01 1.6948E+02 1.9765E+02                                 14247  2  671 
 4.8525E+01-4.5232E+02 2.0288E+02                                 14247  2  672 
 4.8728E+01 2.0235E+02 1.9461E+02                                 14247  2  673 
 4.8932E+01-3.0089E+02 2.0845E+02                                 14247  2  674 
 4.9137E+01 2.8512E+02 1.9214E+02                                 14247  2  675 
 4.9344E+01-2.6793E+02 2.0204E+02                                 14247  2  676 
 4.9552E+01-3.9982E+01 1.9726E+02                                 14247  2  677 
 4.9761E+01 4.0609E+02 1.9120E+02                                 14247  2  678 
 4.9971E+01-3.6959E+02 2.0327E+02                                 14247  2  679 
 5.0183E+01 2.2372E+01 1.9612E+02                                 14247  2  680 
 5.0396E+01-1.5475E+02 1.9713E+02                                 14247  2  681 
 5.0611E+01 3.3638E+02 1.9278E+02                                 14247  2  682 
 5.0827E+01-3.2877E+02 2.0276E+02                                 14247  2  683 
 5.1044E+01 1.0951E+02 1.9707E+02                                 14247  2  684 
 5.1263E+01-7.6269E+01 1.9785E+02                                 14247  2  685 
 5.1483E+01-3.1695E+01 1.9366E+02                                 14247  2  686 
 5.1704E+01 2.9470E+02 1.8999E+02                                 14247  2  687 
 5.1927E+01 5.5598E+01 1.9271E+02                                 14247  2  688 
 5.2152E+01 9.0765E+01 1.9849E+02                                 14247  2  689 
 5.2377E+01-3.1809E+02 1.9800E+02                                 14247  2  690 
 5.2605E+01-2.1537E+02 1.9573E+02                                 14247  2  691 
 5.2834E+01 3.8811E+02 1.9169E+02                                 14247  2  692 
 5.3064E+01-2.4031E+02 2.0310E+02                                 14247  2  693 
 5.3296E+01-1.4775E+02 1.9543E+02                                 14247  2  694 
 5.3529E+01 1.6875E+02 1.9461E+02                                 14247  2  695 
 5.3764E+01 1.3513E+00 1.9557E+02                                 14247  2  696 
 5.4000E+01-2.1503E+02 1.9828E+02                                 14247  2  697 
 5.4238E+01-1.1066E+02 1.9756E+02                                 14247  2  698 
 5.4478E+01-4.3256E+01 1.9175E+02                                 14247  2  699 
 5.4719E+01 2.6401E+02 1.8719E+02                                 14247  2  700 
 5.4962E+01 2.9463E+02 1.9252E+02                                 14247  2  701 
 5.5206E+01 3.4252E+01 1.8953E+02                                 14247  2  702 
 5.5452E+01 1.9547E+02 1.9120E+02                                 14247  2  703 
 5.5700E+01-1.5815E+02 1.9234E+02                                 14247  2  704 
 5.5949E+01-2.5530E+01 1.9199E+02                                 14247  2  705 
 5.6200E+01 7.7563E+01 1.9000E+02                                 14247  2  706 
 5.6453E+01 6.5148E+01 1.8976E+02                                 14247  2  707 
 5.6707E+01-1.5763E+02 1.9356E+02                                 14247  2  708 
 5.6963E+01-5.2197E+01 1.9003E+02                                 14247  2  709 
 5.7221E+01 3.1338E+02 1.8445E+02                                 14247  2  710 
 5.7481E+01 4.8450E+01 1.9188E+02                                 14247  2  711 
 5.7742E+01 3.5207E+01 1.8815E+02                                 14247  2  712 
 5.8005E+01-5.7590E+01 1.9473E+02                                 14247  2  713 
 5.8270E+01-8.6253E+01 1.8954E+02                                 14247  2  714 
 5.8537E+01 3.7778E+02 1.8328E+02                                 14247  2  715 
 5.8806E+01 7.0143E+01 1.8905E+02                                 14247  2  716 
 5.9076E+01-5.0044E+01 1.9100E+02                                 14247  2  717 
 5.9349E+01 8.0529E+01 1.8717E+02                                 14247  2  718 
 5.9623E+01 1.3456E+02 1.8631E+02                                 14247  2  719 
 5.9899E+01 7.0645E+01 1.8462E+02                                 14247  2  720 
 6.0177E+01 1.8154E+02 1.8658E+02                                 14247  2  721 
 6.0457E+01-1.2440E+02 1.9180E+02                                 14247  2  722 
 6.0739E+01 2.9666E+01 1.8695E+02                                 14247  2  723 
 6.1023E+01 3.4115E+02 1.8652E+02                                 14247  2  724 
 6.1309E+01-2.3954E+02 1.8782E+02                                 14247  2  725 
 6.1597E+01 2.1198E+02 1.8518E+02                                 14247  2  726 
 6.1887E+01 3.0396E+02 1.8266E+02                                 14247  2  727 
 6.2179E+01 3.4118E+01 1.8509E+02                                 14247  2  728 
 6.2473E+01 3.5459E+01 1.8777E+02                                 14247  2  729 
 6.2769E+01-1.0136E+02 1.8566E+02                                 14247  2  730 
 6.3068E+01-9.1104E+01 1.8787E+02                                 14247  2  731 
 6.3230E+01 1.0673E+02 6.2365E+02                                 14247  2  732 
 6.3255E+01-2.3556E+02 6.3768E+02                                 14247  2  733 
 6.3280E+01-2.8037E+02 6.3534E+02                                 14247  2  734 
 6.3305E+01-6.0343E+02 6.5762E+02                                 14247  2  735 
 6.3330E+01-9.9000E+02 6.7702E+02                                 14247  2  736 
 6.3356E+01-2.4316E+01 6.2120E+02                                 14247  2  737 
 6.3381E+01-1.0159E+03 6.5648E+02                                 14247  2  738 
 6.3406E+01 7.9636E+02 6.0221E+02                                 14247  2  739 
 6.3431E+01-5.6540E+02 6.5774E+02                                 14247  2  740 
 6.3456E+01 6.8563E+02 6.1331E+02                                 14247  2  741 
 6.3481E+01 1.5356E+03 5.8013E+02                                 14247  2  742 
 6.3507E+01 4.9112E+02 6.0884E+02                                 14247  2  743 
 6.3532E+01-1.6786E+02 6.4699E+02                                 14247  2  744 
 6.3557E+01 2.4963E+02 6.2203E+02                                 14247  2  745 
 6.3582E+01 1.0580E+03 5.9755E+02                                 14247  2  746 
 6.3608E+01 7.9645E+02 6.0038E+02                                 14247  2  747 
 6.3633E+01-2.6882E+02 6.3985E+02                                 14247  2  748 
 6.3658E+01-6.2911E+02 6.5273E+02                                 14247  2  749 
 6.3683E+01-6.6814E+02 6.4098E+02                                 14247  2  750 
 6.3709E+01 6.8930E+02 6.0564E+02                                 14247  2  751 
 6.3734E+01 1.2867E+03 5.8945E+02                                 14247  2  752 
 6.3759E+01-3.8280E+02 6.3508E+02                                 14247  2  753 
 6.3785E+01-7.6548E+02 6.5236E+02                                 14247  2  754 
 6.3810E+01-3.0215E+02 6.4661E+02                                 14247  2  755 
 6.3836E+01 6.6539E+01 6.3639E+02                                 14247  2  756 
 6.3861E+01 5.1186E+01 6.2351E+02                                 14247  2  757 
 6.3886E+01-6.5884E+02 6.5997E+02                                 14247  2  758 
 6.3912E+01 2.1020E+01 6.2975E+02                                 14247  2  759 
 6.3937E+01 2.7921E+02 6.1606E+02                                 14247  2  760 
 6.3963E+01-1.3661E+03 6.7338E+02                                 14247  2  761 
 6.3988E+01 1.3922E+02 6.2797E+02                                 14247  2  762 
 6.4014E+01 4.3074E+02 6.1255E+02                                 14247  2  763 
 6.4039E+01-1.0314E+03 6.6394E+02                                 14247  2  764 
 6.4065E+01 2.8100E+02 6.2840E+02                                 14247  2  765 
 6.4090E+01-4.3574E+02 6.5092E+02                                 14247  2  766 
 6.4116E+01-2.1461E+02 6.4457E+02                                 14247  2  767 
 6.4142E+01-5.0739E+02 6.5072E+02                                 14247  2  768 
 6.4167E+01-1.0120E+03 6.8243E+02                                 14247  2  769 
 6.4193E+01-5.2389E+02 6.5305E+02                                 14247  2  770 
 6.4218E+01 1.2883E+02 6.2584E+02                                 14247  2  771 
 6.4244E+01-3.9698E+02 6.3505E+02                                 14247  2  772 
 6.4270E+01 2.3496E+02 6.2407E+02                                 14247  2  773 
 6.4295E+01 1.6813E+03 5.8229E+02                                 14247  2  774 
 6.4321E+01 7.5095E+02 6.0397E+02                                 14247  2  775 
 6.4347E+01 1.6044E+03 5.7712E+02                                 14247  2  776 
 6.4372E+01-1.5615E+03 7.0704E+02                                 14247  2  777 
 6.4398E+01-4.0553E+02 6.3948E+02                                 14247  2  778 
 6.4424E+01-5.3403E+02 6.4596E+02                                 14247  2  779 
 6.4450E+01 5.1339E+02 6.2081E+02                                 14247  2  780 
 6.4476E+01-4.7248E+02 6.4155E+02                                 14247  2  781 
 6.4501E+01 3.8349E+02 6.2246E+02                                 14247  2  782 
 6.4527E+01-1.6383E+02 6.3795E+02                                 14247  2  783 
 6.4553E+01-4.5935E+02 6.5325E+02                                 14247  2  784 
 6.4579E+01-7.8517E+02 6.6976E+02                                 14247  2  785 
 6.4605E+01-1.0165E+03 6.6400E+02                                 14247  2  786 
 6.4631E+01-4.5925E+02 6.5326E+02                                 14247  2  787 
 6.4656E+01 6.0872E+02 6.0354E+02                                 14247  2  788 
 6.4682E+01-7.6128E+01 6.1906E+02                                 14247  2  789 
 6.4708E+01-9.3171E+02 6.6424E+02                                 14247  2  790 
 6.4812E+01-1.1675E+02 2.4097E+02                                 14247  2  791 
 6.4994E+01 6.4917E+00 2.3738E+02                                 14247  2  792 
 6.5178E+01-2.8256E+02 2.4885E+02                                 14247  2  793 
 6.5361E+01 2.2573E+01 2.4267E+02                                 14247  2  794 
 6.5546E+01 2.9441E+02 2.3995E+02                                 14247  2  795 
 6.5731E+01 3.0257E+02 2.3770E+02                                 14247  2  796 
 6.5918E+01 1.2444E+02 2.3911E+02                                 14247  2  797 
 6.6105E+01-4.5742E+01 2.4367E+02                                 14247  2  798 
 6.6293E+01 3.4944E+02 2.3460E+02                                 14247  2  799 
 6.6400E+01 1.1647E+02 6.3015E+02                                 14247  2  800 
 6.6427E+01-1.3691E+02 6.3155E+02                                 14247  2  801 
 6.6454E+01 2.4813E+01 6.5482E+02                                 14247  2  802 
 6.6481E+01-9.7779E+01 6.5206E+02                                 14247  2  803 
 6.6508E+01 1.4169E+02 6.4808E+02                                 14247  2  804 
 6.6535E+01-2.7836E+02 6.4916E+02                                 14247  2  805 
 6.6562E+01-3.8853E+02 6.4650E+02                                 14247  2  806 
 6.6589E+01 4.2653E+02 6.2270E+02                                 14247  2  807 
 6.6616E+01 1.2739E+03 6.0574E+02                                 14247  2  808 
 6.6643E+01 1.5738E+03 5.9756E+02                                 14247  2  809 
 6.6671E+01 2.2546E+03 5.7147E+02                                 14247  2  810 
 6.6698E+01 6.7687E+02 6.3406E+02                                 14247  2  811 
 6.6725E+01 1.8794E+03 5.8641E+02                                 14247  2  812 
 6.6752E+01 2.8925E+02 6.2856E+02                                 14247  2  813 
 6.6779E+01 5.9896E+02 6.1716E+02                                 14247  2  814 
 6.6806E+01 7.5060E+02 6.0786E+02                                 14247  2  815 
 6.6834E+01 8.3910E+02 5.9341E+02                                 14247  2  816 
 6.6861E+01-1.6490E+02 6.3587E+02                                 14247  2  817 
 6.6888E+01 5.6407E+02 5.9980E+02                                 14247  2  818 
 6.6915E+01-7.2376E+02 6.4559E+02                                 14247  2  819 
 6.6943E+01 9.8024E+02 5.8518E+02                                 14247  2  820 
 6.6970E+01-1.1076E+03 6.7165E+02                                 14247  2  821 
 6.6997E+01-5.3839E+02 6.4152E+02                                 14247  2  822 
 6.7024E+01 1.3890E+03 5.7814E+02                                 14247  2  823 
 6.7052E+01-1.4542E+03 6.9269E+02                                 14247  2  824 
 6.7079E+01-3.1315E+02 6.3990E+02                                 14247  2  825 
 6.7107E+01-3.8977E+02 6.3523E+02                                 14247  2  826 
 6.7134E+01 3.3473E+02 6.1241E+02                                 14247  2  827 
 6.7161E+01 7.3660E+02 6.0405E+02                                 14247  2  828 
 6.7189E+01-7.0816E+02 6.3881E+02                                 14247  2  829 
 6.7216E+01-1.0665E+02 6.2742E+02                                 14247  2  830 
 6.7244E+01 1.2906E+02 6.1577E+02                                 14247  2  831 
 6.7271E+01-2.8060E+02 6.2905E+02                                 14247  2  832 
 6.7299E+01-5.6749E+02 6.2825E+02                                 14247  2  833 
 6.7326E+01-3.0572E+02 6.3994E+02                                 14247  2  834 
 6.7354E+01-8.1291E+02 6.5244E+02                                 14247  2  835 
 6.7533E+01 5.0308E+01 1.8319E+02                                 14247  2  836 
 6.7866E+01-3.9172E+02 1.8773E+02                                 14247  2  837 
 6.8201E+01 1.3309E+02 1.8307E+02                                 14247  2  838 
 6.8539E+01-1.1499E+00 1.8327E+02                                 14247  2  839 
 6.8880E+01 2.5873E+02 1.7850E+02                                 14247  2  840 
 6.9223E+01 3.2745E+02 1.7715E+02                                 14247  2  841 
 6.9568E+01-3.5002E+02 1.8941E+02                                 14247  2  842 
 6.9917E+01-1.3307E+02 1.8433E+02                                 14247  2  843 
 7.0267E+01 1.0184E+02 1.8163E+02                                 14247  2  844 
 7.0621E+01 8.1073E+01 1.7949E+02                                 14247  2  845 
 7.0977E+01 1.7973E+02 1.7939E+02                                 14247  2  846 
 7.1336E+01 1.3632E+02 1.7913E+02                                 14247  2  847 
 7.1697E+01 2.6743E+02 1.7755E+02                                 14247  2  848 
 7.2061E+01 2.9019E+02 1.7800E+02                                 14247  2  849 
 7.2428E+01 1.4792E+02 1.7854E+02                                 14247  2  850 
 7.2798E+01 1.6645E+02 1.8105E+02                                 14247  2  851 
 7.3171E+01-3.4069E+02 1.8300E+02                                 14247  2  852 
 7.3547E+01 2.2055E+02 1.7664E+02                                 14247  2  853 
 7.3925E+01 2.0246E+01 1.8009E+02                                 14247  2  854 
 7.4307E+01-6.5918E+01 1.8217E+02                                 14247  2  855 
 7.4691E+01-5.1159E+01 1.8373E+02                                 14247  2  856 
 7.5078E+01-2.2831E+02 1.8248E+02                                 14247  2  857 
 7.5469E+01 1.6620E+02 1.7668E+02                                 14247  2  858 
 7.5862E+01 6.6022E+01 1.7728E+02                                 14247  2  859 
 7.6259E+01 6.6914E+00 1.8091E+02                                 14247  2  860 
 7.6658E+01 8.3077E+00 1.7763E+02                                 14247  2  861 
 7.7061E+01 1.8214E+02 1.7740E+02                                 14247  2  862 
 7.7467E+01 2.3079E+02 1.7536E+02                                 14247  2  863 
 7.7876E+01 1.0487E+02 1.7718E+02                                 14247  2  864 
 7.8289E+01 3.1169E+02 1.7307E+02                                 14247  2  865 
 7.8704E+01 6.5881E+01 1.7676E+02                                 14247  2  866 
 7.9123E+01-5.2294E+01 1.7834E+02                                 14247  2  867 
 7.9546E+01-7.7273E+01 1.7783E+02                                 14247  2  868 
 7.9972E+01-2.2403E+02 1.8079E+02                                 14247  2  869 
 8.0401E+01 1.8783E+02 1.7629E+02                                 14247  2  870 
 8.0833E+01 7.4655E+01 1.7869E+02                                 14247  2  871 
 8.1270E+01 1.4322E+02 1.7611E+02                                 14247  2  872 
 8.1709E+01-1.2275E+02 1.7934E+02                                 14247  2  873 
 8.2153E+01 1.3917E+02 1.7509E+02                                 14247  2  874 
 8.2600E+01-1.2894E+02 1.8028E+02                                 14247  2  875 
 8.3050E+01 1.7223E+02 1.7586E+02                                 14247  2  876 
 8.3504E+01-5.5943E+01 1.7727E+02                                 14247  2  877 
 8.3962E+01 2.5852E+02 1.7434E+02                                 14247  2  878 
 8.4424E+01-7.7438E+01 1.7570E+02                                 14247  2  879 
 8.4695E+01 5.0093E+01 4.2586E+02                                 14247  2  880 
 8.4773E+01 6.9371E+02 4.1167E+02                                 14247  2  881 
 8.4851E+01-5.2786E+00 4.5414E+02                                 14247  2  882 
 8.4929E+01 2.8318E+02 4.2543E+02                                 14247  2  883 
 8.5007E+01 5.9219E+02 4.1714E+02                                 14247  2  884 
 8.5085E+01 1.7449E+02 4.3600E+02                                 14247  2  885 
 8.5163E+01 5.1799E+02 4.2649E+02                                 14247  2  886 
 8.5241E+01 2.9670E+02 4.2529E+02                                 14247  2  887 
 8.5320E+01-5.6271E+01 4.3301E+02                                 14247  2  888 
 8.5398E+01 5.9415E+02 4.1366E+02                                 14247  2  889 
 8.5477E+01 4.6218E+02 4.2793E+02                                 14247  2  890 
 8.5556E+01 2.4893E+02 4.2219E+02                                 14247  2  891 
 8.5635E+01 5.1098E+02 4.3674E+02                                 14247  2  892 
 8.5714E+01 7.1950E+02 4.2735E+02                                 14247  2  893 
 8.5793E+01 1.4181E+03 4.1323E+02                                 14247  2  894 
 8.5872E+01 4.4684E+02 4.8362E+02                                 14247  2  895 
 8.5951E+01 1.7727E+03 4.2821E+02                                 14247  2  896 
 8.6031E+01 2.1018E+03 4.2324E+02                                 14247  2  897 
 8.6110E+01 2.5072E+03 4.4258E+02                                 14247  2  898 
 8.6190E+01 2.8250E+03 4.0568E+02                                 14247  2  899 
 8.6270E+01 8.8773E+02 4.3494E+02                                 14247  2  900 
 8.6350E+01 1.4612E+03 4.2075E+02                                 14247  2  901 
 8.6430E+01 7.2407E+02 4.3466E+02                                 14247  2  902 
 8.6510E+01 6.6349E+02 4.1997E+02                                 14247  2  903 
 8.6590E+01-7.7557E+02 4.5020E+02                                 14247  2  904 
 8.6670E+01-2.0645E+02 4.3069E+02                                 14247  2  905 
 8.6751E+01-5.9060E+02 4.4253E+02                                 14247  2  906 
 8.6831E+01 3.2267E+02 4.1781E+02                                 14247  2  907 
 8.6912E+01-3.0910E+00 4.2908E+02                                 14247  2  908 
 8.6993E+01-2.0530E+02 4.2878E+02                                 14247  2  909 
 8.7277E+01-2.5450E+02 1.8184E+02                                 14247  2  910 
 8.7766E+01-7.0907E+01 1.7799E+02                                 14247  2  911 
 8.8260E+01 4.2201E+01 1.7743E+02                                 14247  2  912 
 8.8757E+01-3.9980E+02 1.8011E+02                                 14247  2  913 
 8.9259E+01 1.2916E+02 1.7529E+02                                 14247  2  914 
 8.9765E+01-2.7542E+02 1.8019E+02                                 14247  2  915 
 9.0276E+01 1.2105E+02 1.7559E+02                                 14247  2  916 
 9.0791E+01 4.6237E+02 1.7308E+02                                 14247  2  917 
 9.1310E+01 6.3092E+00 1.7504E+02                                 14247  2  918 
 9.1834E+01 1.5594E+02 1.7524E+02                                 14247  2  919 
 9.2362E+01 2.1918E+02 1.7471E+02                                 14247  2  920 
 9.2895E+01-2.1981E+02 1.8042E+02                                 14247  2  921 
 9.3433E+01 3.5150E+02 1.7275E+02                                 14247  2  922 
 9.3975E+01 9.2126E+01 1.7858E+02                                 14247  2  923 
 9.4522E+01 1.6065E+02 1.7843E+02                                 14247  2  924 
 9.5074E+01-6.5600E+01 1.8005E+02                                 14247  2  925 
 9.5630E+01 1.8521E+02 1.7525E+02                                 14247  2  926 
 9.6192E+01 5.1234E+02 1.7932E+02                                 14247  2  927 
 9.6758E+01 3.1759E+02 1.7602E+02                                 14247  2  928 
 9.7330E+01-1.4500E+01 1.7960E+02                                 14247  2  929 
 9.7906E+01 1.3957E+02 1.7721E+02                                 14247  2  930 
 9.8488E+01 7.1280E+01 1.8082E+02                                 14247  2  931 
 9.9075E+01-1.0204E+02 1.8198E+02                                 14247  2  932 
 9.9667E+01 1.7024E+02 1.7905E+02                                 14247  2  933 
 1.0026E+02-3.0978E+02 1.8393E+02                                 14247  2  934 
 1.0087E+02-1.1446E+02 1.8339E+02                                 14247  2  935 
 1.0148E+02-1.3421E+02 1.8423E+02                                 14247  2  936 
 1.0209E+02-5.2459E+01 1.8401E+02                                 14247  2  937 
 1.0271E+02-2.7235E+02 1.9023E+02                                 14247  2  938 
 1.0333E+02 3.8385E+02 1.8276E+02                                 14247  2  939 
 1.0396E+02 1.0654E+02 1.8530E+02                                 14247  2  940 
 1.0460E+02 4.1950E+02 1.8272E+02                                 14247  2  941 
 1.0524E+02 4.2561E+02 1.8443E+02                                 14247  2  942 
 1.0589E+02 3.0164E+01 1.9060E+02                                 14247  2  943 
 1.0655E+02 6.2522E+01 1.9157E+02                                 14247  2  944 
 1.0721E+02-2.1649E+02 1.9990E+02                                 14247  2  945 
 1.0787E+02-1.0477E+02 1.9672E+02                                 14247  2  946 
 1.0855E+02-2.2736E+01 1.9596E+02                                 14247  2  947 
 1.0923E+02 1.6380E+02 1.9870E+02                                 14247  2  948 
 1.0991E+02 1.5737E+02 2.0542E+02                                 14247  2  949 
 1.1060E+02-1.6817E+02 2.1123E+02                                 14247  2  950 
 1.1130E+02 2.0879E+02 2.1276E+02                                 14247  2  951 
 1.1201E+02 2.0581E+02 2.1265E+02                                 14247  2  952 
 1.1272E+02 4.6756E+02 2.2396E+02                                 14247  2  953 
 1.1344E+02 1.1605E+02 2.3414E+02                                 14247  2  954 
 1.1416E+02 3.6915E+02 2.2827E+02                                 14247  2  955 
 1.1490E+02 5.6718E+01 2.4640E+02                                 14247  2  956 
 1.1564E+02-3.5963E+02 2.6395E+02                                 14247  2  957 
 1.1638E+02 7.8414E+01 2.7716E+02                                 14247  2  958 
 1.1714E+02 3.3731E+01 2.8593E+02                                 14247  2  959 
 1.1790E+02-3.2556E+02 3.2095E+02                                 14247  2  960 
 1.1867E+02-5.0624E+02 3.6287E+02                                 14247  2  961 
 1.1944E+02 1.8378E+02 3.8637E+02                                 14247  2  962 
 1.2023E+02-8.7518E+00 4.5826E+02                                 14247  2  963 
 1.2102E+02-3.4646E+02 5.8894E+02                                 14247  2  964 
 1.2182E+02 6.5587E+02 6.7540E+02                                 14247  2  965 
 1.2263E+02-2.9804E+01 2.3656E+03                                 14247  2  966 
 1.2511E+02 1.7236E+03 3.2977E+03                                 14247  2  967 
 1.3014E+02 1.0422E+04 4.5332E+03                                 14247  2  968 
 1.3547E+02-2.4058E+03 3.1270E+03                                 14247  2  969 
 1.3907E+02-8.1464E+02 2.7090E+06                                 14247  2  970 
 1.4075E+02 4.1527E+02 1.1095E+03                                 14247  2  971 
 1.4171E+02 6.5126E+02 5.3966E+02                                 14247  2  972 
 1.4273E+02 1.7346E+02 4.5290E+02                                 14247  2  973 
 1.4375E+02 5.0238E+02 4.2028E+02                                 14247  2  974 
 1.4479E+02 5.1983E+02 3.3059E+02                                 14247  2  975 
 1.4584E+02 2.1707E+02 3.0630E+02                                 14247  2  976 
 1.4689E+02-1.7188E+02 2.8082E+02                                 14247  2  977 
 1.4796E+02-2.1764E+02 2.6204E+02                                 14247  2  978 
 1.4905E+02 4.5681E+02 2.3208E+02                                 14247  2  979 
 1.5014E+02 4.0870E+01 2.2955E+02                                 14247  2  980 
 1.5125E+02-2.6143E+01 2.1869E+02                                 14247  2  981 
 1.5236E+02 5.4588E+01 2.1248E+02                                 14247  2  982 
 1.5349E+02-2.3255E+02 2.0767E+02                                 14247  2  983 
 1.5464E+02-1.2850E+02 1.9735E+02                                 14247  2  984 
 1.5579E+02-1.5909E+01 1.9776E+02                                 14247  2  985 
 1.5696E+02 1.8317E+02 1.8724E+02                                 14247  2  986 
 1.5814E+02 1.5003E+02 1.8169E+02                                 14247  2  987 
 1.5934E+02 3.2854E+02 1.7792E+02                                 14247  2  988 
 1.6055E+02-8.5590E+01 1.7940E+02                                 14247  2  989 
 1.6177E+02-2.2581E+01 1.7536E+02                                 14247  2  990 
 1.6301E+02-9.0152E+01 1.7600E+02                                 14247  2  991 
 1.6426E+02-1.0084E+02 1.7380E+02                                 14247  2  992 
 1.6553E+02 9.7676E+01 1.6713E+02                                 14247  2  993 
 1.6681E+02-9.5954E+01 1.6716E+02                                 14247  2  994 
 1.6810E+02-8.2971E+01 1.6685E+02                                 14247  2  995 
 1.6941E+02-1.2823E+02 1.6369E+02                                 14247  2  996 
 1.7074E+02 1.1925E+01 1.6174E+02                                 14247  2  997 
 1.7208E+02-3.9709E+01 1.6173E+02                                 14247  2  998 
 1.7344E+02-2.9654E+01 1.5868E+02                                 14247  2  999 
 1.7481E+02 1.4707E+02 1.5548E+02                                 14247  2 1000 
 1.7620E+02 1.5047E+02 1.5570E+02                                 14247  2 1001 
 1.7761E+02-2.2090E+02 1.5907E+02                                 14247  2 1002 
 1.7903E+02-2.1702E+02 1.5722E+02                                 14247  2 1003 
 1.8022E+02 5.5137E+02 2.0645E+02                                 14247  2 1004 
 1.8095E+02-1.8444E+02 2.2236E+02                                 14247  2 1005 
 1.8168E+02 4.4484E+01 2.2473E+02                                 14247  2 1006 
 1.8242E+02 1.4209E+02 2.1822E+02                                 14247  2 1007 
 1.8316E+02-5.9657E+01 2.2423E+02                                 14247  2 1008 
 1.8390E+02 1.4350E+02 2.1295E+02                                 14247  2 1009 
 1.8465E+02 2.8907E+01 2.1662E+02                                 14247  2 1010 
 1.8540E+02 4.1384E+02 2.1197E+02                                 14247  2 1011 
 1.8616E+02-8.4692E+01 2.2018E+02                                 14247  2 1012 
 1.8692E+02-1.5675E+02 2.1782E+02                                 14247  2 1013 
 1.8768E+02 6.0485E+01 2.1583E+02                                 14247  2 1014 
 1.8845E+02-9.0721E+01 2.1576E+02                                 14247  2 1015 
 1.8923E+02 4.0461E+02 2.1451E+02                                 14247  2 1016 
 1.9001E+02-1.2303E+02 2.1832E+02                                 14247  2 1017 
 1.9080E+02-2.0328E+02 2.1821E+02                                 14247  2 1018 
 1.9159E+02 3.5769E+01 2.1044E+02                                 14247  2 1019 
 1.9238E+02-7.9511E+01 2.1220E+02                                 14247  2 1020 
 1.9318E+02 5.3300E+01 2.1097E+02                                 14247  2 1021 
 1.9399E+02 1.7176E+01 2.1038E+02                                 14247  2 1022 
 1.9480E+02-1.4503E+02 2.1190E+02                                 14247  2 1023 
 1.9561E+02-2.3525E+02 2.2194E+02                                 14247  2 1024 
 1.9643E+02 2.4191E+02 2.1262E+02                                 14247  2 1025 
 1.9726E+02 5.9770E+02 2.0660E+02                                 14247  2 1026 
 1.9809E+02-1.1009E+02 2.1157E+02                                 14247  2 1027 
 1.9892E+02-1.0494E+02 2.1057E+02                                 14247  2 1028 
 1.9976E+02-3.8323E+01 2.0467E+02                                 14247  2 1029 
 2.0061E+02-1.3912E+02 2.1102E+02                                 14247  2 1030 
 2.0146E+02 3.9672E+01 2.0716E+02                                 14247  2 1031 
 2.0232E+02-4.6172E+02 2.2138E+02                                 14247  2 1032 
 2.0318E+02 3.0277E+02 2.0381E+02                                 14247  2 1033 
 2.0405E+02-5.4347E+01 2.0995E+02                                 14247  2 1034 
 2.0492E+02-2.4649E+02 2.1074E+02                                 14247  2 1035 
 2.0580E+02-7.0033E+00 2.0384E+02                                 14247  2 1036 
 2.0669E+02-9.9620E+01 2.0551E+02                                 14247  2 1037 
 2.0758E+02 6.6056E+01 2.0661E+02                                 14247  2 1038 
 2.0848E+02 4.5748E+01 2.0517E+02                                 14247  2 1039 
 2.0938E+02 7.3435E+02 2.0173E+02                                 14247  2 1040 
 2.1029E+02 4.6744E+02 2.0322E+02                                 14247  2 1041 
 2.1120E+02 3.3530E+02 1.9959E+02                                 14247  2 1042 
 2.1212E+02 2.2059E+02 2.0097E+02                                 14247  2 1043 
 2.1305E+02-1.8755E+01 2.0356E+02                                 14247  2 1044 
 2.1398E+02 2.0456E+02 1.9991E+02                                 14247  2 1045 
 2.1492E+02-3.4911E+02 2.0651E+02                                 14247  2 1046 
 2.1587E+02-4.4819E+01 2.0144E+02                                 14247  2 1047 
 2.1682E+02 1.7104E+02 1.9930E+02                                 14247  2 1048 
 2.1777E+02 4.3681E+01 1.9965E+02                                 14247  2 1049 
 2.1874E+02-3.0845E+02 2.0343E+02                                 14247  2 1050 
 2.1971E+02 3.0142E+02 2.0177E+02                                 14247  2 1051 
 2.2068E+02 3.2350E+02 1.9791E+02                                 14247  2 1052 
 2.2167E+02 4.0582E+02 2.0193E+02                                 14247  2 1053 
 2.2266E+02 3.9934E+02 1.9988E+02                                 14247  2 1054 
 2.2365E+02-2.0165E+02 2.0438E+02                                 14247  2 1055 
 2.2466E+02 1.6088E+02 1.9855E+02                                 14247  2 1056 
 2.2567E+02 2.0342E+02 1.9807E+02                                 14247  2 1057 
 2.2668E+02-2.9796E+01 1.9712E+02                                 14247  2 1058 
 2.2771E+02 3.4720E+01 1.9765E+02                                 14247  2 1059 
 2.2874E+02-1.7026E+02 1.9809E+02                                 14247  2 1060 
 2.2977E+02 1.7878E+02 1.9872E+02                                 14247  2 1061 
 2.3082E+02-2.4323E+01 2.0104E+02                                 14247  2 1062 
 2.3187E+02 2.1309E+02 1.9586E+02                                 14247  2 1063 
 2.3293E+02-1.4406E+02 2.0445E+02                                 14247  2 1064 
 2.3400E+02-9.1098E+01 2.0039E+02                                 14247  2 1065 
 2.3507E+02 1.9756E+01 1.9990E+02                                 14247  2 1066 
 2.3615E+02-3.9820E+01 1.9613E+02                                 14247  2 1067 
 2.3724E+02-3.0061E+02 2.0025E+02                                 14247  2 1068 
 2.3833E+02 2.2197E+02 1.9224E+02                                 14247  2 1069 
 2.3944E+02-1.7568E+02 2.0023E+02                                 14247  2 1070 
 2.4055E+02-5.4926E+01 2.0064E+02                                 14247  2 1071 
 2.4167E+02-4.0891E+01 1.9563E+02                                 14247  2 1072 
 2.4279E+02-3.2102E+02 1.9859E+02                                 14247  2 1073 
 2.4393E+02 2.6456E+02 1.9210E+02                                 14247  2 1074 
 2.4507E+02-5.2402E+01 1.9461E+02                                 14247  2 1075 
 2.4622E+02-2.7253E+02 1.9962E+02                                 14247  2 1076 
 2.4738E+02 2.7171E+02 1.9453E+02                                 14247  2 1077 
 2.4855E+02 3.2540E+02 1.9003E+02                                 14247  2 1078 
 2.4972E+02-8.2319E+01 1.9326E+02                                 14247  2 1079 
 2.5091E+02 2.0334E+02 1.9329E+02                                 14247  2 1080 
 2.5210E+02 3.9655E+02 1.8824E+02                                 14247  2 1081 
 2.5330E+02 2.1570E+02 1.9162E+02                                 14247  2 1082 
 2.5451E+02 9.4366E+01 1.9422E+02                                 14247  2 1083 
 2.5573E+02 1.7158E+02 1.9460E+02                                 14247  2 1084 
 2.5695E+02-5.7662E+01 1.9206E+02                                 14247  2 1085 
 2.5819E+02-1.5433E+02 1.9720E+02                                 14247  2 1086 
 2.5943E+02 3.2396E+02 1.8515E+02                                 14247  2 1087 
 2.6069E+02-2.2039E+02 1.9645E+02                                 14247  2 1088 
 2.6195E+02 1.4814E+02 1.9496E+02                                 14247  2 1089 
 2.6322E+02-6.1794E-01 1.9225E+02                                 14247  2 1090 
 2.6450E+02-2.8228E+02 1.9891E+02                                 14247  2 1091 
 2.6579E+02-9.9910E+00 1.9171E+02                                 14247  2 1092 
 2.6709E+02-4.8589E+02 1.9719E+02                                 14247  2 1093 
 2.6840E+02-5.1368E+01 1.9004E+02                                 14247  2 1094 
 2.6972E+02-9.3946E+01 1.8861E+02                                 14247  2 1095 
 2.7105E+02-6.6755E+00 1.8941E+02                                 14247  2 1096 
 2.7239E+02-2.0072E+02 1.9451E+02                                 14247  2 1097 
 2.7374E+02-6.7520E+01 1.8927E+02                                 14247  2 1098 
 2.7510E+02 2.5405E+02 1.8627E+02                                 14247  2 1099 
 2.7647E+02 2.9475E+02 1.8652E+02                                 14247  2 1100 
 2.7784E+02 2.0057E+02 1.8773E+02                                 14247  2 1101 
 2.7923E+02-1.2957E+02 1.9343E+02                                 14247  2 1102 
 2.8063E+02-1.1930E+02 1.9064E+02                                 14247  2 1103 
 2.8204E+02-2.7458E+02 1.9357E+02                                 14247  2 1104 
 2.8346E+02-8.6706E+01 1.8910E+02                                 14247  2 1105 
 2.8490E+02 1.8920E+02 1.8443E+02                                 14247  2 1106 
 2.8634E+02-2.4097E+01 1.9001E+02                                 14247  2 1107 
 2.8779E+02 1.0032E+02 1.8725E+02                                 14247  2 1108 
 2.8926E+02-1.5888E+01 1.8708E+02                                 14247  2 1109 
 2.9073E+02-4.3035E+01 1.8602E+02                                 14247  2 1110 
 2.9222E+02-6.2500E+02 1.9441E+02                                 14247  2 1111 
 2.9372E+02-2.0469E+02 1.8938E+02                                 14247  2 1112 
 2.9523E+02 5.9093E+02 1.7854E+02                                 14247  2 1113 
 2.9675E+02 2.8672E+01 1.8829E+02                                 14247  2 1114 
 2.9829E+02-4.1988E+01 1.8594E+02                                 14247  2 1115 
 2.9983E+02 1.6769E+02 1.8497E+02                                 14247  2 1116 
 3.0139E+02-2.3493E+01 1.8705E+02                                 14247  2 1117 
 3.0296E+02 1.2988E+02 1.8905E+02                                 14247  2 1118 
 3.0454E+02 1.4521E+02 1.8283E+02                                 14247  2 1119 
 3.0614E+02-2.5734E+02 1.9123E+02                                 14247  2 1120 
 3.0774E+02-8.5187E+01 1.8559E+02                                 14247  2 1121 
 3.0936E+02-4.4874E+02 1.9344E+02                                 14247  2 1122 
 3.1100E+02 9.5366E+01 1.8190E+02                                 14247  2 1123 
 3.1264E+02 2.7323E+01 1.8631E+02                                 14247  2 1124 
 3.1430E+02 8.2785E+01 1.8334E+02                                 14247  2 1125 
 3.1597E+02 1.1215E+02 1.8334E+02                                 14247  2 1126 
 3.1766E+02-7.2307E+01 1.8566E+02                                 14247  2 1127 
 3.1936E+02 1.9129E+01 1.8287E+02                                 14247  2 1128 
 3.2107E+02 1.3446E+02 1.8176E+02                                 14247  2 1129 
 3.2280E+02-2.9521E+02 1.8791E+02                                 14247  2 1130 
 3.2454E+02-6.5745E+00 1.8333E+02                                 14247  2 1131 
 3.2629E+02 8.4028E+01 1.8198E+02                                 14247  2 1132 
 3.2806E+02 1.1894E+02 1.8357E+02                                 14247  2 1133 
 3.2984E+02-4.9331E+01 1.9151E+02                                 14247  2 1134 
 3.3164E+02-2.1961E+02 1.8899E+02                                 14247  2 1135 
 3.3345E+02 2.5264E+01 1.8795E+02                                 14247  2 1136 
 3.3528E+02 3.3047E+02 1.8180E+02                                 14247  2 1137 
 3.3712E+02 9.9039E+01 1.8633E+02                                 14247  2 1138 
 3.3898E+02-1.6823E+01 1.8914E+02                                 14247  2 1139 
 3.4085E+02-4.9673E+00 1.8634E+02                                 14247  2 1140 
 3.4274E+02 3.0740E+02 1.8491E+02                                 14247  2 1141 
 3.4465E+02 5.4255E+02 1.7970E+02                                 14247  2 1142 
 3.4657E+02 4.7524E+02 1.7725E+02                                 14247  2 1143 
 3.4850E+02-2.4543E+02 1.8803E+02                                 14247  2 1144 
 3.5046E+02 2.7399E+01 1.8152E+02                                 14247  2 1145 
 3.5242E+02 5.5280E+02 1.8179E+02                                 14247  2 1146 
 3.5441E+02 3.8346E+02 1.8008E+02                                 14247  2 1147 
 3.5641E+02-4.6333E+01 1.8030E+02                                 14247  2 1148 
 3.5843E+02-2.6195E+02 1.8768E+02                                 14247  2 1149 
 3.6047E+02 3.9809E+02 1.7447E+02                                 14247  2 1150 
 3.6252E+02 1.0487E+02 1.7850E+02                                 14247  2 1151 
 3.6460E+02-8.5413E+01 1.8000E+02                                 14247  2 1152 
 3.6669E+02 1.0987E+01 1.7593E+02                                 14247  2 1153 
 3.6879E+02 2.1822E+02 1.7724E+02                                 14247  2 1154 
 3.7092E+02-4.4868E+02 1.8167E+02                                 14247  2 1155 
 3.7306E+02 2.7451E+02 1.7638E+02                                 14247  2 1156 
 3.7523E+02 1.9685E+02 1.7273E+02                                 14247  2 1157 
 3.7741E+02-9.2430E+01 1.7674E+02                                 14247  2 1158 
 3.7961E+02-3.1394E+01 1.7707E+02                                 14247  2 1159 
 3.8183E+02-3.3820E+02 1.8056E+02                                 14247  2 1160 
 3.8407E+02-8.1281E-01 1.7724E+02                                 14247  2 1161 
 3.8633E+02 3.6404E+02 1.7394E+02                                 14247  2 1162 
 3.8861E+02-3.0381E+02 1.7985E+02                                 14247  2 1163 
 3.9091E+02 8.9382E+01 1.7792E+02                                 14247  2 1164 
 3.9323E+02-3.4441E+02 1.8628E+02                                 14247  2 1165 
 3.9557E+02 5.6891E+01 1.8012E+02                                 14247  2 1166 
 3.9793E+02-3.0308E+01 1.7563E+02                                 14247  2 1167 
 4.0031E+02-2.4982E+02 1.7959E+02                                 14247  2 1168 
 4.0272E+02 1.4959E+02 1.7397E+02                                 14247  2 1169 
 4.0515E+02-3.0397E+02 1.7883E+02                                 14247  2 1170 
 4.0759E+02 2.8668E+02 1.7132E+02                                 14247  2 1171 
 4.1006E+02 2.2655E+02 1.7274E+02                                 14247  2 1172 
 4.1256E+02-1.5895E+02 1.7615E+02                                 14247  2 1173 
 4.1507E+02 1.3658E+02 1.7394E+02                                 14247  2 1174 
 4.1761E+02 1.0075E+02 1.7149E+02                                 14247  2 1175 
 4.2017E+02 4.0540E+02 1.7446E+02                                 14247  2 1176 
 4.2276E+02 7.3604E+01 1.7204E+02                                 14247  2 1177 
 4.2537E+02-1.5208E+02 1.7344E+02                                 14247  2 1178 
 4.2801E+02-1.5677E+01 1.7427E+02                                 14247  2 1179 
 4.3066E+02-1.9416E+02 1.7448E+02                                 14247  2 1180 
 4.3335E+02-5.4213E+01 1.7427E+02                                 14247  2 1181 
 4.3606E+02-9.9848E+01 1.7243E+02                                 14247  2 1182 
 4.3879E+02-2.4625E+02 1.7322E+02                                 14247  2 1183 
 4.4155E+02-1.7875E+02 1.7286E+02                                 14247  2 1184 
 4.4434E+02 9.9799E+01 1.7098E+02                                 14247  2 1185 
 4.4715E+02-1.2047E+02 1.7358E+02                                 14247  2 1186 
 4.4999E+02-4.0093E+01 1.7166E+02                                 14247  2 1187 
 4.5286E+02-9.6561E+01 1.7079E+02                                 14247  2 1188 
 4.5575E+02 4.5300E+02 1.6487E+02                                 14247  2 1189 
 4.5867E+02 1.6250E+02 1.6997E+02                                 14247  2 1190 
 4.6162E+02 7.2107E+01 1.6943E+02                                 14247  2 1191 
 4.6460E+02-1.9057E+02 1.7209E+02                                 14247  2 1192 
 4.6761E+02-7.1923E+00 1.6960E+02                                 14247  2 1193 
 4.7064E+02 3.2875E+02 1.6763E+02                                 14247  2 1194 
 4.7371E+02-4.5108E+02 1.7688E+02                                 14247  2 1195 
 4.7681E+02-5.6138E+01 1.7212E+02                                 14247  2 1196 
 4.7994E+02-5.8917E+01 1.6947E+02                                 14247  2 1197 
 4.8309E+02 1.9859E+02 1.6882E+02                                 14247  2 1198 
 4.8628E+02 1.8671E+02 1.6683E+02                                 14247  2 1199 
 4.8950E+02-2.0065E+02 1.7215E+02                                 14247  2 1200 
 4.9276E+02 2.3028E+02 1.6808E+02                                 14247  2 1201 
 4.9604E+02 7.0541E+01 1.6793E+02                                 14247  2 1202 
 4.9936E+02-3.4102E+02 1.6999E+02                                 14247  2 1203 
 5.0271E+02-1.0000E+02 1.7117E+02                                 14247  2 1204 
 5.0610E+02-2.8111E+02 1.6922E+02                                 14247  2 1205 
 5.0952E+02 2.4069E+01 1.6793E+02                                 14247  2 1206 
 5.1297E+02-1.5234E+01 1.6778E+02                                 14247  2 1207 
 5.1646E+02 5.8523E+01 1.6851E+02                                 14247  2 1208 
 5.1999E+02-1.8680E+02 1.7010E+02                                 14247  2 1209 
 5.2355E+02 2.5512E+02 1.6400E+02                                 14247  2 1210 
 5.2715E+02-5.7507E+01 1.6536E+02                                 14247  2 1211 
 5.3079E+02 4.7665E+01 1.6460E+02                                 14247  2 1212 
 5.3446E+02-4.6671E+00 1.6513E+02                                 14247  2 1213 
 5.3817E+02 1.2519E+02 1.6452E+02                                 14247  2 1214 
 5.4192E+02 1.6072E+02 1.6405E+02                                 14247  2 1215 
 5.4571E+02-1.1179E+02 1.6708E+02                                 14247  2 1216 
 5.4954E+02-1.4286E+02 1.6788E+02                                 14247  2 1217 
 5.5341E+02 1.4695E+02 1.6244E+02                                 14247  2 1218 
 5.5733E+02-1.5650E+02 1.6565E+02                                 14247  2 1219 
 5.6128E+02-1.8761E+02 1.6597E+02                                 14247  2 1220 
 5.6528E+02 5.1442E+01 1.6211E+02                                 14247  2 1221 
 5.6931E+02-8.6463E+01 1.6456E+02                                 14247  2 1222 
 5.7340E+02 2.2958E+02 1.6091E+02                                 14247  2 1223 
 5.7752E+02-8.9756E+01 1.6684E+02                                 14247  2 1224 
 5.8169E+02 2.5371E+02 1.6128E+02                                 14247  2 1225 
 5.8591E+02 9.0883E+01 1.6248E+02                                 14247  2 1226 
 5.9017E+02-2.4060E+02 1.6369E+02                                 14247  2 1227 
 5.9448E+02-1.8138E+02 1.6390E+02                                 14247  2 1228 
 5.9883E+02-1.6522E+02 1.6238E+02                                 14247  2 1229 
 6.0324E+02 1.8350E+01 1.6056E+02                                 14247  2 1230 
 6.0769E+02-1.3418E+02 1.6262E+02                                 14247  2 1231 
 6.1219E+02 1.1276E+02 1.6060E+02                                 14247  2 1232 
 6.1675E+02 2.0623E+02 1.5841E+02                                 14247  2 1233 
 6.2135E+02-2.5626E+02 1.6535E+02                                 14247  2 1234 
 6.2600E+02 6.1394E+01 1.5927E+02                                 14247  2 1235 
 6.3071E+02 9.6025E+01 1.6222E+02                                 14247  2 1236 
 6.3547E+02-2.7381E+02 1.6268E+02                                 14247  2 1237 
 6.4029E+02-6.6303E+01 1.6090E+02                                 14247  2 1238 
 6.4516E+02-6.6798E+00 1.6190E+02                                 14247  2 1239 
 6.5008E+02 1.8151E+02 1.6165E+02                                 14247  2 1240 
 6.5507E+02 9.4373E+01 1.5957E+02                                 14247  2 1241 
 6.6011E+02-3.3819E+02 1.6242E+02                                 14247  2 1242 
 6.6520E+02 3.2200E+00 1.5835E+02                                 14247  2 1243 
 6.7036E+02 4.2380E+01 1.6074E+02                                 14247  2 1244 
 6.7558E+02 1.7459E+02 1.5733E+02                                 14247  2 1245 
 6.8086E+02-1.7016E+02 1.6035E+02                                 14247  2 1246 
 6.8620E+02-1.3720E+01 1.5824E+02                                 14247  2 1247 
 6.9160E+02-1.4438E+02 1.6118E+02                                 14247  2 1248 
 6.9707E+02 1.7711E+02 1.5563E+02                                 14247  2 1249 
 7.0260E+02-6.1960E+01 1.5860E+02                                 14247  2 1250 
 7.0820E+02 1.8152E+02 1.5541E+02                                 14247  2 1251 
 7.1387E+02-6.7457E+01 1.5767E+02                                 14247  2 1252 
 7.1961E+02-1.3677E+02 1.5920E+02                                 14247  2 1253 
 7.2440E+02-1.1726E+01 2.2016E+02                                 14247  2 1254 
 7.2736E+02 1.8009E+02 2.1842E+02                                 14247  2 1255 
 7.3030E+02 8.0930E+00 2.2258E+02                                 14247  2 1256 
 7.3326E+02-2.3806E+02 2.2588E+02                                 14247  2 1257 
 7.3623E+02-1.1171E+02 2.2666E+02                                 14247  2 1258 
 7.3923E+02 2.8687E+02 2.1738E+02                                 14247  2 1259 
 7.4224E+02 3.2058E+02 2.1642E+02                                 14247  2 1260 
 7.4527E+02-1.0149E+02 2.2391E+02                                 14247  2 1261 
 7.4832E+02-2.9929E+01 2.2565E+02                                 14247  2 1262 
 7.5139E+02 1.1586E+02 2.2117E+02                                 14247  2 1263 
 7.5448E+02 2.2018E+02 2.1779E+02                                 14247  2 1264 
 7.5758E+02 1.7162E+02 2.1937E+02                                 14247  2 1265 
 7.6071E+02 8.3207E+01 2.2188E+02                                 14247  2 1266 
 7.6385E+02-1.8285E+02 2.3009E+02                                 14247  2 1267 
 7.6702E+02 1.0736E+01 2.2203E+02                                 14247  2 1268 
 7.7020E+02 4.1798E+01 2.1860E+02                                 14247  2 1269 
 7.7341E+02 3.7346E+01 2.2062E+02                                 14247  2 1270 
 7.7663E+02-7.8368E+01 2.2949E+02                                 14247  2 1271 
 7.7988E+02 1.0450E+02 2.2520E+02                                 14247  2 1272 
 7.8314E+02 2.9318E+02 2.1704E+02                                 14247  2 1273 
 7.8643E+02-1.2197E+02 2.2504E+02                                 14247  2 1274 
 7.8973E+02-1.9650E+02 2.2749E+02                                 14247  2 1275 
 7.9306E+02 2.5541E+02 2.1559E+02                                 14247  2 1276 
 7.9641E+02 2.3211E+02 2.1901E+02                                 14247  2 1277 
 7.9978E+02 2.2942E+02 2.1719E+02                                 14247  2 1278 
 8.0317E+02-2.4115E+02 2.2903E+02                                 14247  2 1279 
 8.0658E+02 1.0693E+02 2.1871E+02                                 14247  2 1280 
 8.1001E+02 4.4670E+02 2.2183E+02                                 14247  2 1281 
 8.1347E+02 9.9962E+01 2.2032E+02                                 14247  2 1282 
 8.1695E+02 1.2471E+02 2.2169E+02                                 14247  2 1283 
 8.2045E+02 2.4269E+02 2.1749E+02                                 14247  2 1284 
 8.2397E+02 6.1061E+02 2.1854E+02                                 14247  2 1285 
 8.2752E+02 2.2803E+02 2.2037E+02                                 14247  2 1286 
 8.3109E+02-1.7016E+02 2.1743E+02                                 14247  2 1287 
 8.3468E+02 1.8243E+02 2.1916E+02                                 14247  2 1288 
 8.3830E+02 8.4358E+01 2.1719E+02                                 14247  2 1289 
 8.4193E+02-1.9175E+02 2.2230E+02                                 14247  2 1290 
 8.4560E+02 4.3370E+01 2.1896E+02                                 14247  2 1291 
 8.4928E+02 4.3519E+02 2.1184E+02                                 14247  2 1292 
 8.5299E+02 1.7094E+02 2.1461E+02                                 14247  2 1293 
 8.5673E+02-4.2463E+02 2.2618E+02                                 14247  2 1294 
 8.6049E+02-2.3069E+01 2.2069E+02                                 14247  2 1295 
 8.6427E+02-4.8972E+02 2.2565E+02                                 14247  2 1296 
 8.6808E+02 1.1790E+02 2.1878E+02                                 14247  2 1297 
 8.7192E+02-3.6234E+01 2.2418E+02                                 14247  2 1298 
 8.7578E+02 6.8672E+01 2.1429E+02                                 14247  2 1299 
 8.7966E+02 1.0717E+02 2.1848E+02                                 14247  2 1300 
 8.8358E+02-2.4981E+02 2.1818E+02                                 14247  2 1301 
 8.8751E+02-6.8580E+01 2.1790E+02                                 14247  2 1302 
 8.9148E+02-4.2810E+02 2.2736E+02                                 14247  2 1303 
 8.9547E+02 2.8276E+02 2.1232E+02                                 14247  2 1304 
 8.9949E+02-2.3030E+01 2.1662E+02                                 14247  2 1305 
 9.0353E+02 5.6991E+02 2.1081E+02                                 14247  2 1306 
 9.0760E+02 1.8052E+01 2.1949E+02                                 14247  2 1307 
 9.1170E+02-1.7117E+01 2.1615E+02                                 14247  2 1308 
 9.1583E+02-1.3275E+02 2.1660E+02                                 14247  2 1309 
 9.1999E+02-1.5674E+02 2.1588E+02                                 14247  2 1310 
 9.2417E+02-3.5727E+02 2.2233E+02                                 14247  2 1311 
 9.2839E+02 7.2594E+01 2.1974E+02                                 14247  2 1312 
 9.3263E+02-1.8042E+02 2.1921E+02                                 14247  2 1313 
 9.3690E+02-2.9194E+02 2.1718E+02                                 14247  2 1314 
 9.4120E+02 5.7851E+00 2.1407E+02                                 14247  2 1315 
 9.4553E+02-2.8109E+01 2.1316E+02                                 14247  2 1316 
 9.4989E+02-4.3510E+01 2.1608E+02                                 14247  2 1317 
 9.5428E+02-2.1065E+02 2.1285E+02                                 14247  2 1318 
 9.5870E+02 5.7512E+02 2.1263E+02                                 14247  2 1319 
 9.6315E+02 9.6205E+01 2.1170E+02                                 14247  2 1320 
 9.6763E+02-4.1092E+02 2.2424E+02                                 14247  2 1321 
 9.7215E+02 1.9142E+02 2.1223E+02                                 14247  2 1322 
 9.7669E+02-4.2754E+01 2.1545E+02                                 14247  2 1323 
 9.8127E+02 1.5339E+02 2.1347E+02                                 14247  2 1324 
 9.8588E+02-2.3408E+01 2.1097E+02                                 14247  2 1325 
 9.9052E+02-7.6943E+01 2.1512E+02                                 14247  2 1326 
 9.9520E+02-1.0919E+02 2.1539E+02                                 14247  2 1327 
 9.9991E+02 3.0457E+02 2.0850E+02                                 14247  2 1328 
 1.0046E+03-1.4886E+02 2.1660E+02                                 14247  2 1329 
 1.0094E+03-5.7146E+01 2.1155E+02                                 14247  2 1330 
 1.0142E+03 7.5762E+01 2.1125E+02                                 14247  2 1331 
 1.0191E+03-9.4282E+01 2.1360E+02                                 14247  2 1332 
 1.0240E+03-8.8518E+01 2.1355E+02                                 14247  2 1333 
 1.0289E+03-1.7634E+02 2.2055E+02                                 14247  2 1334 
 1.0338E+03-3.8275E+01 2.1306E+02                                 14247  2 1335 
 1.0388E+03-1.6774E+02 2.1520E+02                                 14247  2 1336 
 1.0438E+03-3.2254E+02 2.1278E+02                                 14247  2 1337 
 1.0489E+03-3.4999E+02 2.1900E+02                                 14247  2 1338 
 1.0540E+03 7.3428E+01 2.1030E+02                                 14247  2 1339 
 1.0591E+03 1.8338E+02 2.1319E+02                                 14247  2 1340 
 1.0643E+03-1.8416E+02 2.1460E+02                                 14247  2 1341 
 1.0695E+03-1.5393E+02 2.1423E+02                                 14247  2 1342 
 1.0747E+03 1.7834E+01 2.0804E+02                                 14247  2 1343 
 1.0800E+03-2.6954E+02 2.1559E+02                                 14247  2 1344 
 1.0853E+03-8.6388E+01 2.1501E+02                                 14247  2 1345 
 1.0907E+03-8.2679E+01 2.1076E+02                                 14247  2 1346 
 1.0961E+03 3.2778E+02 2.0666E+02                                 14247  2 1347 
 1.1016E+03 1.1527E+02 2.1048E+02                                 14247  2 1348 
 1.1070E+03 5.0962E+02 2.0928E+02                                 14247  2 1349 
 1.1126E+03 3.0594E+02 2.0423E+02                                 14247  2 1350 
 1.1181E+03-7.1490E+01 2.1390E+02                                 14247  2 1351 
 1.1237E+03-1.8152E+02 2.0832E+02                                 14247  2 1352 
 1.1294E+03-5.0064E+01 2.0728E+02                                 14247  2 1353 
 1.1351E+03-3.3644E+02 2.0888E+02                                 14247  2 1354 
 1.1408E+03 2.3603E+02 2.0665E+02                                 14247  2 1355 
 1.1466E+03 1.5710E+02 2.0946E+02                                 14247  2 1356 
 1.1524E+03 2.0136E+02 2.0442E+02                                 14247  2 1357 
 1.1583E+03-5.1648E+01 2.1382E+02                                 14247  2 1358 
 1.1642E+03-1.6451E+02 2.1166E+02                                 14247  2 1359 
 1.1702E+03 2.4282E+02 2.0571E+02                                 14247  2 1360 
 1.1762E+03-1.5335E+02 2.0623E+02                                 14247  2 1361 
 1.1822E+03-2.3136E+01 2.0378E+02                                 14247  2 1362 
 1.1883E+03-2.9815E+02 2.2016E+02                                 14247  2 1363 
 1.1945E+03 1.5629E+02 2.0263E+02                                 14247  2 1364 
 1.2007E+03-2.7473E+02 2.0785E+02                                 14247  2 1365 
 1.2069E+03-5.5386E+01 2.0518E+02                                 14247  2 1366 
 1.2132E+03-1.0041E+02 2.0910E+02                                 14247  2 1367 
 1.2195E+03-6.2254E+01 2.0254E+02                                 14247  2 1368 
 1.2259E+03 2.4810E+01 2.0525E+02                                 14247  2 1369 
 1.2324E+03-1.0400E+02 2.0358E+02                                 14247  2 1370 
 1.2388E+03-2.2923E+02 2.0402E+02                                 14247  2 1371 
 1.2454E+03 1.1788E+01 2.0537E+02                                 14247  2 1372 
 1.2520E+03 2.0235E+02 2.0553E+02                                 14247  2 1373 
 1.2586E+03-5.9863E+01 2.0254E+02                                 14247  2 1374 
 1.2653E+03 9.4917E+01 1.9762E+02                                 14247  2 1375 
 1.2721E+03 2.6173E+02 1.9707E+02                                 14247  2 1376 
 1.2789E+03-3.2339E+02 2.0393E+02                                 14247  2 1377 
 1.2857E+03-4.9984E+02 2.0588E+02                                 14247  2 1378 
 1.2927E+03-2.3042E+02 2.0340E+02                                 14247  2 1379 
 1.2996E+03 3.3718E+02 1.9699E+02                                 14247  2 1380 
 1.3067E+03 1.2490E+02 2.0052E+02                                 14247  2 1381 
 1.3138E+03-2.0665E+01 2.0200E+02                                 14247  2 1382 
 1.3209E+03-1.8484E+02 2.0568E+02                                 14247  2 1383 
 1.3281E+03 2.3930E+00 2.0225E+02                                 14247  2 1384 
 1.3354E+03 1.9691E+02 2.0047E+02                                 14247  2 1385 
 1.3427E+03 3.3761E+02 1.9754E+02                                 14247  2 1386 
 1.3501E+03 1.8269E+02 2.0198E+02                                 14247  2 1387 
 1.3575E+03-3.2869E+00 2.0003E+02                                 14247  2 1388 
 1.3650E+03-1.0459E+02 2.0835E+02                                 14247  2 1389 
 1.3726E+03 1.8760E+02 2.0053E+02                                 14247  2 1390 
 1.3802E+03 3.4069E+02 1.9989E+02                                 14247  2 1391 
 1.3879E+03-1.3846E+02 2.0508E+02                                 14247  2 1392 
 1.3957E+03 9.4568E+01 2.0514E+02                                 14247  2 1393 
 1.4035E+03 1.3435E+02 2.0487E+02                                 14247  2 1394 
 1.4114E+03 1.3768E+02 2.0050E+02                                 14247  2 1395 
 1.4193E+03-1.5744E+02 2.0035E+02                                 14247  2 1396 
 1.4274E+03 4.1413E+02 1.9797E+02                                 14247  2 1397 
 1.4355E+03 1.5056E+02 2.0233E+02                                 14247  2 1398 
 1.4436E+03 2.4487E+02 1.9781E+02                                 14247  2 1399 
 1.4519E+03 1.7145E+02 1.9901E+02                                 14247  2 1400 
 1.4602E+03-1.3894E+02 1.9860E+02                                 14247  2 1401 
 1.4685E+03-2.1183E+02 2.0187E+02                                 14247  2 1402 
 1.4770E+03-2.6414E+02 2.0582E+02                                 14247  2 1403 
 1.4855E+03-5.8010E+01 1.9987E+02                                 14247  2 1404 
 1.4941E+03 2.1083E+02 1.9689E+02                                 14247  2 1405 
 1.5028E+03-1.2895E+02 1.9847E+02                                 14247  2 1406 
 1.5115E+03-1.4921E+02 1.9722E+02                                 14247  2 1407 
 1.5203E+03 7.1370E+01 1.9806E+02                                 14247  2 1408 
 1.5292E+03-3.8278E+02 2.0406E+02                                 14247  2 1409 
 1.5382E+03 1.8901E+02 1.9731E+02                                 14247  2 1410 
 1.5473E+03 8.9883E+00 1.9537E+02                                 14247  2 1411 
 1.5564E+03-8.7707E+01 1.9636E+02                                 14247  2 1412 
 1.5656E+03 1.7326E+02 1.9823E+02                                 14247  2 1413 
 1.5749E+03 1.6733E+02 1.9440E+02                                 14247  2 1414 
 1.5843E+03 3.8609E+02 1.9140E+02                                 14247  2 1415 
 1.5938E+03 2.0098E+01 1.9700E+02                                 14247  2 1416 
 1.6033E+03 3.5053E+02 1.9109E+02                                 14247  2 1417 
 1.6129E+03-2.8264E+02 2.0275E+02                                 14247  2 1418 
 1.6227E+03 1.7638E+01 1.9496E+02                                 14247  2 1419 
 1.6325E+03-3.6290E+01 1.9543E+02                                 14247  2 1420 
 1.6424E+03 2.3059E+02 1.9338E+02                                 14247  2 1421 
 1.6524E+03 6.4536E+01 1.9711E+02                                 14247  2 1422 
 1.6625E+03-9.2968E+01 1.9499E+02                                 14247  2 1423 
 1.6726E+03 6.3962E+01 1.9441E+02                                 14247  2 1424 
 1.6829E+03-1.9519E+02 1.9939E+02                                 14247  2 1425 
 1.6933E+03 1.7696E+02 1.9697E+02                                 14247  2 1426 
 1.7037E+03 3.4026E+02 1.8993E+02                                 14247  2 1427 
 1.7143E+03 6.6016E+01 1.9089E+02                                 14247  2 1428 
 1.7249E+03-2.9483E+02 1.9736E+02                                 14247  2 1429 
 1.7357E+03-4.5455E+01 1.9851E+02                                 14247  2 1430 
 1.7466E+03 1.4548E+01 1.9968E+02                                 14247  2 1431 
 1.7575E+03-1.8344E+02 1.9452E+02                                 14247  2 1432 
 1.7686E+03-1.6570E+02 1.9457E+02                                 14247  2 1433 
 1.7797E+03 1.0739E+02 1.9157E+02                                 14247  2 1434 
 1.7910E+03-2.1239E+02 1.9537E+02                                 14247  2 1435 
 1.8024E+03 8.5105E+01 1.9525E+02                                 14247  2 1436 
 1.8139E+03-1.0450E+02 1.9785E+02                                 14247  2 1437 
 1.8255E+03 2.5900E+02 1.9376E+02                                 14247  2 1438 
 1.8372E+03 6.0829E+01 1.9309E+02                                 14247  2 1439 
 1.8490E+03-7.2499E+01 1.9417E+02                                 14247  2 1440 
 1.8610E+03-3.6279E+02 1.9923E+02                                 14247  2 1441 
 1.8730E+03 4.0926E+02 1.8800E+02                                 14247  2 1442 
 1.8852E+03-1.4907E+02 1.9823E+02                                 14247  2 1443 
 1.8975E+03 1.8578E+02 1.8900E+02                                 14247  2 1444 
 1.9099E+03 3.0389E+01 1.9060E+02                                 14247  2 1445 
 1.9224E+03-8.7954E+01 1.9232E+02                                 14247  2 1446 
 1.9351E+03-2.4507E+02 1.9437E+02                                 14247  2 1447 
 1.9479E+03 1.3917E+02 1.8843E+02                                 14247  2 1448 
 1.9608E+03 3.8053E+01 1.8971E+02                                 14247  2 1449 
 1.9738E+03 3.1346E+02 1.8592E+02                                 14247  2 1450 
 1.9870E+03 3.7966E+02 1.8840E+02                                 14247  2 1451 
 2.0003E+03 1.1996E+02 1.8768E+02                                 14247  2 1452 
 2.0137E+03 1.4722E+02 1.9108E+02                                 14247  2 1453 
 2.0273E+03 1.4186E+02 1.8956E+02                                 14247  2 1454 
 2.0410E+03-1.5788E+02 1.9149E+02                                 14247  2 1455 
 2.0549E+03-1.7491E+02 1.8892E+02                                 14247  2 1456 
 2.0689E+03 1.9866E+02 1.8624E+02                                 14247  2 1457 
 2.0830E+03-1.4785E+02 1.9468E+02                                 14247  2 1458 
 2.0973E+03-1.8334E+02 1.9279E+02                                 14247  2 1459 
 2.1117E+03 9.6735E+01 1.8808E+02                                 14247  2 1460 
 2.1263E+03 2.4594E+02 1.8527E+02                                 14247  2 1461 
 2.1410E+03 2.1380E+02 1.8722E+02                                 14247  2 1462 
 2.1559E+03 3.7960E+02 1.8698E+02                                 14247  2 1463 
 2.1709E+03-2.1688E+02 1.9110E+02                                 14247  2 1464 
 2.1861E+03-9.5066E+01 1.9088E+02                                 14247  2 1465 
 2.2015E+03 5.7420E+01 1.8601E+02                                 14247  2 1466 
 2.2170E+03-1.2881E+02 1.9042E+02                                 14247  2 1467 
 2.2327E+03 1.4413E+02 1.8669E+02                                 14247  2 1468 
 2.2485E+03 6.0971E+01 1.8841E+02                                 14247  2 1469 
 2.2645E+03 2.3528E+02 1.8903E+02                                 14247  2 1470 
 2.2807E+03 2.9534E+02 1.8494E+02                                 14247  2 1471 
 2.2971E+03-1.4765E+02 1.9182E+02                                 14247  2 1472 
 2.3136E+03-8.1728E+00 1.9025E+02                                 14247  2 1473 
 2.3304E+03 3.8071E+01 1.8683E+02                                 14247  2 1474 
 2.3473E+03 1.5302E+02 1.8645E+02                                 14247  2 1475 
 2.3643E+03 2.4476E+02 1.8412E+02                                 14247  2 1476 
 2.3816E+03 8.8279E+01 1.8530E+02                                 14247  2 1477 
 2.3991E+03 1.4532E+02 1.8554E+02                                 14247  2 1478 
 2.4167E+03-7.2762E+01 1.8900E+02                                 14247  2 1479 
 2.4346E+03-1.7501E+01 1.8607E+02                                 14247  2 1480 
 2.4526E+03 2.2218E+02 1.8394E+02                                 14247  2 1481 
 2.4709E+03-1.5295E+02 1.9002E+02                                 14247  2 1482 
 2.4894E+03-2.2495E+01 1.9159E+02                                 14247  2 1483 
 2.5080E+03 2.1233E+02 1.8394E+02                                 14247  2 1484 
 2.5269E+03-7.8213E+01 1.8680E+02                                 14247  2 1485 
 2.5460E+03-1.1797E-01 1.8769E+02                                 14247  2 1486 
 2.5653E+03-1.4352E+02 1.8440E+02                                 14247  2 1487 
 2.5848E+03-1.1126E+02 1.8448E+02                                 14247  2 1488 
 2.6046E+03 8.4180E+01 1.8526E+02                                 14247  2 1489 
 2.6246E+03 3.0863E+02 1.8020E+02                                 14247  2 1490 
 2.6448E+03-1.8651E+02 1.8440E+02                                 14247  2 1491 
 2.6652E+03 9.1585E+01 1.7912E+02                                 14247  2 1492 
 2.6859E+03-1.3416E+01 1.8302E+02                                 14247  2 1493 
 2.7068E+03 9.7285E+01 1.8208E+02                                 14247  2 1494 
 2.7280E+03 5.1092E+02 1.7514E+02                                 14247  2 1495 
 2.7494E+03-1.4713E+02 1.8252E+02                                 14247  2 1496 
 2.7711E+03-4.9453E+01 1.7896E+02                                 14247  2 1497 
 2.7930E+03 5.3393E+01 1.7882E+02                                 14247  2 1498 
 2.8152E+03-7.8972E+00 1.7895E+02                                 14247  2 1499 
 2.8376E+03-8.3736E+01 1.7967E+02                                 14247  2 1500 
 2.8604E+03 5.7975E+01 1.8019E+02                                 14247  2 1501 
 2.8834E+03-2.4111E+01 1.7710E+02                                 14247  2 1502 
 2.9066E+03 1.1422E+02 1.7845E+02                                 14247  2 1503 
 2.9261E+03-1.7485E+02 2.4744E+02                                 14247  2 1504 
 2.9381E+03 1.0683E+02 2.5412E+02                                 14247  2 1505 
 2.9500E+03 2.1148E+02 2.5320E+02                                 14247  2 1506 
 2.9621E+03-5.3347E+01 2.5859E+02                                 14247  2 1507 
 2.9741E+03 2.3151E+02 2.6568E+02                                 14247  2 1508 
 2.9863E+03 2.4614E+02 2.5041E+02                                 14247  2 1509 
 2.9985E+03 1.8063E+02 2.5067E+02                                 14247  2 1510 
 3.0108E+03 1.7191E+02 2.5114E+02                                 14247  2 1511 
 3.0232E+03 2.4629E+02 2.5303E+02                                 14247  2 1512 
 3.0357E+03-2.1027E+00 2.5555E+02                                 14247  2 1513 
 3.0482E+03-1.0843E+02 2.6339E+02                                 14247  2 1514 
 3.0608E+03 9.1489E+01 2.6408E+02                                 14247  2 1515 
 3.0735E+03-4.6367E+01 2.6005E+02                                 14247  2 1516 
 3.0863E+03-3.0748E+02 2.6284E+02                                 14247  2 1517 
 3.0991E+03-2.0684E+02 2.5962E+02                                 14247  2 1518 
 3.1121E+03-2.7159E+02 2.5447E+02                                 14247  2 1519 
 3.1251E+03 3.5808E+02 2.4733E+02                                 14247  2 1520 
 3.1382E+03 5.6491E+00 2.6288E+02                                 14247  2 1521 
 3.1514E+03 1.5963E+01 2.5386E+02                                 14247  2 1522 
 3.1646E+03-1.2421E+02 2.5529E+02                                 14247  2 1523 
 3.1780E+03 1.4547E+02 2.5318E+02                                 14247  2 1524 
 3.1914E+03 5.4823E+01 2.5577E+02                                 14247  2 1525 
 3.2049E+03-3.5805E+02 2.6580E+02                                 14247  2 1526 
 3.2185E+03 1.9789E+02 2.5491E+02                                 14247  2 1527 
 3.2322E+03 7.1220E+01 2.5271E+02                                 14247  2 1528 
 3.2460E+03 3.5311E+02 2.4944E+02                                 14247  2 1529 
 3.2598E+03 3.6594E+02 2.5475E+02                                 14247  2 1530 
 3.2738E+03-5.8654E+00 2.5762E+02                                 14247  2 1531 
 3.2878E+03 1.6098E+02 2.5362E+02                                 14247  2 1532 
 3.3020E+03-2.8071E+02 2.6483E+02                                 14247  2 1533 
 3.3162E+03 3.0976E+02 2.5694E+02                                 14247  2 1534 
 3.3305E+03 2.2438E+02 2.6083E+02                                 14247  2 1535 
 3.3449E+03-5.7870E+02 2.6552E+02                                 14247  2 1536 
 3.3594E+03 1.2346E+02 2.6484E+02                                 14247  2 1537 
 3.3740E+03 3.7529E+01 2.5269E+02                                 14247  2 1538 
 3.3887E+03-8.9737E+01 2.5433E+02                                 14247  2 1539 
 3.4035E+03 3.7657E+02 2.4485E+02                                 14247  2 1540 
 3.4184E+03 2.4276E+02 2.5454E+02                                 14247  2 1541 
 3.4333E+03 8.3040E+01 2.5070E+02                                 14247  2 1542 
 3.4484E+03 4.7047E+02 2.4857E+02                                 14247  2 1543 
 3.4636E+03 1.8811E+02 2.5015E+02                                 14247  2 1544 
 3.4789E+03 5.5071E+01 2.5089E+02                                 14247  2 1545 
 3.4943E+03 8.2886E+01 2.5327E+02                                 14247  2 1546 
 3.5098E+03-6.8022E+01 2.5049E+02                                 14247  2 1547 
 3.5253E+03 7.9731E+01 2.5482E+02                                 14247  2 1548 
 3.5410E+03 1.5821E+00 2.5937E+02                                 14247  2 1549 
 3.5568E+03 2.4450E+02 2.4906E+02                                 14247  2 1550 
 3.5727E+03-3.0958E+02 2.5754E+02                                 14247  2 1551 
 3.5887E+03-2.8118E+02 2.5642E+02                                 14247  2 1552 
 3.6049E+03 2.7528E+02 2.4922E+02                                 14247  2 1553 
 3.6211E+03 4.2053E+02 2.4639E+02                                 14247  2 1554 
 3.6374E+03 7.9491E+00 2.4886E+02                                 14247  2 1555 
 3.6539E+03-9.7947E+01 2.6000E+02                                 14247  2 1556 
 3.6704E+03 3.4982E+02 2.4766E+02                                 14247  2 1557 
 3.6871E+03 9.9931E+01 2.5388E+02                                 14247  2 1558 
 3.7039E+03-3.4936E+02 2.6406E+02                                 14247  2 1559 
 3.7208E+03 1.8074E+02 2.4732E+02                                 14247  2 1560 
 3.7378E+03 6.8846E+01 2.5210E+02                                 14247  2 1561 
 3.7549E+03-8.4861E+00 2.6521E+02                                 14247  2 1562 
 3.7722E+03-5.5877E+02 2.5809E+02                                 14247  2 1563 
 3.7896E+03-4.1862E+01 2.5236E+02                                 14247  2 1564 
 3.8071E+03 3.4974E+02 2.4243E+02                                 14247  2 1565 
 3.8247E+03-9.2483E+01 2.5252E+02                                 14247  2 1566 
 3.8424E+03-3.1935E+02 2.5516E+02                                 14247  2 1567 
 3.8603E+03-1.5736E+02 2.5425E+02                                 14247  2 1568 
 3.8782E+03-1.3330E+02 2.5134E+02                                 14247  2 1569 
 3.8964E+03-2.5878E+02 2.5973E+02                                 14247  2 1570 
 3.9146E+03-2.2856E+02 2.5794E+02                                 14247  2 1571 
 3.9330E+03 5.0589E+02 2.4859E+02                                 14247  2 1572 
 3.9515E+03-6.2762E+02 2.7205E+02                                 14247  2 1573 
 3.9701E+03-3.7588E+02 2.6439E+02                                 14247  2 1574 
 3.9888E+03-1.3968E+01 2.5138E+02                                 14247  2 1575 
 4.0077E+03 2.7270E+01 2.5798E+02                                 14247  2 1576 
 4.0268E+03 3.6230E+02 2.5724E+02                                 14247  2 1577 
 4.0459E+03 4.0377E+01 2.5506E+02                                 14247  2 1578 
 4.0652E+03 2.8576E+02 2.4758E+02                                 14247  2 1579 
 4.0846E+03 3.7221E+01 2.6081E+02                                 14247  2 1580 
 4.1042E+03-6.5811E+02 2.6868E+02                                 14247  2 1581 
 4.1239E+03-1.6855E+02 2.7168E+02                                 14247  2 1582 
 4.1438E+03 4.4119E+02 2.6207E+02                                 14247  2 1583 
 4.1638E+03-2.3351E+02 2.7101E+02                                 14247  2 1584 
 4.1840E+03 2.5969E+02 2.7498E+02                                 14247  2 1585 
 4.2042E+03 4.5460E+02 2.6891E+02                                 14247  2 1586 
 4.2247E+03-1.8057E+02 2.9646E+02                                 14247  2 1587 
 4.2453E+03 2.5648E+02 3.0850E+02                                 14247  2 1588 
 4.2660E+03 2.6772E+02 3.4260E+02                                 14247  2 1589 
 4.2869E+03 5.1320E+02 3.8606E+02                                 14247  2 1590 
 4.3080E+03 4.8216E+01 4.2631E+02                                 14247  2 1591 
 4.3292E+03 5.6920E+01 4.6725E+02                                 14247  2 1592 
 4.3505E+03-4.0800E+01 4.1121E+02                                 14247  2 1593 
 4.3721E+03 1.3488E+02 3.6319E+02                                 14247  2 1594 
 4.3937E+03-1.5523E+02 3.3831E+02                                 14247  2 1595 
 4.4156E+03 1.2123E+02 3.0646E+02                                 14247  2 1596 
 4.4376E+03-4.7495E+02 3.2170E+02                                 14247  2 1597 
 4.4598E+03-2.4350E+02 2.9350E+02                                 14247  2 1598 
 4.4821E+03-4.1866E+01 2.8756E+02                                 14247  2 1599 
 4.5046E+03 1.6694E+02 2.8943E+02                                 14247  2 1600 
 4.5273E+03 3.2269E+02 2.7730E+02                                 14247  2 1601 
 4.5501E+03 3.2984E+02 2.8510E+02                                 14247  2 1602 
 4.5731E+03-7.3206E+00 2.8953E+02                                 14247  2 1603 
 4.5963E+03-1.5661E+02 2.9042E+02                                 14247  2 1604 
 4.6197E+03 1.9103E+01 2.9190E+02                                 14247  2 1605 
 4.6433E+03-3.7019E+02 3.0406E+02                                 14247  2 1606 
 4.6670E+03 4.7834E+01 2.9834E+02                                 14247  2 1607 
 4.6909E+03-1.6466E+02 3.0254E+02                                 14247  2 1608 
 4.7150E+03 1.3077E+02 2.9984E+02                                 14247  2 1609 
 4.7393E+03-1.7181E+02 3.0722E+02                                 14247  2 1610 
 4.7638E+03 9.5869E+01 3.0863E+02                                 14247  2 1611 
 4.7884E+03 3.1114E+02 3.1530E+02                                 14247  2 1612 
 4.8133E+03 3.6998E+02 3.1898E+02                                 14247  2 1613 
 4.8383E+03-3.2757E+02 3.4354E+02                                 14247  2 1614 
 4.8636E+03 2.6958E+02 3.4763E+02                                 14247  2 1615 
 4.8890E+03-4.3552E+02 3.6832E+02                                 14247  2 1616 
 4.9147E+03-3.1088E+02 3.7208E+02                                 14247  2 1617 
 4.9405E+03 7.2763E+00 3.5954E+02                                 14247  2 1618 
 4.9666E+03-8.1419E+01 3.4513E+02                                 14247  2 1619 
 4.9928E+03-3.9405E+01 3.7140E+02                                 14247  2 1620 
 5.0193E+03 4.9857E+02 3.4788E+02                                 14247  2 1621 
 5.0460E+03 6.9293E+02 3.4573E+02                                 14247  2 1622 
 5.0729E+03 1.6267E+02 3.6783E+02                                 14247  2 1623 
 5.1000E+03-1.1979E+02 3.6474E+02                                 14247  2 1624 
 5.1273E+03 2.1613E+02 3.3459E+02                                 14247  2 1625 
 5.1548E+03-8.2516E+01 3.7138E+02                                 14247  2 1626 
 5.1826E+03-3.3841E+01 3.2925E+02                                 14247  2 1627 
 5.2106E+03-3.8751E+02 3.5340E+02                                 14247  2 1628 
 5.2388E+03-1.2064E+02 3.2086E+02                                 14247  2 1629 
 5.2672E+03 1.7211E+02 3.1310E+02                                 14247  2 1630 
 5.2959E+03-3.3586E+02 3.3393E+02                                 14247  2 1631 
 5.3248E+03-2.7422E+02 3.0437E+02                                 14247  2 1632 
 5.3540E+03-4.9477E+02 3.1603E+02                                 14247  2 1633 
 5.3834E+03 9.7743E+01 2.9036E+02                                 14247  2 1634 
 5.4130E+03 1.7541E+02 2.8011E+02                                 14247  2 1635 
 5.4429E+03-4.6620E+02 2.8517E+02                                 14247  2 1636 
 5.4730E+03 1.0081E+02 2.7493E+02                                 14247  2 1637 
 5.5034E+03 3.8967E+02 2.7537E+02                                 14247  2 1638 
 5.5340E+03 1.1277E+02 2.6385E+02                                 14247  2 1639 
 5.5649E+03 4.9263E+02 2.6259E+02                                 14247  2 1640 
 5.5961E+03 3.5339E+02 2.5928E+02                                 14247  2 1641 
 5.6275E+03 6.7583E+00 2.6074E+02                                 14247  2 1642 
 5.6592E+03 1.1273E+02 2.5642E+02                                 14247  2 1643 
 5.6911E+03 2.7120E+02 2.5724E+02                                 14247  2 1644 
 5.7233E+03 1.0145E+02 2.5265E+02                                 14247  2 1645 
 5.7558E+03 7.6728E+01 2.5489E+02                                 14247  2 1646 
 5.7886E+03-3.6872E+01 2.5965E+02                                 14247  2 1647 
 5.8216E+03 6.0167E+01 2.5841E+02                                 14247  2 1648 
 5.8550E+03 9.4818E+01 2.8203E+02                                 14247  2 1649 
 5.8886E+03 7.8147E+02 4.5404E+02                                 14247  2 1650 
 5.9225E+03 5.0931E+02 3.5585E+02                                 14247  2 1651 
 5.9567E+03-2.2515E+02 2.7066E+02                                 14247  2 1652 
 5.9912E+03 2.3170E+02 2.5460E+02                                 14247  2 1653 
 6.0260E+03 1.4901E+02 2.4328E+02                                 14247  2 1654 
 6.0611E+03-2.8168E+02 2.5277E+02                                 14247  2 1655 
 6.0965E+03 2.5766E+02 2.4270E+02                                 14247  2 1656 
 6.1322E+03 4.4441E+01 2.4610E+02                                 14247  2 1657 
 6.1683E+03 8.2379E+01 2.6623E+02                                 14247  2 1658 
 6.2046E+03-1.7533E+02 2.4852E+02                                 14247  2 1659 
 6.2413E+03 1.0640E-02 2.4838E+02                                 14247  2 1660 
 6.2783E+03 9.6462E+01 2.3720E+02                                 14247  2 1661 
 6.3157E+03-4.6699E+01 2.4104E+02                                 14247  2 1662 
 6.3533E+03 1.6636E+02 2.3412E+02                                 14247  2 1663 
 6.3913E+03 1.0613E+02 2.3859E+02                                 14247  2 1664 
 6.4297E+03 3.2530E+01 2.4210E+02                                 14247  2 1665 
 6.4684E+03 1.7502E+02 2.3494E+02                                 14247  2 1666 
 6.5074E+03 2.3106E+02 2.3490E+02                                 14247  2 1667 
 6.5468E+03 1.2881E+02 2.3672E+02                                 14247  2 1668 
 6.5866E+03-1.5896E+02 2.4312E+02                                 14247  2 1669 
 6.6267E+03-3.6772E+01 2.4982E+02                                 14247  2 1670 
 6.6672E+03-8.8773E+01 2.3954E+02                                 14247  2 1671 
 6.7081E+03 7.9148E+01 2.3915E+02                                 14247  2 1672 
 6.7493E+03 1.9829E+02 2.3062E+02                                 14247  2 1673 
 6.7909E+03-3.3036E+02 2.3826E+02                                 14247  2 1674 
 6.8330E+03-4.1214E+02 2.5155E+02                                 14247  2 1675 
 6.8754E+03-1.0414E+02 2.4070E+02                                 14247  2 1676 
 6.9182E+03-4.3993E+02 2.3783E+02                                 14247  2 1677 
 6.9614E+03-4.7678E+02 2.4375E+02                                 14247  2 1678 
 7.0050E+03 7.9663E+01 2.2877E+02                                 14247  2 1679 
 7.0490E+03-2.1661E+02 2.3313E+02                                 14247  2 1680 
 7.0934E+03 6.8414E+02 2.2321E+02                                 14247  2 1681 
 7.1382E+03 5.3349E+01 2.3419E+02                                 14247  2 1682 
 7.1835E+03 2.5781E+02 2.2457E+02                                 14247  2 1683 
 7.2292E+03 5.4021E+01 2.3238E+02                                 14247  2 1684 
 7.2754E+03 3.6917E+02 2.2797E+02                                 14247  2 1685 
 7.3220E+03 1.1435E+02 2.3085E+02                                 14247  2 1686 
 7.3690E+03-1.3129E+02 2.2852E+02                                 14247  2 1687 
 7.4165E+03-5.5014E+02 2.3498E+02                                 14247  2 1688 
 7.4645E+03-3.5641E+02 2.3297E+02                                 14247  2 1689 
 7.5129E+03-2.2787E+02 2.2971E+02                                 14247  2 1690 
 7.5618E+03 3.7560E+02 2.1861E+02                                 14247  2 1691 
 7.6112E+03 1.8321E+02 2.2696E+02                                 14247  2 1692 
 7.6610E+03-3.0292E+02 2.3237E+02                                 14247  2 1693 
 7.7114E+03 3.5388E+02 2.2249E+02                                 14247  2 1694 
 7.7622E+03 3.7697E+01 2.2565E+02                                 14247  2 1695 
 7.8136E+03 1.8309E+02 2.2541E+02                                 14247  2 1696 
 7.8654E+03-3.5043E+02 2.2702E+02                                 14247  2 1697 
 7.9178E+03-2.5172E+01 2.2326E+02                                 14247  2 1698 
 7.9707E+03 3.5569E+02 2.2138E+02                                 14247  2 1699 
 8.0242E+03-5.4330E+01 2.3833E+02                                 14247  2 1700 
 8.0781E+03 1.3841E+02 2.5589E+02                                 14247  2 1701 
 8.1327E+03 6.0030E+01 2.3120E+02                                 14247  2 1702 
 8.1877E+03-3.1806E+02 2.3309E+02                                 14247  2 1703 
 8.2434E+03-6.9266E+02 2.3848E+02                                 14247  2 1704 
 8.2996E+03-8.6678E+01 2.2641E+02                                 14247  2 1705 
 8.3564E+03-1.0412E+02 2.3518E+02                                 14247  2 1706 
 8.4137E+03-3.3916E+00 2.2400E+02                                 14247  2 1707 
 8.4717E+03-1.0101E+02 2.2312E+02                                 14247  2 1708 
 8.5303E+03 1.6393E+02 2.2174E+02                                 14247  2 1709 
 8.5895E+03-1.8168E+02 2.2464E+02                                 14247  2 1710 
 8.6492E+03-6.1552E+02 2.2894E+02                                 14247  2 1711 
 8.7097E+03-1.7309E+01 2.2027E+02                                 14247  2 1712 
 8.7707E+03-1.3657E+02 2.3184E+02                                 14247  2 1713 
 8.8324E+03-6.4649E+01 2.2500E+02                                 14247  2 1714 
 8.8948E+03 4.6045E+02 2.1781E+02                                 14247  2 1715 
 8.9578E+03 6.0565E+01 2.1983E+02                                 14247  2 1716 
 9.0215E+03-1.7063E+01 2.1604E+02                                 14247  2 1717 
 9.0858E+03 2.7949E+02 2.1345E+02                                 14247  2 1718 
 9.1509E+03 1.1640E+02 2.2175E+02                                 14247  2 1719 
 9.2167E+03 1.2083E+02 2.1897E+02                                 14247  2 1720 
 9.2831E+03 1.3521E+02 2.1364E+02                                 14247  2 1721 
 9.3503E+03-1.7366E+01 2.2044E+02                                 14247  2 1722 
 9.4183E+03-3.0001E+02 2.2134E+02                                 14247  2 1723 
 9.4869E+03 1.8788E+02 2.1039E+02                                 14247  2 1724 
 9.5563E+03 3.8397E+02 2.1234E+02                                 14247  2 1725 
 9.6265E+03 1.0630E+02 2.1095E+02                                 14247  2 1726 
 9.6975E+03-1.8444E+02 2.1964E+02                                 14247  2 1727 
 9.7692E+03 6.8435E+01 2.1694E+02                                 14247  2 1728 
 9.8418E+03 1.6047E+01 2.1686E+02                                 14247  2 1729 
 9.9152E+03 1.1259E+02 2.1578E+02                                 14247  2 1730 
 9.9893E+03 4.4930E+01 2.1455E+02                                 14247  2 1731 
 1.0064E+04 2.7572E+02 2.1641E+02                                 14247  2 1732 
 1.0140E+04-3.1857E+02 2.2443E+02                                 14247  2 1733 
 1.0217E+04 1.4960E+02 2.1592E+02                                 14247  2 1734 
 1.0295E+04-2.2000E+02 2.2079E+02                                 14247  2 1735 
 1.0373E+04 8.8382E+01 2.1723E+02                                 14247  2 1736 
 1.0452E+04-1.6398E+02 2.1509E+02                                 14247  2 1737 
 1.0533E+04-5.2393E+02 2.2685E+02                                 14247  2 1738 
 1.0614E+04 1.0775E+02 2.1791E+02                                 14247  2 1739 
 1.0696E+04 2.0221E+01 2.3982E+02                                 14247  2 1740 
 1.0779E+04 1.3397E+01 2.2534E+02                                 14247  2 1741 
 1.0863E+04-8.5370E+01 2.1785E+02                                 14247  2 1742 
 1.0949E+04 1.5197E+01 2.1410E+02                                 14247  2 1743 
 1.1035E+04 1.1308E+02 2.1550E+02                                 14247  2 1744 
 1.1122E+04-1.1269E+02 2.1542E+02                                 14247  2 1745 
 1.1210E+04-1.5880E+02 2.1543E+02                                 14247  2 1746 
 1.1299E+04 1.7363E+02 2.1550E+02                                 14247  2 1747 
 1.1389E+04-1.1536E+02 2.1245E+02                                 14247  2 1748 
 1.1481E+04-4.3865E+02 2.2103E+02                                 14247  2 1749 
 1.1573E+04 6.2055E+01 2.0884E+02                                 14247  2 1750 
 1.1667E+04 9.0038E+01 2.0964E+02                                 14247  2 1751 
 1.1762E+04-3.9969E+01 2.1671E+02                                 14247  2 1752 
 1.1857E+04 2.7606E+02 2.0758E+02                                 14247  2 1753 
 1.1955E+04-4.3717E+01 2.1234E+02                                 14247  2 1754 
 1.2053E+04-6.0717E+01 2.1052E+02                                 14247  2 1755 
 1.2152E+04-3.0373E+02 2.1781E+02                                 14247  2 1756 
 1.2253E+04 1.4172E+02 2.1468E+02                                 14247  2 1757 
 1.2355E+04-4.6784E+01 2.1235E+02                                 14247  2 1758 
 1.2458E+04 3.9918E+01 2.0824E+02                                 14247  2 1759 
 1.2563E+04 3.8910E+02 2.0691E+02                                 14247  2 1760 
 1.2669E+04 2.2444E+02 2.0525E+02                                 14247  2 1761 
 1.2776E+04 3.1686E+02 2.0810E+02                                 14247  2 1762 
 1.2884E+04 1.9722E+02 2.0624E+02                                 14247  2 1763 
 1.2994E+04-1.8178E+02 2.0710E+02                                 14247  2 1764 
 1.3106E+04-3.0475E+01 2.0938E+02                                 14247  2 1765 
 1.3219E+04 1.5265E+02 2.0874E+02                                 14247  2 1766 
 1.3333E+04 8.8457E+00 2.1156E+02                                 14247  2 1767 
 1.3449E+04 3.0487E+02 2.0336E+02                                 14247  2 1768 
 1.3566E+04-9.3771E+01 2.1345E+02                                 14247  2 1769 
 1.3685E+04-6.5106E+01 2.0655E+02                                 14247  2 1770 
 1.3805E+04 8.2139E+01 2.0788E+02                                 14247  2 1771 
 1.3927E+04 2.3780E+02 2.0367E+02                                 14247  2 1772 
 1.4051E+04 3.6107E+02 1.9979E+02                                 14247  2 1773 
 1.4176E+04 2.5712E+01 2.0469E+02                                 14247  2 1774 
 1.4303E+04 4.3610E+02 2.0150E+02                                 14247  2 1775 
 1.4432E+04 1.9555E+02 1.9984E+02                                 14247  2 1776 
 1.4562E+04 5.5650E+01 2.0239E+02                                 14247  2 1777 
 1.4695E+04-3.5533E+01 2.0476E+02                                 14247  2 1778 
 1.4829E+04-3.4589E+02 2.0706E+02                                 14247  2 1779 
 1.4964E+04 1.9065E-01 2.0233E+02                                 14247  2 1780 
 1.5102E+04 2.8703E+02 1.9761E+02                                 14247  2 1781 
 1.5242E+04-2.2996E+02 2.0989E+02                                 14247  2 1782 
 1.5383E+04 1.1957E+02 2.0163E+02                                 14247  2 1783 
 1.5527E+04-7.1812E+01 2.0482E+02                                 14247  2 1784 
 1.5672E+04-9.2137E+01 2.1967E+02                                 14247  2 1785 
 1.5820E+04 2.1475E+02 2.0369E+02                                 14247  2 1786 
 1.5970E+04 9.2894E+01 2.0387E+02                                 14247  2 1787 
 1.6122E+04-2.4329E+02 2.0263E+02                                 14247  2 1788 
 1.6276E+04 2.0437E+02 1.9907E+02                                 14247  2 1789 
 1.6432E+04 1.2980E+01 1.9845E+02                                 14247  2 1790 
 1.6591E+04-9.6821E+01 2.0694E+02                                 14247  2 1791 
 1.6751E+04 9.2918E+01 2.0714E+02                                 14247  2 1792 
 1.6915E+04 2.0378E+02 2.1633E+02                                 14247  2 1793 
 1.7080E+04 1.3570E+02 2.1449E+02                                 14247  2 1794 
 1.7248E+04 2.2429E+02 1.9783E+02                                 14247  2 1795 
 1.7419E+04 3.1690E+02 1.9656E+02                                 14247  2 1796 
 1.7592E+04-2.0807E+01 1.9506E+02                                 14247  2 1797 
 1.7767E+04-1.9776E+02 2.0255E+02                                 14247  2 1798 
 1.7946E+04 1.5260E+02 1.9279E+02                                 14247  2 1799 
 1.8127E+04 2.0530E+02 1.9431E+02                                 14247  2 1800 
 1.8310E+04-4.4496E+02 1.9890E+02                                 14247  2 1801 
 1.8497E+04 1.8346E+01 1.9681E+02                                 14247  2 1802 
 1.8686E+04-3.0117E+01 1.9893E+02                                 14247  2 1803 
 1.8879E+04 4.0811E+00 1.9581E+02                                 14247  2 1804 
 1.9074E+04-2.9913E+01 1.9405E+02                                 14247  2 1805 
 1.9272E+04 6.9569E+01 1.9374E+02                                 14247  2 1806 
 1.9474E+04-2.1411E+02 1.9708E+02                                 14247  2 1807 
 1.9679E+04-1.7076E+01 2.0050E+02                                 14247  2 1808 
 1.9886E+04 8.7857E+01 1.9740E+02                                 14247  2 1809 
 2.0098E+04-3.4093E+01 1.9038E+02                                 14247  2 1810 
 2.0312E+04 3.4862E+02 1.8425E+02                                 14247  2 1811 
 2.0530E+04-3.8679E+01 1.8916E+02                                 14247  2 1812 
 2.0752E+04-1.4913E+01 1.9045E+02                                 14247  2 1813 
 2.0977E+04 1.2998E+02 1.8516E+02                                 14247  2 1814 
 2.1206E+04 2.2948E+02 1.8590E+02                                 14247  2 1815 
 2.1439E+04 6.3337E+01 1.8825E+02                                 14247  2 1816 
 2.1675E+04 8.5287E+00 1.9481E+02                                 14247  2 1817 
 2.1916E+04-2.9718E+01 2.0641E+02                                 14247  2 1818 
 2.2160E+04-9.2798E+01 1.9957E+02                                 14247  2 1819 
 2.2409E+04 7.8223E+01 2.0056E+02                                 14247  2 1820 
 2.2661E+04 2.2565E+02 2.0154E+02                                 14247  2 1821 
 2.2918E+04-2.3800E+01 1.8934E+02                                 14247  2 1822 
 2.3180E+04-8.6007E+01 1.8775E+02                                 14247  2 1823 
 2.3446E+04 3.4453E+02 1.7931E+02                                 14247  2 1824 
 2.3716E+04 9.7123E+01 1.8469E+02                                 14247  2 1825 
 2.3992E+04 2.2705E+02 1.8018E+02                                 14247  2 1826 
 2.4272E+04-7.1789E+01 1.8807E+02                                 14247  2 1827 
 2.4557E+04 2.9532E+02 1.8608E+02                                 14247  2 1828 
 2.4847E+04-2.5931E+02 1.8630E+02                                 14247  2 1829 
 2.5142E+04 9.4051E+01 1.9192E+02                                 14247  2 1830 
 2.5443E+04 4.5169E+02 1.8103E+02                                 14247  2 1831 
 2.5749E+04 2.6192E+01 1.8146E+02                                 14247  2 1832 
 2.6060E+04-5.1301E+02 1.8452E+02                                 14247  2 1833 
 2.6377E+04-5.7738E+00 1.7772E+02                                 14247  2 1834 
 2.6700E+04 1.3283E+02 1.7363E+02                                 14247  2 1835 
 2.7029E+04 4.5244E+01 1.7595E+02                                 14247  2 1836 
 2.7343E+04 6.4711E+01 2.3300E+02                                 14247  2 1837 
 2.7534E+04-5.9836E+02 2.7639E+02                                 14247  2 1838 
 2.7706E+04-4.4152E+02 2.5910E+02                                 14247  2 1839 
 2.7879E+04-2.0226E+02 2.5104E+02                                 14247  2 1840 
 2.8054E+04-2.1103E+02 2.5885E+02                                 14247  2 1841 
 2.8230E+04 3.7684E+02 2.4038E+02                                 14247  2 1842 
 2.8408E+04 2.1493E+02 2.3984E+02                                 14247  2 1843 
 2.8588E+04-5.6096E+02 2.6513E+02                                 14247  2 1844 
 2.8769E+04-5.4003E+01 2.4252E+02                                 14247  2 1845 
 2.8952E+04-1.4460E+01 2.4239E+02                                 14247  2 1846 
 2.9137E+04 3.6690E+02 2.3320E+02                                 14247  2 1847 
 2.9324E+04-2.8254E+02 2.4707E+02                                 14247  2 1848 
 2.9513E+04 1.3246E+02 2.3935E+02                                 14247  2 1849 
 2.9703E+04 7.5659E+02 2.2797E+02                                 14247  2 1850 
 2.9895E+04 7.5616E+01 2.4370E+02                                 14247  2 1851 
 3.0089E+04 3.8150E+01 2.5414E+02                                 14247  2 1852 
 3.0285E+04 2.4027E+02 2.9455E+02                                 14247  2 1853 
 3.0483E+04 1.4429E+02 2.7651E+02                                 14247  2 1854 
 3.0683E+04 9.4869E+01 2.3359E+02                                 14247  2 1855 
 3.0885E+04 4.4276E+01 2.3631E+02                                 14247  2 1856 
 3.1088E+04-4.3693E+01 2.2645E+02                                 14247  2 1857 
 3.1294E+04 3.8207E+02 2.2330E+02                                 14247  2 1858 
 3.1502E+04-2.7199E+01 2.3660E+02                                 14247  2 1859 
 3.1712E+04 4.8629E+02 2.2022E+02                                 14247  2 1860 
 3.1924E+04 5.6865E+01 2.3175E+02                                 14247  2 1861 
 3.2138E+04 1.1558E+02 2.3060E+02                                 14247  2 1862 
 3.2355E+04 2.5330E+02 2.3440E+02                                 14247  2 1863 
 3.2573E+04-3.4885E+02 2.4820E+02                                 14247  2 1864 
 3.2794E+04-1.3517E+01 2.5163E+02                                 14247  2 1865 
 3.3017E+04-1.7341E+02 2.6836E+02                                 14247  2 1866 
 3.3242E+04-7.4829E+01 2.9461E+02                                 14247  2 1867 
 3.3470E+04-4.0531E+02 2.8704E+02                                 14247  2 1868 
 3.3700E+04 4.8524E+02 2.8943E+02                                 14247  2 1869 
 3.3932E+04 7.3325E+01 3.3423E+02                                 14247  2 1870 
 3.4167E+04-6.8164E+01 3.9401E+02                                 14247  2 1871 
ENDDATA           1862          0                                 14247  2 1872 
ENDSUBENT         1871          0                                 14247  299999 
ENDENTRY             2          0                                 1424799999999 
