ENTRY            14282   20110202                             13711428200000001 
SUBENT        14282001   20110202                             13711428200100001 
BIB                 10         18                                 1428200100002 
TITLE      Effect of Pu240 Compound-Nucleus State on the          1428200100003 
           Fission-Fragment Mass and Kinetic Energy Distributions 1428200100004 
AUTHOR     (J.Toraskar,E.Melkonian)                               1428200100005 
INSTITUTE  (1USACOL)                                              1428200100006 
REFERENCE  (J,PR/C,4,267,1971)                                    1428200100007 
FACILITY   (REAC,1USABNL) Experiment performed using neutron      1428200100008 
           beam from the Brookhaven Graphite Research Reactor     1428200100009 
SAMPLE     An enriched 239Pu (99.5%) target prepared by vacuum    1428200100010 
           evaporation of plutonium fluoride onto a 5 mil thick   1428200100011 
           nickel foil was used. The thickness of the deposit     1428200100012 
           was about 18 mu-g/cm2 on an area of about 150 mm2.     1428200100013 
DETECTOR   (SIBAR) Surface barrier detector with active area of   1428200100014 
           4 cm2                                                  1428200100015 
METHOD     (FNB)                                                  1428200100016 
INC-SPECT  Beryllium filter transmits neutrons bellow 0.0052 eV   1428200100017 
           Samarium filtered beam comprised  of 80 % of neutrons  1428200100018 
           from 0.297 eV level                                    1428200100019 
HISTORY    (20110202C) Compiled by S.H.                           1428200100020 
ENDBIB              18          0                                 1428200100021 
NOCOMMON             0          0                                 1428200100022 
ENDSUBENT           21          0                                 1428200199999 
SUBENT        14282002   20110207                             13711428200200001 
BIB                  3          3                                 1428200200002 
REACTION   (94-PU-239(N,F)MASS,SEC,FY,,SPA/REL)                   1428200200003 
STATUS     (CURVE) Data taken from fig. 4 of the reference        1428200200004 
INC-SOURCE (REAC) Beryllium filtered beam                         1428200200005 
ENDBIB               3          0                                 1428200200006 
COMMON               1          3                                 1428200200007 
EN-DUMMY                                                          1428200200008 
EV                                                                1428200200009 
0.0024                                                            1428200200010 
ENDCOMMON            3          0                                 1428200200011 
DATA                 2        100                                 1428200200012 
MASS       DATA                                                   1428200200013 
NO-DIM     ARB-UNITS                                              1428200200014 
    71.0          9.0                                             1428200200015 
    72.0          7.0                                             1428200200016 
    73.0          7.0                                             1428200200017 
    74.0          6.0                                             1428200200018 
    75.0         10.0                                             1428200200019 
    76.0         13.0                                             1428200200020 
    77.0         23.0                                             1428200200021 
    78.0         30.0                                             1428200200022 
    79.0         39.0                                             1428200200023 
    80.0         52.0                                             1428200200024 
    81.0         68.0                                             1428200200025 
    82.0         99.0                                             1428200200026 
    83.0        127.0                                             1428200200027 
    84.0        161.0                                             1428200200028 
    85.0        197.0                                             1428200200029 
    86.0        256.0                                             1428200200030 
    87.0        317.0                                             1428200200031 
    88.0        397.0                                             1428200200032 
    89.0        467.0                                             1428200200033 
    90.0        565.0                                             1428200200034 
    91.0        703.0                                             1428200200035 
    92.0        828.0                                             1428200200036 
    93.0       1001.0                                             1428200200037 
    94.0       1179.0                                             1428200200038 
    95.0       1356.0                                             1428200200039 
    96.0       1492.0                                             1428200200040 
    97.0       1599.0                                             1428200200041 
    98.0       1749.0                                             1428200200042 
    99.0       1811.0                                             1428200200043 
   100.0       1920.0                                             1428200200044 
   101.0       1993.0                                             1428200200045 
   102.0       2035.0                                             1428200200046 
   103.0       1958.0                                             1428200200047 
   104.0       1923.0                                             1428200200048 
   105.0       1882.0                                             1428200200049 
   106.0       1734.0                                             1428200200050 
   107.0       1540.0                                             1428200200051 
   108.0       1250.0                                             1428200200052 
   109.0        999.0                                             1428200200053 
   110.0        750.0                                             1428200200054 
   111.0        550.0                                             1428200200055 
   112.0        367.0                                             1428200200056 
   113.0        237.0                                             1428200200057 
   114.0        147.0                                             1428200200058 
   115.0         93.0                                             1428200200059 
   116.0         53.0                                             1428200200060 
   117.0         37.0                                             1428200200061 
   118.0         29.0                                             1428200200062 
   119.0         28.0                                             1428200200063 
   120.0         21.0                                             1428200200064 
   121.0         28.0                                             1428200200065 
   122.0         26.0                                             1428200200066 
   123.0         38.0                                             1428200200067 
   124.0         59.0                                             1428200200068 
   125.0        108.0                                             1428200200069 
   126.0        190.0                                             1428200200070 
   127.0        290.0                                             1428200200071 
   128.0        433.0                                             1428200200072 
   129.0        613.0                                             1428200200073 
   130.0        827.0                                             1428200200074 
   131.0       1081.0                                             1428200200075 
   132.0       1334.0                                             1428200200076 
   133.0       1593.0                                             1428200200077 
   134.0       1764.0                                             1428200200078 
   135.0       1869.0                                             1428200200079 
   136.0       1934.0                                             1428200200080 
   137.0       1964.0                                             1428200200081 
   138.0       1987.0                                             1428200200082 
   139.0       1973.0                                             1428200200083 
   140.0       1883.0                                             1428200200084 
   141.0       1792.0                                             1428200200085 
   142.0       1673.0                                             1428200200086 
   143.0       1548.0                                             1428200200087 
   144.0       1449.0                                             1428200200088 
   145.0       1323.0                                             1428200200089 
   146.0       1145.0                                             1428200200090 
   147.0        965.0                                             1428200200091 
   148.0        831.0                                             1428200200092 
   149.0        685.0                                             1428200200093 
   150.0        566.0                                             1428200200094 
   151.0        451.0                                             1428200200095 
   152.0        371.0                                             1428200200096 
   153.0        310.0                                             1428200200097 
   154.0        241.0                                             1428200200098 
   155.0        190.0                                             1428200200099 
   156.0        154.0                                             1428200200100 
   157.0        129.0                                             1428200200101 
   158.0        101.0                                             1428200200102 
   159.0         75.0                                             1428200200103 
   160.0         57.0                                             1428200200104 
   161.0         41.0                                             1428200200105 
   162.0         31.0                                             1428200200106 
   163.0         27.0                                             1428200200107 
   164.0         21.0                                             1428200200108 
   165.0         17.0                                             1428200200109 
   166.0         12.0                                             1428200200110 
   167.0         12.0                                             1428200200111 
   168.0         13.0                                             1428200200112 
   169.0         13.0                                             1428200200113 
   170.0          9.0                                             1428200200114 
ENDDATA            102          0                                 1428200200115 
ENDSUBENT          114          0                                 1428200299999 
SUBENT        14282003   20110207                             13711428200300001 
BIB                  3          3                                 1428200300002 
REACTION   (94-PU-239(N,F)MASS,SEC,FY,,SPA/REL)                   1428200300003 
STATUS     (CURVE) Data taken from fig. 4 of the reference        1428200300004 
INC-SOURCE (REAC) Samarium filtered beam                          1428200300005 
ENDBIB               3          0                                 1428200300006 
COMMON               1          3                                 1428200300007 
EN-DUMMY                                                          1428200300008 
EV                                                                1428200300009 
0.2                                                               1428200300010 
ENDCOMMON            3          0                                 1428200300011 
DATA                 2         95                                 1428200300012 
MASS       DATA                                                   1428200300013 
NO-DIM     ARB-UNITS                                              1428200300014 
     70.0        1.0                                              1428200300015 
     71.0        1.0                                              1428200300016 
     72.0        5.0                                              1428200300017 
     73.0        6.0                                              1428200300018 
     74.0        6.0                                              1428200300019 
     75.0        6.0                                              1428200300020 
     76.0        6.0                                              1428200300021 
     77.0       15.0                                              1428200300022 
     78.0       27.0                                              1428200300023 
     79.0       36.0                                              1428200300024 
     80.0       43.0                                              1428200300025 
     81.0       56.0                                              1428200300026 
     82.0       85.0                                              1428200300027 
     83.0      119.0                                              1428200300028 
     84.0      146.0                                              1428200300029 
     85.0      175.0                                              1428200300030 
     86.0      235.0                                              1428200300031 
     87.0      303.0                                              1428200300032 
     88.0      355.0                                              1428200300033 
     89.0      454.0                                              1428200300034 
     90.0      541.0                                              1428200300035 
     91.0      663.0                                              1428200300036 
     92.0      783.0                                              1428200300037 
     93.0      967.0                                              1428200300038 
     94.0     1153.0                                              1428200300039 
     95.0     1330.0                                              1428200300040 
     96.0     1428.0                                              1428200300041 
     97.0     1587.0                                              1428200300042 
     98.0     1678.0                                              1428200300043 
     99.0     1787.0                                              1428200300044 
    100.0     1902.0                                              1428200300045 
    101.0     1956.0                                              1428200300046 
    102.0     1963.0                                              1428200300047 
    103.0     1985.0                                              1428200300048 
    104.0     1899.0                                              1428200300049 
    105.0     1802.0                                              1428200300050 
    106.0     1727.0                                              1428200300051 
    107.0     1537.0                                              1428200300052 
    108.0     1296.0                                              1428200300053 
    109.0     1046.0                                              1428200300054 
    110.0      767.0                                              1428200300055 
    111.0      575.0                                              1428200300056 
    112.0      371.0                                              1428200300057 
    113.0      252.0                                              1428200300058 
    114.0      139.0                                              1428200300059 
    115.0       84.0                                              1428200300060 
    116.0       43.0                                              1428200300061 
    117.0       29.0                                              1428200300062 
    118.0       19.0                                              1428200300063 
    119.0       15.0                                              1428200300064 
    120.0       16.0                                              1428200300065 
    121.0       11.0                                              1428200300066 
    122.0       16.0                                              1428200300067 
    123.0       25.0                                              1428200300068 
    124.0       48.0                                              1428200300069 
    125.0       87.0                                              1428200300070 
    126.0      140.0                                              1428200300071 
    127.0      231.0                                              1428200300072 
    128.0      382.0                                              1428200300073 
    129.0      510.0                                              1428200300074 
    130.0      787.0                                              1428200300075 
    131.0      998.0                                              1428200300076 
    132.0     1257.0                                              1428200300077 
    133.0     1534.0                                              1428200300078 
    134.0     1756.0                                              1428200300079 
    135.0     1871.0                                              1428200300080 
    136.0     1995.0                                              1428200300081 
    137.0     1967.0                                              1428200300082 
    138.0     1960.0                                              1428200300083 
    139.0     1994.0                                              1428200300084 
    140.0     1919.0                                              1428200300085 
    141.0     1806.0                                              1428200300086 
    142.0     1718.0                                              1428200300087 
    143.0     1596.0                                              1428200300088 
    144.0     1481.0                                              1428200300089 
    145.0     1369.0                                              1428200300090 
    146.0     1125.0                                              1428200300091 
    147.0     1002.0                                              1428200300092 
    148.0      814.0                                              1428200300093 
    149.0      694.0                                              1428200300094 
    150.0      595.0                                              1428200300095 
    151.0      438.0                                              1428200300096 
    152.0      381.0                                              1428200300097 
    153.0      321.0                                              1428200300098 
    154.0      253.0                                              1428200300099 
    155.0      198.0                                              1428200300100 
    156.0      156.0                                              1428200300101 
    157.0      114.0                                              1428200300102 
    158.0       79.0                                              1428200300103 
    159.0       68.0                                              1428200300104 
    160.0       59.0                                              1428200300105 
    161.0       31.0                                              1428200300106 
    162.0       24.0                                              1428200300107 
    163.0        9.0                                              1428200300108 
    164.0        5.0                                              1428200300109 
ENDDATA             97          0                                 1428200300110 
ENDSUBENT          109          0                                 1428200399999 
SUBENT        14282004   20110207                             13711428200400001 
BIB                  3          3                                 1428200400002 
REACTION   (94-PU-239(N,F)MASS,PRE,FY,,SPA/REL)                   1428200400003 
STATUS     (CURVE) Data taken from fig. 5 of the reference        1428200400004 
INC-SOURCE (REAC) Beryllium filtered beam                         1428200400005 
ENDBIB               3          0                                 1428200400006 
COMMON               1          3                                 1428200400007 
EN-DUMMY                                                          1428200400008 
EV                                                                1428200400009 
0.0024                                                            1428200400010 
ENDCOMMON            3          0                                 1428200400011 
DATA                 2         51                                 1428200400012 
MASS       DATA                                                   1428200400013 
NO-DIM     ARB-UNITS                                              1428200400014 
   120.0        11.0                                              1428200400015 
   121.0        13.0                                              1428200400016 
   122.0        23.0                                              1428200400017 
   123.0        26.0                                              1428200400018 
   124.0        29.0                                              1428200400019 
   125.0        43.0                                              1428200400020 
   126.0        81.0                                              1428200400021 
   127.0       146.0                                              1428200400022 
   128.0       261.0                                              1428200400023 
   129.0       469.0                                              1428200400024 
   130.0       644.0                                              1428200400025 
   131.0       929.0                                              1428200400026 
   132.0      1262.0                                              1428200400027 
   133.0      1643.0                                              1428200400028 
   134.0      1918.0                                              1428200400029 
   135.0      2061.0                                              1428200400030 
   136.0      2047.0                                              1428200400031 
   137.0      2052.0                                              1428200400032 
   138.0      1996.0                                              1428200400033 
   139.0      1927.0                                              1428200400034 
   140.0      1990.0                                              1428200400035 
   141.0      1923.0                                              1428200400036 
   142.0      1812.0                                              1428200400037 
   143.0      1710.0                                              1428200400038 
   144.0      1542.0                                              1428200400039 
   145.0      1384.0                                              1428200400040 
   146.0      1196.0                                              1428200400041 
   147.0      1024.0                                              1428200400042 
   148.0       807.0                                              1428200400043 
   149.0       668.0                                              1428200400044 
   150.0       522.0                                              1428200400045 
   151.0       440.0                                              1428200400046 
   152.0       364.0                                              1428200400047 
   153.0       278.0                                              1428200400048 
   153.0       952.0                                              1428200400049 
   154.0       250.0                                              1428200400050 
   155.0       204.0                                              1428200400051 
   156.0       165.0                                              1428200400052 
   157.0       137.0                                              1428200400053 
   158.0        96.0                                              1428200400054 
   159.0        85.0                                              1428200400055 
   160.0        55.0                                              1428200400056 
   161.0        41.0                                              1428200400057 
   162.0        35.0                                              1428200400058 
   163.0        28.0                                              1428200400059 
   164.0        26.0                                              1428200400060 
   165.0        13.0                                              1428200400061 
   166.0         8.0                                              1428200400062 
   167.0         6.0                                              1428200400063 
   168.0         5.0                                              1428200400064 
   169.0         3.0                                              1428200400065 
ENDDATA             53          0                                 1428200400066 
ENDSUBENT           65          0                                 1428200499999 
SUBENT        14282005   20110207                             13711428200500001 
BIB                  3          3                                 1428200500002 
REACTION   (94-PU-239(N,F)MASS,PRE,FY,,SPA/REL)                   1428200500003 
STATUS     (CURVE) Data taken from fig. 5 of the reference        1428200500004 
INC-SOURCE (REAC) Samarium filtered beam                          1428200500005 
ENDBIB               3          0                                 1428200500006 
COMMON               1          3                                 1428200500007 
EN                                                                1428200500008 
EV                                                                1428200500009 
0.2                                                               1428200500010 
ENDCOMMON            3          0                                 1428200500011 
DATA                 2         47                                 1428200500012 
MASS       DATA                                                   1428200500013 
NO-DIM     ARB-UNITS                                              1428200500014 
   120.0         4.0                                              1428200500015 
   121.0         6.0                                              1428200500016 
   122.0         6.0                                              1428200500017 
   123.0        13.0                                              1428200500018 
   124.0        22.0                                              1428200500019 
   125.0        41.0                                              1428200500020 
   126.0        78.0                                              1428200500021 
   127.0       137.0                                              1428200500022 
   128.0       243.0                                              1428200500023 
   129.0       420.0                                              1428200500024 
   130.0       617.0                                              1428200500025 
   131.0       921.0                                              1428200500026 
   132.0      1281.0                                              1428200500027 
   133.0      1642.0                                              1428200500028 
   134.0      1935.0                                              1428200500029 
   135.0      2062.0                                              1428200500030 
   136.0      2063.0                                              1428200500031 
   137.0      2078.0                                              1428200500032 
   138.0      2030.0                                              1428200500033 
   139.0      1955.0                                              1428200500034 
   140.0      2018.0                                              1428200500035 
   141.0      1958.0                                              1428200500036 
   142.0      1844.0                                              1428200500037 
   143.0      1737.0                                              1428200500038 
   144.0      1588.0                                              1428200500039 
   145.0      1412.0                                              1428200500040 
   146.0      1212.0                                              1428200500041 
   147.0      1032.0                                              1428200500042 
   148.0       847.0                                              1428200500043 
   149.0       685.0                                              1428200500044 
   150.0       528.0                                              1428200500045 
   151.0       425.0                                              1428200500046 
   152.0       337.0                                              1428200500047 
   153.0       289.0                                              1428200500048 
   154.0       250.0                                              1428200500049 
   155.0       195.0                                              1428200500050 
   156.0       154.0                                              1428200500051 
   157.0       116.0                                              1428200500052 
   158.0        83.0                                              1428200500053 
   159.0        73.0                                              1428200500054 
   160.0        61.0                                              1428200500055 
   161.0        34.0                                              1428200500056 
   162.0        24.0                                              1428200500057 
   163.0        12.0                                              1428200500058 
   164.0        10.0                                              1428200500059 
   165.0         6.0                                              1428200500060 
   166.0         3.0                                              1428200500061 
ENDDATA             49          0                                 1428200500062 
ENDSUBENT           61          0                                 1428200599999 
SUBENT        14282006   20110207                             13711428200600001 
BIB                  3          3                                 1428200600002 
REACTION   (94-PU-239(N,F),,DE,LF+HF,SPA/REL)                     1428200600003 
STATUS     (CURVE) Data taken from fig. 3 of the reference        1428200600004 
INC-SOURCE (REAC) Beryllium filtered beam                         1428200600005 
ENDBIB               3          0                                 1428200600006 
COMMON               1          3                                 1428200600007 
EN-DUMMY                                                          1428200600008 
EV                                                                1428200600009 
0.0024                                                            1428200600010 
ENDCOMMON            3          0                                 1428200600011 
DATA                 2         84                                 1428200600012 
E          DATA                                                   1428200600013 
MEV        ARB-UNITS                                              1428200600014 
  129.6         11.5                                              1428200600015 
  130.8         14.2                                              1428200600016 
  131.9         16.9                                              1428200600017 
  133.0         17.0                                              1428200600018 
  134.1         19.7                                              1428200600019 
  135.2         24.9                                              1428200600020 
  136.4         32.8                                              1428200600021 
  137.5         43.2                                              1428200600022 
  138.6         45.9                                              1428200600023 
  139.8         58.8                                              1428200600024 
  141.0         69.2                                              1428200600025 
  142.1         82.2                                              1428200600026 
  143.1        100.3                                              1428200600027 
  144.3        126.1                                              1428200600028 
  145.7        157.1                                              1428200600029 
  146.7        175.2                                              1428200600030 
  147.9        216.4                                              1428200600031 
  149.0        262.8                                              1428200600032 
  150.1        306.6                                              1428200600033 
  151.2        347.9                                              1428200600034 
  152.5        422.5                                              1428200600035 
  153.6        504.9                                              1428200600036 
  154.7        566.7                                              1428200600037 
  155.9        667.0                                              1428200600038 
  157.1        749.4                                              1428200600039 
  158.1        826.6                                              1428200600040 
  159.3        932.1                                              1428200600041 
  160.5       1063.2                                              1428200600042 
  161.6       1130.2                                              1428200600043 
  162.8       1274.2                                              1428200600044 
  163.8       1377.1                                              1428200600045 
  165.1       1500.6                                              1428200600046 
  166.0       1575.2                                              1428200600047 
  167.2       1670.4                                              1428200600048 
  168.4       1783.6                                              1428200600049 
  169.3       1837.7                                              1428200600050 
  170.6       1956.0                                              1428200600051 
  171.8       2012.7                                              1428200600052 
  172.8       2077.0                                              1428200600053 
  174.0       2138.8                                              1428200600054 
  175.1       2151.8                                              1428200600055 
  176.3       2162.2                                              1428200600056 
  177.3       2206.0                                              1428200600057 
  178.6       2170.2                                              1428200600058 
  179.7       2149.7                                              1428200600059 
  180.9       2121.6                                              1428200600060 
  182.0       2057.5                                              1428200600061 
  183.3       2006.2                                              1428200600062 
  184.3       1957.5                                              1428200600063 
  185.4       1862.6                                              1428200600064 
  186.6       1816.4                                              1428200600065 
  187.7       1711.2                                              1428200600066 
  188.9       1629.1                                              1428200600067 
  190.2       1529.0                                              1428200600068 
  191.3       1434.0                                              1428200600069 
  192.4       1357.1                                              1428200600070 
  193.5       1249.3                                              1428200600071 
  194.7       1118.3                                              1428200600072 
  195.9       1018.3                                              1428200600073 
  197.0        913.0                                              1428200600074 
  198.2        810.4                                              1428200600075 
  199.3        723.1                                              1428200600076 
  200.4        674.4                                              1428200600077 
  201.6        533.2                                              1428200600078 
  202.7        471.6                                              1428200600079 
  204.1        366.4                                              1428200600080 
  205.1        307.4                                              1428200600081 
  206.2        256.2                                              1428200600082 
  207.4        199.8                                              1428200600083 
  208.5        171.6                                              1428200600084 
  209.7        130.6                                              1428200600085 
  210.8         92.2                                              1428200600086 
  212.0         66.6                                              1428200600087 
  213.0         61.6                                              1428200600088 
  214.2         43.7                                              1428200600089 
  215.4         25.9                                              1428200600090 
  216.6         20.9                                              1428200600091 
  217.7         18.4                                              1428200600092 
  218.8         16.0                                              1428200600093 
  220.0         11.0                                              1428200600094 
  221.1         11.1                                              1428200600095 
  222.3         11.2                                              1428200600096 
  223.4          8.8                                              1428200600097 
  224.6         11.5                                              1428200600098 
ENDDATA             86          0                                 1428200600099 
ENDSUBENT           98          0                                 1428200699999 
SUBENT        14282007   20110207                             13711428200700001 
BIB                  3          3                                 1428200700002 
REACTION   (94-PU-239(N,F),,DE,LF+HF,SPA/REL)                     1428200700003 
STATUS     (CURVE) Data taken from fig. 3 of the reference        1428200700004 
INC-SOURCE (REAC) Samarium filtered beam                          1428200700005 
ENDBIB               3          0                                 1428200700006 
COMMON               1          3                                 1428200700007 
EN-DUMMY                                                          1428200700008 
EV                                                                1428200700009 
0.2                                                               1428200700010 
ENDCOMMON            3          0                                 1428200700011 
DATA                 2         85                                 1428200700012 
E          DATA                                                   1428200700013 
MEV        ARB-UNITS                                              1428200700014 
    128.5        8.8                                              1428200700015 
    129.4        3.7                                              1428200700016 
    130.8        6.5                                              1428200700017 
    131.9       11.7                                              1428200700018 
    133.0       14.4                                              1428200700019 
    134.1       14.5                                              1428200700020 
    135.2       19.8                                              1428200700021 
    136.5       27.6                                              1428200700022 
    137.5       32.9                                              1428200700023 
    138.7       40.7                                              1428200700024 
    139.8       46.0                                              1428200700025 
    141.0       59.0                                              1428200700026 
    142.2       74.5                                              1428200700027 
    143.2       87.5                                              1428200700028 
    144.4      105.6                                              1428200700029 
    145.7      123.7                                              1428200700030 
    146.8      152.1                                              1428200700031 
    148.0      185.6                                              1428200700032 
    149.0      229.4                                              1428200700033 
    150.3      283.5                                              1428200700034 
    151.4      314.5                                              1428200700035 
    152.5      381.4                                              1428200700036 
    153.7      432.9                                              1428200700037 
    154.8      510.1                                              1428200700038 
    155.8      600.2                                              1428200700039 
    157.1      685.1                                              1428200700040 
    158.2      749.5                                              1428200700041 
    159.2      819.0                                              1428200700042 
    160.5      965.6                                              1428200700043 
    161.5     1045.4                                              1428200700044 
    162.7     1158.6                                              1428200700045 
    163.8     1310.3                                              1428200700046 
    164.8     1392.6                                              1428200700047 
    166.0     1480.1                                              1428200700048 
    167.2     1621.6                                              1428200700049 
    168.3     1709.1                                              1428200700050 
    169.6     1814.6                                              1428200700051 
    170.7     1904.6                                              1428200700052 
    171.7     1943.3                                              1428200700053 
    172.8     2028.2                                              1428200700054 
    174.0     2051.5                                              1428200700055 
    175.2     2092.7                                              1428200700056 
    176.2     2141.7                                              1428200700057 
    177.5     2203.5                                              1428200700058 
    178.6     2193.3                                              1428200700059 
    179.7     2183.1                                              1428200700060 
    180.8     2160.1                                              1428200700061 
    182.0     2173.1                                              1428200700062 
    183.1     2047.3                                              1428200700063 
    184.4     2042.3                                              1428200700064 
    185.3     1978.2                                              1428200700065 
    186.7     1855.0                                              1428200700066 
    187.9     1770.3                                              1428200700067 
    188.9     1713.9                                              1428200700068 
    190.0     1588.1                                              1428200700069 
    191.3     1472.6                                              1428200700070 
    192.4     1377.6                                              1428200700071 
    193.5     1295.5                                              1428200700072 
    194.7     1192.9                                              1428200700073 
    195.8     1139.0                                              1428200700074 
    197.0      977.3                                              1428200700075 
    198.2      887.4                                              1428200700076 
    199.3      787.3                                              1428200700077 
    200.5      674.4                                              1428200700078 
    201.7      605.2                                              1428200700079 
    202.8      510.2                                              1428200700080 
    204.0      438.4                                              1428200700081 
    205.2      351.1                                              1428200700082 
    206.3      284.4                                              1428200700083 
    207.4      228.0                                              1428200700084 
    208.5      181.9                                              1428200700085 
    209.7      153.8                                              1428200700086 
    210.9      112.8                                              1428200700087 
    212.0       89.8                                              1428200700088 
    213.1       64.2                                              1428200700089 
    214.2       48.9                                              1428200700090 
    215.4       36.2                                              1428200700091 
    216.6       28.6                                              1428200700092 
    217.7       23.6                                              1428200700093 
    218.8       13.4                                              1428200700094 
    220.1        8.4                                              1428200700095 
    221.1        8.5                                              1428200700096 
    222.2       11.2                                              1428200700097 
    223.4        8.8                                              1428200700098 
    224.6        8.9                                              1428200700099 
ENDDATA             87          0                                 1428200700100 
ENDSUBENT           99          0                                 1428200799999 
SUBENT        14282008   20110207                             13711428200800001 
BIB                  4          6                                 1428200800002 
REACTION  1(94-PU-239(N,F),SEC,AKE,LF,SPA)                        1428200800003 
          2(94-PU-239(N,F),SEC,AKE,HF,SPA)                        1428200800004 
          3(94-PU-239(N,F),SEC,AKE,LF+HF,SPA)                     1428200800005 
STATUS     (TABLE) Data taken from tab. 1 of the reference        1428200800006 
INC-SOURCE (REAC) Beryllium filtered beam                         1428200800007 
ERR-ANALYS (ERR-S) Statistical uncertainty                        1428200800008 
ENDBIB               6          0                                 1428200800009 
COMMON               1          3                                 1428200800010 
EN-DUMMY                                                          1428200800011 
EV                                                                1428200800012 
0.004                                                             1428200800013 
ENDCOMMON            3          0                                 1428200800014 
DATA                 6          1                                 1428200800015 
DATA      1ERR-S     1DATA      2ERR-S     2DATA      3ERR-S     31428200800016 
MEV        MEV        MEV        MEV        MEV        MEV        1428200800017 
  100.66     0.01       72.32      0.02       172.98     0.02     1428200800018 
ENDDATA              3          0                                 1428200800019 
ENDSUBENT           18          0                                 1428200899999 
SUBENT        14282009   20110207                             13711428200900001 
BIB                  4          6                                 1428200900002 
REACTION  1(94-PU-239(N,F),SEC,AKE,LF,SPA)                        1428200900003 
          2(94-PU-239(N,F),SEC,AKE,HF,SPA)                        1428200900004 
          3(94-PU-239(N,F),SEC,AKE,LF+HF,SPA)                     1428200900005 
STATUS     (TABLE) Data taken from tab. 1 of the reference        1428200900006 
INC-SOURCE (REAC) Samarium filtered beam                          1428200900007 
ERR-ANALYS (ERR-S) Statistical uncertainty                        1428200900008 
ENDBIB               6          0                                 1428200900009 
COMMON               1          3                                 1428200900010 
EN-DUMMY                                                          1428200900011 
EV                                                                1428200900012 
0.2                                                               1428200900013 
ENDCOMMON            3          0                                 1428200900014 
DATA                 6          1                                 1428200900015 
DATA      1ERR-S     1DATA      2ERR-S     2DATA      3ERR-S     31428200900016 
MEV        MEV        MEV        MEV        MEV        MEV        1428200900017 
  100.99     0.02       72.72     0.03       173.71     0.04      1428200900018 
ENDDATA              3          0                                 1428200900019 
ENDSUBENT           18          0                                 1428200999999 
SUBENT        14282010   20110207                             13711428201000001 
BIB                  4          8                                 1428201000002 
REACTION  1(94-PU-239(N,F),PRE,AKE,LF,SPA)                        1428201000003 
          2(94-PU-239(N,F),PRE,AKE,HF,SPA)                        1428201000004 
          3(94-PU-239(N,F),PRE,AKE,LF+HF,SPA)                     1428201000005 
STATUS     (TABLE) Data taken from tab. 2 of the reference        1428201000006 
           (DEP,14282008)                                         1428201000007 
ERR-ANALYS (ERR-T) Total uncertainty, combination of statistical  1428201000008 
                   uncertainty and calibration uncertainty        1428201000009 
INC-SOURCE (REAC) Beryllium filtered beam                         1428201000010 
ENDBIB               8          0                                 1428201000011 
COMMON               1          3                                 1428201000012 
EN-DUMMY                                                          1428201000013 
EV                                                                1428201000014 
0.004                                                             1428201000015 
ENDCOMMON            3          0                                 1428201000016 
DATA                 6          1                                 1428201000017 
DATA      1ERR-T     1DATA      2ERR-T     2DATA      3ERR-T     31428201000018 
MEV        MEV        MEV        MEV        MEV        MEV        1428201000019 
  102.1     1.2        73.7       1.0       175.8       1.5       1428201000020 
ENDDATA              3          0                                 1428201000021 
ENDSUBENT           20          0                                 1428201099999 
SUBENT        14282011   20110207                             13711428201100001 
BIB                  4          8                                 1428201100002 
REACTION  1(94-PU-239(N,F),PRE,AKE,LF,SPA)                        1428201100003 
          2(94-PU-239(N,F),PRE,AKE,HF,SPA)                        1428201100004 
          3(94-PU-239(N,F),PRE,AKE,LF+HF,SPA)                     1428201100005 
STATUS     (TABLE) Data taken from tab. 2 of the reference        1428201100006 
           (DEP,14282009)                                         1428201100007 
INC-SOURCE (REAC) Samarium filtered beam                          1428201100008 
ERR-ANALYS (ERR-T) Total uncertainty, combination of statistical  1428201100009 
                   uncertainty and calibration uncertainty        1428201100010 
ENDBIB               8          0                                 1428201100011 
COMMON               1          3                                 1428201100012 
EN-DUMMY                                                          1428201100013 
EV                                                                1428201100014 
0.2                                                               1428201100015 
ENDCOMMON            3          0                                 1428201100016 
DATA                 6          1                                 1428201100017 
DATA      1ERR-T     1DATA      2ERR-T     2DATA      3ERR-T     31428201100018 
MEV        MEV        MEV        MEV        MEV        MEV        1428201100019 
  102.4     1.2        74.1       1.0        176.6       1.5      1428201100020 
ENDDATA              3          0                                 1428201100021 
ENDSUBENT           20          0                                 1428201199999 
ENDENTRY            11          0                                 1428299999999 
