ENTRY            14280   20170412                             142714280  0    1 
SUBENT        14280001   20170412                             142714280  1    1 
BIB                 10         41                                 14280  1    2 
TITLE      Integral Testing of Spallation Cross Sections for      14280  1    3 
           Neutron Dosimetry at 113 and 256 MeV                   14280  1    4 
AUTHOR     (L.R.Greenwood)                                        14280  1    5 
REFERENCE  (C,99OSAKA,,409,1999)                                  14280  1    6 
REL-REF    (R,C0746001,L.R.Greenwood+,R,ANL/NPBTSTR-023,1989) The 14280  1    7 
            original experimental data.                           14280  1    8 
INSTITUTE  (1USAANL)                                              14280  1    9 
FACILITY   (SYNCH,1USAANL) IPNS - Intense Pulsed Neutron Source,  14280  1   10 
           the first spallation slow neutron source based on a    14280  1   11 
           proton synchrotron.                                    14280  1   12 
SAMPLE     The Fe foil packets were 2.5 cm in diameter and the    14280  1   13 
           foils varied from 0.025 to 0.5 mm thick. Foil packets  14280  1   14 
           were suspended on a network of thin aluminum rods at   14280  1   15 
           angles of 0, 7.5, 30, 60, 90, 120, and 150 degrees.    14280  1   16 
METHOD     (ACTIV,TOF,GSPEC) Activation rates were measured in    14280  1   17 
           Fe foils at well-defined geometry in neutron fields    14280  1   18 
           created by 113 and 256 MeV proton beams in thick Al    14280  1   19 
           and U targets. The neutron spectra were independently  14280  1   20 
           measured using time-of-flight spectrometry. Following  14280  1   21 
           irradiations, the foil packets were retrieved and      14280  1   22 
           individual foils were analyzed by gamma spectroscopy.  14280  1   23 
           Comparison of these data sets provides integral        14280  1   24 
           testing and some adjusting of the poorly known         14280  1   25 
           activation cross sections at higher energies. 54Mn,    14280  1   26 
           51Cr, 52Mn cross sections obtained by adjustment of    14280  1   27 
           prior cross sections.                                  14280  1   28 
ANALYSIS   The foil activation measurements were                  14280  1   29 
           converted to activation rates with suitable            14280  1   30 
           corrections for gamma self-absorption and decay        14280  1   31 
           during and after irradiation. We assume that           14280  1   32 
           reactions that agree within 20% with integral testing  14280  1   33 
           should not be adjusted. Considerable effort is         14280  1   34 
           required to understand all sources of uncertainty, as  14280  1   35 
           well as their covariances, and to accurately take      14280  1   36 
           into account biases in the measurement techniques      14280  1   37 
           produced by geometric differences between              14280  1   38 
           time-of-flight and foil arrangements as well as        14280  1   39 
           neutron scattering effects. This work was focused on   14280  1   40 
           reaction cross sections that have large disagreements  14280  1   41 
           in integral testing.                                   14280  1   42 
HISTORY    (20170412C) BP                                         14280  1   43 
ENDBIB              41          0                                 14280  1   44 
NOCOMMON             0          0                                 14280  1   45 
ENDSUBENT           44          0                                 14280  199999 
SUBENT        14280002   20170412                             142714280  2    1 
BIB                  3          5                                 14280  2    2 
REACTION   (26-FE-0(N,X)25-MN-52,,SIG,,,DERIV)                    14280  2    3 
ANALYSIS   (UNFLD) Prior cross sections adjusted by STAY'SL to    14280  2    4 
           reproduce the measured activity                        14280  2    5 
STATUS     (CURVE) Fig. 4, page 413. Continuous curve, data       14280  2    6 
           points are marked by the compiler.                     14280  2    7 
ENDBIB               5          0                                 14280  2    8 
NOCOMMON             0          0                                 14280  2    9 
DATA                 2         58                                 14280  2   10 
EN         DATA                                                   14280  2   11 
MEV        B                                                      14280  2   12 
     19.363  1.064E-03                                            14280  2   13 
     19.591  1.564E-03                                            14280  2   14 
     20.038  2.260E-03                                            14280  2   15 
     22.249  3.563E-03                                            14280  2   16 
     24.018  4.883E-03                                            14280  2   17 
     25.784  6.239E-03                                            14280  2   18 
     28.431  7.303E-03                                            14280  2   19 
     31.740  9.494E-03                                            14280  2   20 
     33.063  1.036E-02                                            14280  2   21 
     35.929  1.171E-02                                            14280  2   22 
     37.032  1.256E-02                                            14280  2   23 
     40.118  1.419E-02                                            14280  2   24 
     43.204  1.604E-02                                            14280  2   25 
     47.171  1.719E-02                                            14280  2   26 
     48.712  1.660E-02                                            14280  2   27 
     52.456  1.547E-02                                            14280  2   28 
     56.640  1.442E-02                                            14280  2   29 
     60.383  1.320E-02                                            14280  2   30 
     64.126  1.230E-02                                            14280  2   31 
     68.090  1.146E-02                                            14280  2   32 
     72.055  1.106E-02                                            14280  2   33 
     76.681  1.125E-02                                            14280  2   34 
     80.646  1.125E-02                                            14280  2   35 
     84.171  1.164E-02                                            14280  2   36 
     88.137  1.184E-02                                            14280  2   37 
     92.324  1.315E-02                                            14280  2   38 
     96.729  1.292E-02                                            14280  2   39 
    100.475  1.314E-02                                            14280  2   40 
    104.660  1.290E-02                                            14280  2   41 
    109.947  1.312E-02                                            14280  2   42 
    115.013  1.312E-02                                            14280  2   43 
    120.519  1.244E-02                                            14280  2   44 
    126.466  1.200E-02                                            14280  2   45 
    130.432  1.199E-02                                            14280  2   46 
    135.057  1.199E-02                                            14280  2   47 
    140.564  1.157E-02                                            14280  2   48 
    146.511  1.097E-02                                            14280  2   49 
    150.255  1.096E-02                                            14280  2   50 
    155.102  1.096E-02                                            14280  2   51 
    160.608  1.039E-02                                            14280  2   52 
    166.555  1.020E-02                                            14280  2   53 
    170.521  1.038E-02                                            14280  2   54 
    175.366  1.001E-02                                            14280  2   55 
    180.872  9.495E-03                                            14280  2   56 
    186.599  9.162E-03                                            14280  2   57 
    190.344  9.158E-03                                            14280  2   58 
    194.750  9.153E-03                                            14280  2   59 
    198.714  8.680E-03                                            14280  2   60 
    201.137  8.678E-03                                            14280  2   61 
    205.322  8.674E-03                                            14280  2   62 
    210.389  8.669E-03                                            14280  2   63 
    215.234  8.365E-03                                            14280  2   64 
    220.521  8.508E-03                                            14280  2   65 
    226.469  8.354E-03                                            14280  2   66 
    232.416  8.204E-03                                            14280  2   67 
    238.583  7.915E-03                                            14280  2   68 
    241.007  7.913E-03                                            14280  2   69 
    246.734  8.048E-03                                            14280  2   70 
ENDDATA             60          0                                 14280  2   71 
ENDSUBENT           70          0                                 14280  299999 
SUBENT        14280003   20170412                             142714280  3    1 
BIB                  3          5                                 14280  3    2 
REACTION   (26-FE-54(N,P)25-MN-54,,SIG,,,DERIV)                   14280  3    3 
ANALYSIS   (UNFLD) Prior cross sections adjusted by STAY'SL to    14280  3    4 
           reproduce the measured activity                        14280  3    5 
STATUS     (CURVE) Fig. 4, page 413. Continuous curve, data       14280  3    6 
           points are marked by the compiler.                     14280  3    7 
ENDBIB               5          0                                 14280  3    8 
NOCOMMON             0          0                                 14280  3    9 
DATA                 2         78                                 14280  3   10 
EN         DATA                                                   14280  3   11 
MEV        B                                                      14280  3   12 
      0.208  1.772E-03                                            14280  3   13 
      0.419  1.066E-03                                            14280  3   14 
      0.424  1.363E-03                                            14280  3   15 
      0.454  7.199E-03                                            14280  3   16 
      0.655  2.472E-03                                            14280  3   17 
      0.661  3.449E-03                                            14280  3   18 
      0.682  1.096E-02                                            14280  3   19 
      0.888  4.983E-03                                            14280  3   20 
      1.348  1.401E-02                                            14280  3   21 
      1.365  3.546E-02                                            14280  3   22 
      1.372  5.305E-02                                            14280  3   23 
      1.576  2.133E-02                                            14280  3   24 
      1.599  7.401E-02                                            14280  3   25 
      1.607  1.127E-01                                            14280  3   26 
      2.494  1.600E-01                                            14280  3   27 
      2.943  2.567E-01                                            14280  3   28 
      3.830  3.519E-01                                            14280  3   29 
      5.818  4.656E-01                                            14280  3   30 
      8.462  4.821E-01                                            14280  3   31 
     11.106  4.820E-01                                            14280  3   32 
     13.085  4.044E-01                                            14280  3   33 
     14.622  3.164E-01                                            14280  3   34 
     16.389  4.042E-01                                            14280  3   35 
     17.715  5.076E-01                                            14280  3   36 
     19.701  6.153E-01                                            14280  3   37 
     20.587  7.726E-01                                            14280  3   38 
     22.572  9.044E-01                                            14280  3   39 
     24.337  1.022E+00                                            14280  3   40 
     26.102  1.239E+00                                            14280  3   41 
     27.647  1.451E+00                                            14280  3   42 
     29.192  1.698E+00                                            14280  3   43 
     31.618  1.988E+00                                            14280  3   44 
     33.823  2.246E+00                                            14280  3   45 
     36.911  2.676E+00                                            14280  3   46 
     39.776  2.971E+00                                            14280  3   47 
     42.421  3.186E+00                                            14280  3   48 
     44.621  2.817E+00                                            14280  3   49 
     48.364  2.535E+00                                            14280  3   50 
     52.328  2.362E+00                                            14280  3   51 
     56.512  2.163E+00                                            14280  3   52 
     60.475  1.981E+00                                            14280  3   53 
     64.219  1.814E+00                                            14280  3   54 
     68.403  1.720E+00                                            14280  3   55 
     72.146  1.548E+00                                            14280  3   56 
     76.331  1.494E+00                                            14280  3   57 
     80.295  1.417E+00                                            14280  3   58 
     84.700  1.367E+00                                            14280  3   59 
     89.545  1.296E+00                                            14280  3   60 
     92.849  1.251E+00                                            14280  3   61 
     96.372  1.187E+00                                            14280  3   62 
    101.438  1.125E+00                                            14280  3   63 
    105.182  1.086E+00                                            14280  3   64 
    111.790  1.048E+00                                            14280  3   65 
    119.719  9.591E-01                                            14280  3   66 
    128.529  9.091E-01                                            14280  3   67 
    136.900  9.082E-01                                            14280  3   68 
    144.609  8.761E-01                                            14280  3   69 
    152.538  8.160E-01                                            14280  3   70 
    158.045  8.155E-01                                            14280  3   71 
    163.772  8.008E-01                                            14280  3   72 
    170.160  8.002E-01                                            14280  3   73 
    176.107  7.721E-01                                            14280  3   74 
    181.174  7.583E-01                                            14280  3   75 
    187.341  7.446E-01                                            14280  3   76 
    192.407  7.185E-01                                            14280  3   77 
    197.474  7.308E-01                                            14280  3   78 
    202.981  7.432E-01                                            14280  3   79 
    207.167  7.693E-01                                            14280  3   80 
    210.912  7.690E-01                                            14280  3   81 
    217.962  7.958E-01                                            14280  3   82 
    222.147  7.816E-01                                            14280  3   83 
    227.213  7.811E-01                                            14280  3   84 
    231.399  7.807E-01                                            14280  3   85 
    238.449  8.079E-01                                            14280  3   86 
    241.092  8.076E-01                                            14280  3   87 
    244.617  8.073E-01                                            14280  3   88 
    247.921  8.213E-01                                            14280  3   89 
    250.345  8.355E-01                                            14280  3   90 
ENDDATA             80          0                                 14280  3   91 
ENDSUBENT           90          0                                 14280  399999 
SUBENT        14280004   20170412                             142714280  4    1 
BIB                  3          5                                 14280  4    2 
REACTION   (26-FE-54(N,A)24-CR-51,,SIG,,,DERIV)                   14280  4    3 
ANALYSIS   (UNFLD) Prior cross sections adjusted by STAY'SL to    14280  4    4 
           reproduce the measured activity                        14280  4    5 
STATUS     (CURVE) Fig. 4, page 413. Continuous curve, data       14280  4    6 
           points are marked by the compiler.                     14280  4    7 
ENDBIB               5          0                                 14280  4    8 
NOCOMMON             0          0                                 14280  4    9 
DATA                 2         72                                 14280  4   10 
EN         DATA                                                   14280  4   11 
MEV        B                                                      14280  4   12 
      3.723  1.047E-03                                            14280  4   13 
      4.169  1.436E-03                                            14280  4   14 
      4.176  2.111E-03                                            14280  4   15 
      4.624  3.049E-03                                            14280  4   16 
      4.632  4.644E-03                                            14280  4   17 
      4.858  6.592E-03                                            14280  4   18 
      5.085  9.196E-03                                            14280  4   19 
      5.756  1.639E-02                                            14280  4   20 
      5.971  1.217E-02                                            14280  4   21 
      6.421  2.059E-02                                            14280  4   22 
      7.088  2.773E-02                                            14280  4   23 
      7.975  3.800E-02                                            14280  4   24 
      8.420  4.772E-02                                            14280  4   25 
      9.084  5.888E-02                                            14280  4   26 
      9.969  7.015E-02                                            14280  4   27 
     11.514  8.212E-02                                            14280  4   28 
     12.618  9.446E-02                                            14280  4   29 
     13.942  1.087E-01                                            14280  4   30 
     16.145  1.125E-01                                            14280  4   31 
     17.246  1.067E-01                                            14280  4   32 
     18.785  9.275E-02                                            14280  4   33 
     20.330  1.086E-01                                            14280  4   34 
     21.876  1.316E-01                                            14280  4   35 
     24.524  1.742E-01                                            14280  4   36 
     27.834  2.345E-01                                            14280  4   37 
     31.583  2.996E-01                                            14280  4   38 
     36.878  4.559E-01                                            14280  4   39 
     39.747  6.247E-01                                            14280  4   40 
     44.377  7.440E-01                                            14280  4   41 
     48.124  8.706E-01                                            14280  4   42 
     52.531  9.012E-01                                            14280  4   43 
     58.037  8.850E-01                                            14280  4   44 
     63.766  9.321E-01                                            14280  4   45 
     68.391  8.839E-01                                            14280  4   46 
     72.135  8.682E-01                                            14280  4   47 
     76.540  8.379E-01                                            14280  4   48 
     80.505  8.229E-01                                            14280  4   49 
     84.469  7.804E-01                                            14280  4   50 
     88.435  7.939E-01                                            14280  4   51 
     92.179  7.529E-01                                            14280  4   52 
     96.364  7.395E-01                                            14280  4   53 
    100.548  7.136E-01                                            14280  4   54 
    104.514  7.259E-01                                            14280  4   55 
    110.241  7.128E-01                                            14280  4   56 
    115.087  7.250E-01                                            14280  4   57 
    120.594  6.996E-01                                            14280  4   58 
    126.100  6.751E-01                                            14280  4   59 
    130.065  6.748E-01                                            14280  4   60 
    135.132  6.863E-01                                            14280  4   61 
    139.977  6.395E-01                                            14280  4   62 
    146.365  6.170E-01                                            14280  4   63 
    150.330  6.167E-01                                            14280  4   64 
    155.176  6.164E-01                                            14280  4   65 
    160.683  6.160E-01                                            14280  4   66 
    166.410  6.049E-01                                            14280  4   67 
    170.376  6.261E-01                                            14280  4   68 
    175.443  6.258E-01                                            14280  4   69 
    180.509  6.254E-01                                            14280  4   70 
    186.456  6.034E-01                                            14280  4   71 
    190.201  5.927E-01                                            14280  4   72 
    194.607  6.029E-01                                            14280  4   73 
    199.893  6.025E-01                                            14280  4   74 
    205.401  6.127E-01                                            14280  4   75 
    210.247  6.018E-01                                            14280  4   76 
    215.093  6.014E-01                                            14280  4   77 
    220.380  6.117E-01                                            14280  4   78 
    226.107  5.902E-01                                            14280  4   79 
    231.614  5.898E-01                                            14280  4   80 
    237.121  5.895E-01                                            14280  4   81 
    240.866  5.892E-01                                            14280  4   82 
    246.373  5.888E-01                                            14280  4   83 
    250.338  5.885E-01                                            14280  4   84 
ENDDATA             74          0                                 14280  4   85 
ENDSUBENT           84          0                                 14280  499999 
ENDENTRY             4          0                                 1428099999999 
