ENTRY            14334   20120506                             13831433400000001 
SUBENT        14334001   20120506                             13831433400100001 
BIB                 11         27                                 1433400100002 
TITLE      Abrupt Change in Radiation-Width Distribution for      1433400100003 
           147Sm Neutron Resonances                               1433400100004 
AUTHOR     (P.E.Koehler,R.Reifarth,J.L.Ullmann,T.A.Bredeweg,      1433400100005 
            J.M.O'Donnell,R.S.Rundberg,D.J.Vieira,J.M.Wouters)    1433400100006 
INSTITUTE  (1USAORL,2GERFRK,1USALAS)                              1433400100007 
REFERENCE  (J,PRL,108,142502,2012)                                1433400100008 
FACILITY   (LINAC,1USALAS) Experiment was performed using DANCE   1433400100009 
           on flight path 14 at the Manuel Lujan, Jr. Neutron     1433400100010 
           Scattering Center at LANSCE.                           1433400100011 
SAMPLE     (62-SM-147,ENR=0.9793) Metallic samarium, enriched to  1433400100012 
           97.93% in 147Sm, with diameter of 1 cm and weight of   1433400100013 
           10.410 mg was used. Sample was mounted on a thin Al    1433400100014 
           backing and placed in the center of DANCE array.       1433400100015 
DETECTOR   (BAF2)Experiment performed using 4Pi gamma ray array   1433400100016 
           DANCE consisting of 160 BaF2 crystals designed for     1433400100017 
           studying neutron capture cross sections on small       1433400100018 
           samples.                                               1433400100019 
METHOD     (TOF) Energy of incident neutrons were determined by   1433400100020 
           time-of-flight method                                  1433400100021 
INC-SOURCE (SPALL) Neutrons are generated at LANSCE via           1433400100022 
           spallation reactions when an 800-MeV proton beam       1433400100023 
           strikes a tungsten target. Ambient-temperature water   1433400100024 
           moderator was used. The resulting neutron flux peaks   1433400100025 
           near thermal energy and is approximately proportional  1433400100026 
           to 1/En over the range of measurements.                1433400100027 
ERR-ANALYS (DATA-ERR) No information given                        1433400100028 
HISTORY    (20120506C) Compiled by S.H.                           1433400100029 
ENDBIB              27          0                                 1433400100030 
NOCOMMON             0          0                                 1433400100031 
ENDSUBENT           30          0                                 1433400199999 
SUBENT        14334002   20120506                             13831433400200001 
BIB                  4          7                                 1433400200002 
REACTION   (62-SM-147(N,G)62-SM-148,,SIG,,MSC)    Partial cross   1433400200003 
                                  section for the s-wave spin J=3 1433400200004 
STATUS     (CURVE) Data taken from fig. 1 of the reference        1433400200005 
                   waiting for data from author                   1433400200006 
MISC-COL   (MISC) s-wave spin                                     1433400200007 
ANALYSIS   Spin of the s-wave resonance determined from measured  1433400200008 
           gamma ray multiplicity                                 1433400200009 
ENDBIB               7          0                                 1433400200010 
COMMON               1          3                                 1433400200011 
MISC                                                              1433400200012 
NO-DIM                                                            1433400200013 
3.0                                                               1433400200014 
ENDCOMMON            3          0                                 1433400200015 
DATA                 3        300                                 1433400200016 
EN         DATA       DATA-ERR                                    1433400200017 
EV         B          B                                           1433400200018 
   374.38       2.33       3.77                                   1433400200019 
   374.53       2.89       3.55                                   1433400200020 
   374.70       4.00       4.05                                   1433400200021 
   374.83       3.54       3.58                                   1433400200022 
   375.03       5.39       4.85                                   1433400200023 
   375.22       4.74       3.64                                   1433400200024 
   375.37       2.80       2.89                                   1433400200025 
   375.57       4.00       3.79                                   1433400200026 
   375.70       2.80       3.62                                   1433400200027 
   375.89      -0.08       4.37                                   1433400200028 
   376.04       4.00       4.99                                   1433400200029 
   376.24       7.99       5.18                                   1433400200030 
   376.43      10.21       5.18                                   1433400200031 
   376.61       8.36       5.13                                   1433400200032 
   376.76       4.19       4.71                                   1433400200033 
   376.95       1.96       4.39                                   1433400200034 
   377.15       5.30       4.60                                   1433400200035 
   377.30       8.64       4.47                                   1433400200036 
   377.49       7.80       3.81                                   1433400200037 
   377.67       7.43       4.70                                   1433400200038 
   377.82       6.60       4.38                                   1433400200039 
   377.99       5.12       4.58                                   1433400200040 
   378.17       1.50       4.94                                   1433400200041 
   378.36       5.86       4.73                                   1433400200042 
   378.49       8.36       4.62                                   1433400200043 
   378.68       9.57       5.06                                   1433400200044 
   378.84       8.82       5.76                                   1433400200045 
   379.03      10.12       5.96                                   1433400200046 
   379.23      10.40       6.24                                   1433400200047 
   379.40       7.16       6.37                                   1433400200048 
   379.57       7.99       7.29                                   1433400200049 
   379.75       8.82       7.45                                   1433400200050 
   379.96       9.10       7.56                                   1433400200051 
   380.09      21.43       8.40                                   1433400200052 
   380.26      19.12       7.60                                   1433400200053 
   380.46      11.23       8.17                                   1433400200054 
   380.59      25.61       8.88                                   1433400200055 
   380.83      23.01       8.60                                   1433400200056 
   380.96      10.96       7.55                                   1433400200057 
   381.15       6.14       7.38                                   1433400200058 
   381.33       9.66       7.10                                   1433400200059 
   381.52      13.00       7.06                                   1433400200060 
   381.71       9.94       7.38                                   1433400200061 
   381.84      19.67       7.74                                   1433400200062 
   382.04      25.42       8.42                                   1433400200063 
   382.17      26.16       9.08                                   1433400200064 
   382.34      28.20       8.50                                   1433400200065 
   382.56      26.26       8.66                                   1433400200066 
   382.73      20.23       7.87                                   1433400200067 
   382.88      28.20       9.43                                   1433400200068 
   383.08      33.30       9.38                                   1433400200069 
   383.27      41.92      10.57                                   1433400200070 
   383.42      52.59      11.35                                   1433400200071 
   383.62      55.28      11.50                                   1433400200072 
   383.79      53.70      11.19                                   1433400200073 
   383.94      45.45       9.61                                   1433400200074 
   384.14      48.14       9.85                                   1433400200075 
   384.31      47.40       9.96                                   1433400200076 
   384.53      44.61       9.79                                   1433400200077 
   384.68      32.65       8.22                                   1433400200078 
   384.87      28.11       7.81                                   1433400200079 
   385.03      39.89      10.05                                   1433400200080 
   385.18      24.49       7.24                                   1433400200081 
   385.35      16.15       6.16                                   1433400200082 
   385.55       7.90       5.42                                   1433400200083 
   385.74       3.91       4.98                                   1433400200084 
   385.91       2.98       4.56                                   1433400200085 
   386.11       3.54       4.36                                   1433400200086 
   386.26       1.13       3.89                                   1433400200087 
   386.45       2.15       4.15                                   1433400200088 
   386.63       3.72       4.21                                   1433400200089 
   386.80       4.84       3.80                                   1433400200090 
   386.95       7.53       4.38                                   1433400200091 
   387.17       6.51       3.99                                   1433400200092 
   387.34      -0.54       3.49                                   1433400200093 
   387.49       6.78       4.22                                   1433400200094 
   387.69      10.40       5.31                                   1433400200095 
   387.90       7.43       4.37                                   1433400200096 
   388.03       1.13       2.96                                   1433400200097 
   388.19      -1.28       3.59                                   1433400200098 
   388.40      -0.54       3.74                                   1433400200099 
   388.58      -1.75       3.72                                   1433400200100 
   388.75       0.20       3.38                                   1433400200101 
   388.92       2.61       3.43                                   1433400200102 
   389.14       2.70       4.45                                   1433400200103 
   389.31       0.39       3.99                                   1433400200104 
   389.51      -0.17       3.60                                   1433400200105 
   389.64       6.60       4.66                                   1433400200106 
   389.83       9.57       4.98                                   1433400200107 
   390.05       7.34       4.09                                   1433400200108 
   390.22      -0.91       4.21                                   1433400200109 
   390.35      -2.30       3.92                                   1433400200110 
   390.57      -1.19       4.44                                   1433400200111 
   390.72       3.17       4.66                                   1433400200112 
   390.93       3.26       4.84                                   1433400200113 
   391.13      -0.36       6.29                                   1433400200114 
   391.28      -9.81       6.63                                   1433400200115 
   391.45      -3.79       5.82                                   1433400200116 
   391.65      -2.21       6.46                                   1433400200117 
   391.82      -2.95       6.06                                   1433400200118 
   391.99      -1.19       6.22                                   1433400200119 
   392.19       3.17       6.52                                   1433400200120 
   392.36       7.53       6.23                                   1433400200121 
   392.54       4.00       6.76                                   1433400200122 
   392.73       1.78       6.82                                   1433400200123 
   392.90       0.57       7.72                                   1433400200124 
   393.10      -0.91       7.17                                   1433400200125 
   393.27      -1.75       6.84                                   1433400200126 
   393.42      -1.65       7.10                                   1433400200127 
   393.64      -0.82       6.50                                   1433400200128 
   393.83      -4.81       5.81                                   1433400200129 
   394.01      -5.83       6.31                                   1433400200130 
   394.18       2.61       5.54                                   1433400200131 
   394.35       3.82       4.97                                   1433400200132 
   394.53       5.12       5.00                                   1433400200133 
   394.72       5.21       4.59                                   1433400200134 
   394.92       5.67       5.05                                   1433400200135 
   395.11       6.78       4.82                                   1433400200136 
   395.31      10.59       5.58                                   1433400200137 
   395.46       3.45       4.86                                   1433400200138 
   395.65       1.50       4.09                                   1433400200139 
   395.83       4.93       4.23                                   1433400200140 
   396.00       3.54       5.46                                   1433400200141 
   396.19       5.58       5.97                                   1433400200142 
   396.34      10.77       5.93                                   1433400200143 
   396.56       8.55       5.39                                   1433400200144 
   396.76      11.42       6.07                                   1433400200145 
   396.93      16.61       7.21                                   1433400200146 
   397.12      13.83       6.12                                   1433400200147 
   397.28      13.27       6.15                                   1433400200148 
   397.47      11.33       5.47                                   1433400200149 
   397.64      15.69       6.79                                   1433400200150 
   397.82      16.52       7.12                                   1433400200151 
   397.99      14.94       6.89                                   1433400200152 
   398.18      11.61       6.51                                   1433400200153 
   398.38      13.46       6.17                                   1433400200154 
   398.55      17.26       6.76                                   1433400200155 
   398.75      15.50       6.94                                   1433400200156 
   398.94      11.42       6.41                                   1433400200157 
   399.14      13.27       6.32                                   1433400200158 
   399.27      23.84       6.76                                   1433400200159 
   399.50      29.59       7.69                                   1433400200160 
   399.66      35.43       8.81                                   1433400200161 
   399.85      33.21       8.69                                   1433400200162 
   400.05      40.07       9.56                                   1433400200163 
   400.22      50.83      11.28                                   1433400200164 
   400.39      62.05      13.12                                   1433400200165 
   400.59      53.33      11.33                                   1433400200166 
   400.76      49.81      10.59                                   1433400200167 
   400.95      49.90      10.94                                   1433400200168 
   401.13      41.65       9.61                                   1433400200169 
   401.32      36.08       8.95                                   1433400200170 
   401.52      34.04       9.10                                   1433400200171 
   401.67      34.04       9.78                                   1433400200172 
   401.91      30.61       8.88                                   1433400200173 
   402.04      21.71       6.99                                   1433400200174 
   402.25      22.18       7.45                                   1433400200175 
   402.43      18.56       7.39                                   1433400200176 
   402.61      13.03       6.84                                   1433400200177 
   402.79      11.34       6.00                                   1433400200178 
   402.96      11.77       6.59                                   1433400200179 
   403.16       9.32       5.32                                   1433400200180 
   403.36       8.30       4.98                                   1433400200181 
   403.56       9.74       5.49                                   1433400200182 
   403.75       9.65       5.15                                   1433400200183 
   403.93      11.01       5.49                                   1433400200184 
   404.11      11.17       5.15                                   1433400200185 
   404.32      12.53       5.32                                   1433400200186 
   404.46       8.22       4.22                                   1433400200187 
   404.64       9.40       4.64                                   1433400200188 
   404.84      13.37       5.57                                   1433400200189 
   405.05      10.41       4.73                                   1433400200190 
   405.23      15.65       6.25                                   1433400200191 
   405.43      16.66       5.83                                   1433400200192 
   405.58      21.98       7.52                                   1433400200193 
   405.80      20.89       7.09                                   1433400200194 
   406.00      20.04       6.25                                   1433400200195 
   406.16      22.49       6.76                                   1433400200196 
   406.39      26.12       7.77                                   1433400200197 
   406.59      24.86       8.19                                   1433400200198 
   406.73      22.66       6.84                                   1433400200199 
   406.92      29.08       8.11                                   1433400200200 
   407.12      34.82       9.80                                   1433400200201 
   407.26      22.83       7.01                                   1433400200202 
   407.42      24.10       7.60                                   1433400200203 
   407.65      25.02       7.60                                   1433400200204 
   407.83      18.69       6.50                                   1433400200205 
   408.05      18.10       6.59                                   1433400200206 
   408.21      21.98       7.94                                   1433400200207 
   408.42      24.01       7.94                                   1433400200208 
   408.58      19.11       7.09                                   1433400200209 
   408.82      14.89       6.33                                   1433400200210 
   408.97       8.98       4.81                                   1433400200211 
   409.15       7.04       4.56                                   1433400200212 
   409.37       5.60       3.88                                   1433400200213 
   409.54       8.47       4.73                                   1433400200214 
   409.72       9.40       5.57                                   1433400200215 
   409.90       7.80       4.81                                   1433400200216 
   410.10       6.95       4.39                                   1433400200217 
   410.29      10.50       5.49                                   1433400200218 
   410.49       9.74       4.90                                   1433400200219 
   410.69      10.33       5.24                                   1433400200220 
   410.83       8.81       4.64                                   1433400200221 
   411.04      10.58       5.07                                   1433400200222 
   411.26      13.71       5.83                                   1433400200223 
   411.44      14.89       5.83                                   1433400200224 
   411.61      15.48       5.91                                   1433400200225 
   411.81      19.54       7.09                                   1433400200226 
   412.01      15.99       5.83                                   1433400200227 
   412.18      16.24       6.08                                   1433400200228 
   412.38      13.62       5.57                                   1433400200229 
   412.58      16.92       6.42                                   1433400200230 
   412.78      22.74       7.26                                   1433400200231 
   412.97      22.91       6.84                                   1433400200232 
   413.11      31.53       8.70                                   1433400200233 
   413.33      32.20       8.70                                   1433400200234 
   413.52      31.19       8.02                                   1433400200235 
   413.72      29.16       7.85                                   1433400200236 
   413.90      31.95       8.61                                   1433400200237 
   414.08      35.83       9.12                                   1433400200238 
   414.29      34.15       9.04                                   1433400200239 
   414.49      27.73       8.02                                   1433400200240 
   414.67      34.74       9.54                                   1433400200241 
   414.86      27.98       8.28                                   1433400200242 
   415.04      21.98       7.60                                   1433400200243 
   415.26      19.28       7.09                                   1433400200244 
   415.44      15.31       5.83                                   1433400200245 
   415.61      15.90       6.59                                   1433400200246 
   415.79       6.61       4.39                                   1433400200247 
   415.99       8.30       5.32                                   1433400200248 
   416.20      13.37       5.91                                   1433400200249 
   416.40      17.34       6.33                                   1433400200250 
   416.58      16.24       6.17                                   1433400200251 
   416.80      13.79       5.83                                   1433400200252 
   416.97      12.10       5.66                                   1433400200253 
   417.19      13.62       5.74                                   1433400200254 
   417.33      14.38       5.07                                   1433400200255 
   417.50      15.48       5.41                                   1433400200256 
   417.72      15.90       5.66                                   1433400200257 
   417.94      16.83       6.25                                   1433400200258 
   418.13      18.01       6.76                                   1433400200259 
   418.33      18.77       6.42                                   1433400200260 
   418.53      22.66       7.18                                   1433400200261 
   418.69      21.14       6.42                                   1433400200262 
   418.90      24.43       7.18                                   1433400200263 
   419.10      27.47       7.43                                   1433400200264 
   419.28      31.02       8.02                                   1433400200265 
   419.47      35.33       8.28                                   1433400200266 
   419.65      35.92       8.36                                   1433400200267 
   419.85      37.19       8.53                                   1433400200268 
   420.07      33.22       8.53                                   1433400200269 
   420.22      22.58       7.43                                   1433400200270 
   420.44      24.26       7.52                                   1433400200271 
   420.66      28.74       7.85                                   1433400200272 
   420.85      33.72       8.19                                   1433400200273 
   420.97      24.77       8.11                                   1433400200274 
   421.19      17.93       6.84                                   1433400200275 
   421.41      16.07       6.33                                   1433400200276 
   421.58      19.70       6.67                                   1433400200277 
   421.84      16.66       6.00                                   1433400200278 
   421.98       7.12       5.91                                   1433400200279 
   422.17       9.49       6.25                                   1433400200280 
   422.37      11.17       5.57                                   1433400200281 
   422.57       7.88       5.24                                   1433400200282 
   422.78       7.63       4.90                                   1433400200283 
   422.98       8.56       5.41                                   1433400200284 
   423.16       8.05       5.07                                   1433400200285 
   423.36       5.85       5.49                                   1433400200286 
   423.51       1.55       5.24                                   1433400200287 
   423.73      -1.16       5.57                                   1433400200288 
   423.93      -1.33       5.66                                   1433400200289 
   424.12       0.03       5.74                                   1433400200290 
   424.32       5.18       5.57                                   1433400200291 
   424.54       7.04       5.66                                   1433400200292 
   424.73       7.37       5.57                                   1433400200293 
   424.93      10.08       6.67                                   1433400200294 
   425.15       5.35       6.08                                   1433400200295 
   425.29      -4.20       5.32                                   1433400200296 
   425.48      -1.41       4.64                                   1433400200297 
   425.70      -0.82       3.88                                   1433400200298 
   425.90      -2.34       3.80                                   1433400200299 
   426.09       0.20       2.20                                   1433400200300 
   426.25       0.62       2.45                                   1433400200301 
   426.49       0.62       2.36                                   1433400200302 
   426.69       1.46       2.28                                   1433400200303 
   426.88       1.46       1.86                                   1433400200304 
   427.10       1.12       2.03                                   1433400200305 
   427.30       1.55       1.77                                   1433400200306 
   427.47       2.05       2.53                                   1433400200307 
   427.67       1.55       2.36                                   1433400200308 
   427.85       5.09       4.48                                   1433400200309 
   428.06       3.83       3.04                                   1433400200310 
   428.28       3.49       2.87                                   1433400200311 
   428.48       3.32       3.21                                   1433400200312 
   428.68       4.67       3.80                                   1433400200313 
   428.87       5.60       4.39                                   1433400200314 
   429.07       5.35       4.22                                   1433400200315 
   429.27       5.85       4.81                                   1433400200316 
   429.42       1.88       2.96                                   1433400200317 
   429.64       2.05       1.86                                   1433400200318 
ENDDATA            302          0                                 1433400200319 
ENDSUBENT          318          0                                 1433400299999 
SUBENT        14334003   20120506                             13831433400300001 
BIB                  4          7                                 1433400300002 
REACTION   (62-SM-147(N,G)62-SM-148,,SIG,,MSC)  Partial cross     1433400300003 
                                  section for the s-wave spin J=4 1433400300004 
STATUS     (CURVE) Data taken from fig. 1 of the reference        1433400300005 
                   waiting for data from author                   1433400300006 
ANALYSIS   Spin of the s-wave resonance determined from measured  1433400300007 
           gamma ray multiplicity                                 1433400300008 
MISC-COL   (MISC) s-wave spin                                     1433400300009 
ENDBIB               7          0                                 1433400300010 
COMMON               1          3                                 1433400300011 
MISC                                                              1433400300012 
NO-DIM                                                            1433400300013 
4.0                                                               1433400300014 
ENDCOMMON            3          0                                 1433400300015 
DATA                 3        300                                 1433400300016 
EN         DATA       DATA-ERR                                    1433400300017 
EV         B          B                                           1433400300018 
   374.32       9.10                                              1433400300019 
   374.51       7.25                                              1433400300020 
   374.64       6.23                                              1433400300021 
   374.86       9.01                                              1433400300022 
   374.99       8.82                                              1433400300023 
   375.21       5.95                                              1433400300024 
   375.36       7.81                                              1433400300025 
   375.51       8.46                                              1433400300026 
   375.70       9.57                                              1433400300027 
   375.83      14.67                                              1433400300028 
   376.07      11.70                                              1433400300029 
   376.22       7.90                                              1433400300030 
   376.42       5.03                                              1433400300031 
   376.55       9.76                                              1433400300032 
   376.77      13.93                                              1433400300033 
   376.92      15.88                                              1433400300034 
   377.09      11.98                                              1433400300035 
   377.26       9.30                                              1433400300036 
   377.46       7.53                                              1433400300037 
   377.59      12.45                                              1433400300038 
   377.78      12.64                                              1433400300039 
   377.98      17.18                                              1433400300040 
   378.13      24.51                                              1433400300041 
   378.32      19.41                                              1433400300042 
   378.50      16.90                                              1433400300043 
   378.69      17.28                                              1433400300044 
   378.84      27.20                                              1433400300045 
   378.99      30.45                                              1433400300046 
   379.17      31.56                                              1433400300047 
   379.34      37.68                                              1433400300048 
   379.53      45.56                                              1433400300049 
   379.68      51.13                                              1433400300050 
   379.84      50.02                                              1433400300051 
   380.05      45.01                                              1433400300052 
   380.27      47.33                                              1433400300053 
   380.40      66.80                                              1433400300054 
   380.55      52.99                                              1433400300055 
   380.75      58.92                                              1433400300056 
   380.92      64.12                                              1433400300057 
   381.11      69.22                                              1433400300058 
   381.27      58.37                                              1433400300059 
   381.46      56.14                                              1433400300060 
   381.66      59.85                                              1433400300061 
   381.85      48.63                                              1433400300062 
   381.96      39.17                                              1433400300063 
   382.18      44.55                                              1433400300064 
   382.33      37.69                                              1433400300065 
   382.53      36.11                                              1433400300066 
   382.70      38.71                                              1433400300067 
   382.90      35.10                                              1433400300068 
   383.05      27.12                                              1433400300069 
   383.25      19.33                                              1433400300070 
   383.40       5.51                                              1433400300071 
   383.60       4.68                                              1433400300072 
   383.75       6.44                                              1433400300073 
   383.92       3.48                                              1433400300074 
   384.07       5.52                                              1433400300075 
   384.29       5.24                                              1433400300076 
   384.48       3.11                                              1433400300077 
   384.63      13.22                                              1433400300078 
   384.85      14.05                                              1433400300079 
   384.98       3.01                                              1433400300080 
   385.22       6.35                                              1433400300081 
   385.33      10.62                                              1433400300082 
   385.50      16.37                                              1433400300083 
   385.70      19.34                                              1433400300084 
   385.87      16.56                                              1433400300085 
   386.07      12.48                                              1433400300086 
   386.24      12.11                                              1433400300087 
   386.41      11.46                                              1433400300088 
   386.59       7.47                                              1433400300089 
   386.78       5.90                                              1433400300090 
   386.98       3.58                                              1433400300091 
   387.17       4.60                                              1433400300092 
   387.32      11.65                                              1433400300093 
   387.52       5.34                                              1433400300094 
   387.65       1.82                                              1433400300095 
   387.87       3.30                                              1433400300096 
   388.04       9.80                                              1433400300097 
   388.21      13.78                                              1433400300098 
   388.41      12.86                                              1433400300099 
   388.58      15.55                                              1433400300100 
   388.78      12.21                                              1433400300101 
   388.91      10.82                                              1433400300102 
   389.10      12.12                                              1433400300103 
   389.27      14.34                                              1433400300104 
   389.47      14.90                                              1433400300105 
   389.66      12.40                                              1433400300106 
   389.84      10.36                                              1433400300107 
   390.03      11.75                                              1433400300108 
   390.12      21.77                                              1433400300109 
   390.36      22.60                                              1433400300110 
   390.53      25.01                                              1433400300111 
   390.74      28.07                                              1433400300112 
   390.96      28.54                                              1433400300113 
   391.07      41.24                                              1433400300114 
   391.24      57.01                                              1433400300115 
   391.46      46.44                                              1433400300116 
   391.63      51.63                                              1433400300117 
   391.80      53.40                                              1433400300118 
   391.95      50.89                                              1433400300119 
   392.17      53.86                                              1433400300120 
   392.35      46.63                                              1433400300121 
   392.50      56.18                                              1433400300122 
   392.71      59.24                                              1433400300123 
   392.88      66.38                                              1433400300124 
   393.06      62.67                                              1433400300125 
   393.23      59.52                                              1433400300126 
   393.43      55.26                                              1433400300127 
   393.60      47.65                                              1433400300128 
   393.78      44.31                                              1433400300129 
   393.99      42.27                                              1433400300130 
   394.15      31.33                                              1433400300131 
   394.32      23.82                                              1433400300132 
   394.50      21.87                                              1433400300133 
   394.69      18.16                                              1433400300134 
   394.89      17.89                                              1433400300135 
   395.06      12.51                                              1433400300136 
   395.28       9.54                                              1433400300137 
   395.39      18.26                                              1433400300138 
   395.60      17.05                                              1433400300139 
   395.80      14.27                                              1433400300140 
   395.95      21.97                                              1433400300141 
   396.14      21.04                                              1433400300142 
   396.34      20.95                                              1433400300143 
   396.53      21.04                                              1433400300144 
   396.73      23.46                                              1433400300145 
   396.88      22.07                                              1433400300146 
   397.08      20.68                                              1433400300147 
   397.25      26.05                                              1433400300148 
   397.44      27.26                                              1433400300149 
   397.62      33.20                                              1433400300150 
   397.81      34.77                                              1433400300151 
   398.01      35.15                                              1433400300152 
   398.16      41.92                                              1433400300153 
   398.35      37.74                                              1433400300154 
   398.53      38.39                                              1433400300155 
   398.72      41.18                                              1433400300156 
   398.92      40.90                                              1433400300157 
   399.11      40.25                                              1433400300158 
   399.29      28.01                                              1433400300159 
   399.44      20.68                                              1433400300160 
   399.61      18.55                                              1433400300161 
   399.81      20.22                                              1433400300162 
   399.98      15.86                                              1433400300163 
   400.22       9.56                                              1433400300164 
   400.35       0.65                                              1433400300165 
   400.57       0.75                                              1433400300166 
   400.72      -0.09                                              1433400300167 
   400.94      -3.05                                              1433400300168 
   401.13       1.03                                              1433400300169 
   401.31       2.61                                              1433400300170 
   401.52       1.21                                              1433400300171 
   401.70       0.10                                              1433400300172 
   401.85       0.47                                              1433400300173 
   402.04       1.77                                              1433400300174 
   402.22      -0.08                                              1433400300175 
   402.41       0.10                                              1433400300176 
   402.61       3.63                                              1433400300177 
   402.80       2.42                                              1433400300178 
   403.00       2.70                                              1433400300179 
   403.13       2.98                                              1433400300180 
   403.32       0.57                                              1433400300181 
   403.52       0.85                                              1433400300182 
   403.73       1.69                                              1433400300183 
   403.91      -1.00                                              1433400300184 
   404.13      -1.93                                              1433400300185 
   404.32      -1.65                                              1433400300186 
   404.45       2.99                                              1433400300187 
   404.69       2.15                                              1433400300188 
   404.82      -0.35                                              1433400300189 
   405.01       2.62                                              1433400300190 
   405.21       2.43                                              1433400300191 
   405.40      -0.53                                              1433400300192 
   405.60      -0.72                                              1433400300193 
   405.77      -0.44                                              1433400300194 
   405.95      -0.16                                              1433400300195 
   406.12      -1.09                                              1433400300196 
   406.34       1.05                                              1433400300197 
   406.51       4.20                                              1433400300198 
   406.75       4.66                                              1433400300199 
   406.90       0.95                                              1433400300200 
   407.12      -2.48                                              1433400300201 
   407.25       6.06                                              1433400300202 
   407.46       5.04                                              1433400300203 
   407.62       1.79                                              1433400300204 
   407.81       7.54                                              1433400300205 
   408.03       6.89                                              1433400300206 
   408.22       2.44                                              1433400300207 
   408.35      -2.75                                              1433400300208 
   408.59      -1.82                                              1433400300209 
   408.81       1.15                                              1433400300210 
   408.92       6.34                                              1433400300211 
   409.13       6.90                                              1433400300212 
   409.33       5.04                                              1433400300213 
   409.50       4.39                                              1433400300214 
   409.70       3.75                                              1433400300215 
   409.89       3.65                                              1433400300216 
   410.09       3.65                                              1433400300217 
   410.28       2.82                                              1433400300218 
   410.46       0.69                                              1433400300219 
   410.63       2.45                                              1433400300220 
   410.82       2.91                                              1433400300221 
   411.04       3.38                                              1433400300222 
   411.24       2.45                                              1433400300223 
   411.41       1.25                                              1433400300224 
   411.58       0.51                                              1433400300225 
   411.80      -0.24                                              1433400300226 
   411.97       1.81                                              1433400300227 
   412.10       5.24                                              1433400300228 
   412.34       9.32                                              1433400300229 
   412.53       9.13                                              1433400300230 
   412.71       8.11                                              1433400300231 
   412.93       6.82                                              1433400300232 
   413.14       4.50                                              1433400300233 
   413.34       1.81                                              1433400300234 
   413.49       7.93                                              1433400300235 
   413.71       9.79                                              1433400300236 
   413.88      10.62                                              1433400300237 
   414.07       6.36                                              1433400300238 
   414.27      10.35                                              1433400300239 
   414.49      12.94                                              1433400300240 
   414.62       3.39                                              1433400300241 
   414.86       5.62                                              1433400300242 
   414.98      13.04                                              1433400300243 
   415.22      12.02                                              1433400300244 
   415.42       8.77                                              1433400300245 
   415.63       9.24                                              1433400300246 
   415.79      14.06                                              1433400300247 
   416.02      15.27                                              1433400300248 
   416.20       9.80                                              1433400300249 
   416.37       4.14                                              1433400300250 
   416.55       3.86                                              1433400300251 
   416.76       6.55                                              1433400300252 
   416.96       9.98                                              1433400300253 
   417.17      10.82                                              1433400300254 
   417.33       8.87                                              1433400300255 
   417.52       9.61                                              1433400300256 
   417.72      10.64                                              1433400300257 
   417.89      11.93                                              1433400300258 
   418.11      14.72                                              1433400300259 
   418.30      16.29                                              1433400300260 
   418.49      19.36                                              1433400300261 
   418.65      20.93                                              1433400300262 
   418.86      23.34                                              1433400300263 
   419.06      23.25                                              1433400300264 
   419.27      26.03                                              1433400300265 
   419.45      29.00                                              1433400300266 
   419.62      29.75                                              1433400300267 
   419.84      33.09                                              1433400300268 
   420.05      39.86                                              1433400300269 
   420.18      49.04                                              1433400300270 
   420.40      46.26                                              1433400300271 
   420.59      44.03                                              1433400300272 
   420.81      38.56                                              1433400300273 
   421.01      40.42                                              1433400300274 
   421.20      41.62                                              1433400300275 
   421.40      33.55                                              1433400300276 
   421.57      31.61                                              1433400300277 
   421.81      28.45                                              1433400300278 
   421.96      36.80                                              1433400300279 
   422.16      33.28                                              1433400300280 
   422.37      25.49                                              1433400300281 
   422.55      27.72                                              1433400300282 
   422.74      26.88                                              1433400300283 
   422.92      28.46                                              1433400300284 
   423.11      27.16                                              1433400300285 
   423.33      34.58                                              1433400300286 
   423.54      38.94                                              1433400300287 
   423.71      43.11                                              1433400300288 
   423.93      43.11                                              1433400300289 
   424.13      41.35                                              1433400300290 
   424.32      34.31                                              1433400300291 
   424.50      30.97                                              1433400300292 
   424.69      29.67                                              1433400300293 
   424.89      25.40       8.62                                   1433400300294 
   425.11      26.70       9.18                                   1433400300295 
   425.28      29.58       9.74                                   1433400300296 
   425.47      22.07       8.16                                   1433400300297 
   425.65      16.04       6.96                                   1433400300298 
   425.91      13.26       6.58                                   1433400300299 
   426.06       6.12       3.25                                   1433400300300 
   426.28       6.58       4.17                                   1433400300301 
   426.47       4.64       3.52                                   1433400300302 
   426.65       3.06       2.41                                   1433400300303 
   426.87       2.04       1.76                                   1433400300304 
   427.10       2.32       1.95                                   1433400300305 
   427.43       1.49       2.13                                   1433400300306 
   427.65       2.78       2.50                                   1433400300307 
   427.86       1.39       2.69                                   1433400300308 
   428.06       0.19       1.39                                   1433400300309 
   428.23       3.99       3.52                                   1433400300310 
   428.47       2.42       2.23                                   1433400300311 
   428.62      -0.18       1.85                                   1433400300312 
   428.84      -0.18       2.04                                   1433400300313 
   429.06      -0.27       2.13                                   1433400300314 
   429.23      -0.18       2.23                                   1433400300315 
   429.42       4.00       3.43                                   1433400300316 
   429.66       3.44       2.78                                   1433400300317 
   429.84       1.68       2.04                                   1433400300318 
ENDDATA            302          0                                 1433400300319 
ENDSUBENT          318          0                                 1433400399999 
SUBENT        14334004   20120506                             13831433400400001 
BIB                  2          3                                 1433400400002 
REACTION   (62-SM-147(N,G)62-SM-148,,SIG)                         1433400400003 
STATUS     (CURVE) Data taken from fig. 1 of the reference        1433400400004 
                   waiting for data from author                   1433400400005 
ENDBIB               3          0                                 1433400400006 
NOCOMMON             0          0                                 1433400400007 
DATA                 3        315                                 1433400400008 
EN         DATA       DATA-ERR                                    1433400400009 
EV         B          B                                           1433400400010 
   370.1        5.32     0.54                                     1433400400011 
   370.4        5.59     0.78                                     1433400400012 
   370.7        5.04     0.90                                     1433400400013 
   371.1        5.87     0.78                                     1433400400014 
   371.3        5.73     0.90                                     1433400400015 
   371.4        6.80     1.37                                     1433400400016 
   371.6        6.35     1.22                                     1433400400017 
   372.0        6.54     0.94                                     1433400400018 
   372.3        5.80     1.17                                     1433400400019 
   372.4        8.69     1.21                                     1433400400020 
   372.6        6.14     1.17                                     1433400400021 
   372.8        6.35     1.01                                     1433400400022 
   373.0        8.69     1.12                                     1433400400023 
   373.2       10.30     1.29                                     1433400400024 
   373.3        8.76     1.03                                     1433400400025 
   373.5        7.93     1.18                                     1433400400026 
   373.7        6.55     0.95                                     1433400400027 
   373.8        9.24     1.24                                     1433400400028 
   374.0        8.07     1.19                                     1433400400029 
   374.2        9.17     1.34                                     1433400400030 
   374.4       11.40     1.20                                     1433400400031 
   374.5        9.99     1.26                                     1433400400032 
   374.7       10.30     1.28                                     1433400400033 
   374.9       11.90     1.32                                     1433400400034 
   375.0       13.80     1.35                                     1433400400035 
   375.2       10.60     1.37                                     1433400400036 
   375.5       10.10     1.54                                     1433400400037 
   375.5       12.00     1.48                                     1433400400038 
   375.8       12.30     1.54                                     1433400400039 
   375.9       14.00     1.30                                     1433400400040 
   376.1       15.60     1.64                                     1433400400041 
   376.3       15.60     1.81                                     1433400400042 
   376.5       14.90     1.63                                     1433400400043 
   376.6       17.70     1.68                                     1433400400044 
   376.8       17.90     1.82                                     1433400400045 
   376.9       17.70     1.60                                     1433400400046 
   377.1       17.10     1.83                                     1433400400047 
   377.3       17.80     1.41                                     1433400400048 
   377.5       15.20     1.27                                     1433400400049 
   377.6       19.80     1.62                                     1433400400050 
   377.8       18.90     1.37                                     1433400400051 
   378.0       21.90     1.71                                     1433400400052 
   378.2       25.60     1.46                                     1433400400053 
   378.3       25.00     1.63                                     1433400400054 
   378.5       25.40     1.97                                     1433400400055 
   378.7       26.60     1.88                                     1433400400056 
   378.9       35.60     2.14                                     1433400400057 
   379.0       39.80     2.23                                     1433400400058 
   379.3       41.60     2.57                                     1433400400059 
   379.4       44.50     2.48                                     1433400400060 
   379.5       53.30     2.91                                     1433400400061 
   379.7       59.80     3.00                                     1433400400062 
   379.9       59.00     2.65                                     1433400400063 
   380.0       66.10     3.25                                     1433400400064 
   380.3       66.20     3.08                                     1433400400065 
   380.4       77.90     3.42                                     1433400400066 
   380.6       78.40     3.42                                     1433400400067 
   380.8       81.90     3.42                                     1433400400068 
   380.9       74.90     3.00                                     1433400400069 
   381.2       75.40     3.42                                     1433400400070 
   381.3       68.40     2.74                                     1433400400071 
   381.5       68.40     2.91                                     1433400400072 
   381.7       69.50     2.82                                     1433400400073 
   381.8       68.10     2.74                                     1433400400074 
   382.0       64.00     3.00                                     1433400400075 
   382.2       70.40     3.17                                     1433400400076 
   382.4       66.50     2.91                                     1433400400077 
   382.5       62.30     3.25                                     1433400400078 
   382.7       58.80     2.82                                     1433400400079 
   382.9       63.00     3.08                                     1433400400080 
   383.0       60.00     2.91                                     1433400400081 
   383.3       60.70     3.08                                     1433400400082 
   383.4       57.70     3.00                                     1433400400083 
   383.6       59.90     2.74                                     1433400400084 
   383.8       60.20     2.82                                     1433400400085 
   384.0       48.60     2.31                                     1433400400086 
   384.1       53.60     2.57                                     1433400400087 
   384.3       52.80     2.40                                     1433400400088 
   384.5       47.20     2.57                                     1433400400089 
   384.7       46.00     2.74                                     1433400400090 
   384.8       41.90     2.23                                     1433400400091 
   385.1       42.70     2.57                                     1433400400092 
   385.2       30.40     1.97                                     1433400400093 
   385.4       26.70     1.28                                     1433400400094 
   385.8       22.90     1.88                                     1433400400095 
   385.9       19.40     1.71                                     1433400400096 
   386.1       15.70     1.54                                     1433400400097 
   386.4       13.40     1.54                                     1433400400098 
   386.6       10.80     1.20                                     1433400400099 
   386.8       10.60     1.11                                     1433400400100 
   387.0       10.90     1.20                                     1433400400101 
   387.2       10.80     1.20                                     1433400400102 
   387.3       10.70     1.28                                     1433400400103 
   387.5       11.80     1.37                                     1433400400104 
   387.7       11.90     1.28                                     1433400400105 
   387.9       10.20     1.11                                     1433400400106 
   388.1       11.20     1.28                                     1433400400107 
   388.2       12.40     1.20                                     1433400400108 
   388.4       11.30     0.94                                     1433400400109 
   388.6       13.30     1.11                                     1433400400110 
   388.7       11.80     1.46                                     1433400400111 
   388.9       13.00     1.20                                     1433400400112 
   389.1       14.30     1.03                                     1433400400113 
   389.3       14.80     1.37                                     1433400400114 
   389.5       14.70     1.28                                     1433400400115 
   389.7       18.80     1.88                                     1433400400116 
   389.9       19.00     0.94                                     1433400400117 
   390.0       18.50     1.37                                     1433400400118 
   390.2       20.70     1.46                                     1433400400119 
   390.4       20.10     1.54                                     1433400400120 
   390.6       23.70     1.97                                     1433400400121 
   390.7       30.40     1.88                                     1433400400122 
   390.9       31.70     2.23                                     1433400400123 
   391.1       40.80     2.48                                     1433400400124 
   391.3       47.10     2.74                                     1433400400125 
   391.5       42.60     2.57                                     1433400400126 
   391.6       49.50     2.57                                     1433400400127 
   391.8       50.20     2.82                                     1433400400128 
   392.0       49.60     2.48                                     1433400400129 
   392.2       57.00     2.65                                     1433400400130 
   392.4       54.10     2.74                                     1433400400131 
   392.5       60.00     2.65                                     1433400400132 
   392.7       61.00     2.82                                     1433400400133 
   392.9       66.90     3.25                                     1433400400134 
   393.1       61.50     3.17                                     1433400400135 
   393.3       57.60     2.82                                     1433400400136 
   393.5       53.20     2.65                                     1433400400137 
   393.6       46.70     2.74                                     1433400400138 
   393.8       39.30     2.40                                     1433400400139 
   394.0       36.40     2.57                                     1433400400140 
   394.2       33.40     2.05                                     1433400400141 
   394.3       27.40     2.05                                     1433400400142 
   394.6       26.60     1.71                                     1433400400143 
   394.7       23.00     1.97                                     1433400400144 
   394.9       23.30     1.71                                     1433400400145 
   395.0       19.00     1.97                                     1433400400146 
   395.3       19.90     1.80                                     1433400400147 
   395.4       21.50     1.88                                     1433400400148 
   395.6       18.30     1.71                                     1433400400149 
   395.8       19.00     1.63                                     1433400400150 
   396.0       25.40     1.63                                     1433400400151 
   396.2       26.80     1.46                                     1433400400152 
   396.3       28.60     1.97                                     1433400400153 
   396.6       29.00     1.88                                     1433400400154 
   396.7       35.00     2.40                                     1433400400155 
   396.9       38.70     2.40                                     1433400400156 
   397.1       34.20     2.40                                     1433400400157 
   397.2       39.20     2.40                                     1433400400158 
   397.5       38.20     2.14                                     1433400400159 
   397.6       49.00     2.48                                     1433400400160 
   397.8       51.30     2.74                                     1433400400161 
   398.0       49.90     2.31                                     1433400400162 
   398.2       53.30     2.65                                     1433400400163 
   398.4       51.20     2.57                                     1433400400164 
   398.5       55.40     2.65                                     1433400400165 
   398.8       56.60     2.65                                     1433400400166 
   398.9       52.30     2.74                                     1433400400167 
   399.1       53.50     2.65                                     1433400400168 
   399.3       51.70     2.40                                     1433400400169 
   399.5       50.00     2.48                                     1433400400170 
   399.6       53.80     2.74                                     1433400400171 
   399.9       53.40     2.65                                     1433400400172 
   400.0       55.80     2.91                                     1433400400173 
   400.2       60.20     3.34                                     1433400400174 
   400.4       62.50     3.42                                     1433400400175 
   400.6       53.90     2.74                                     1433400400176 
   400.7       49.50     2.48                                     1433400400177 
   400.9       48.00     1.63                                     1433400400178 
   401.0       46.80     2.65                                     1433400400179 
   401.1       42.30     2.31                                     1433400400180 
   401.3       38.60     2.14                                     1433400400181 
   401.5       35.30     2.31                                     1433400400182 
   401.9       31.00     1.88                                     1433400400183 
   402.0       23.10     1.80                                     1433400400184 
   402.3       22.30     1.71                                     1433400400185 
   402.5       18.60     1.54                                     1433400400186 
   402.6       16.20     1.37                                     1433400400187 
   403.0       14.10     1.37                                     1433400400188 
   403.2       12.10     1.28                                     1433400400189 
   403.4        9.11     1.28                                     1433400400190 
   403.6       10.70     0.94                                     1433400400191 
   403.8       11.10     1.20                                     1433400400192 
   404.1        8.85     1.11                                     1433400400193 
   404.2       10.50     1.03                                     1433400400194 
   404.4       10.90     0.94                                     1433400400195 
   404.7       11.20     1.20                                     1433400400196 
   404.8       12.60     1.28                                     1433400400197 
   405.0       12.70     1.28                                     1433400400198 
   405.2       17.80     1.63                                     1433400400199 
   405.4       16.00     1.54                                     1433400400200 
   405.5       20.90     1.54                                     1433400400201 
   405.8       20.20     1.63                                     1433400400202 
   406.0       20.10     1.63                                     1433400400203 
   406.2       21.10     1.71                                     1433400400204 
   406.3       26.60     1.97                                     1433400400205 
   406.5       27.60     1.97                                     1433400400206 
   406.7       26.60     1.80                                     1433400400207 
   406.9       29.70     1.80                                     1433400400208 
   407.1       31.80     1.88                                     1433400400209 
   407.2       28.60     1.88                                     1433400400210 
   407.5       28.50     1.88                                     1433400400211 
   407.6       26.30     1.88                                     1433400400212 
   407.8       25.70     1.71                                     1433400400213 
   408.0       24.30     1.88                                     1433400400214 
   408.2       24.10     1.71                                     1433400400215 
   408.4       20.80     1.63                                     1433400400216 
   408.6       17.00     1.37                                     1433400400217 
   408.8       15.50     1.54                                     1433400400218 
   409.0       15.00     1.37                                     1433400400219 
   409.2       13.60     1.28                                     1433400400220 
   409.3       10.60     1.37                                     1433400400221 
   409.5       12.70     1.37                                     1433400400222 
   409.7       12.90     1.37                                     1433400400223 
   409.9       11.10     1.20                                     1433400400224 
   410.2       10.70     1.37                                     1433400400225 
   410.3       13.00     1.20                                     1433400400226 
   410.5        9.97     1.20                                     1433400400227 
   410.7       12.10     1.03                                     1433400400228 
   410.9       11.50     1.46                                     1433400400229 
   411.1       13.60     1.28                                     1433400400230 
   411.2       16.40     1.37                                     1433400400231 
   411.4       16.00     1.54                                     1433400400232 
   411.6       15.40     1.46                                     1433400400233 
   411.9       18.70     1.11                                     1433400400234 
   412.0       17.70     1.54                                     1433400400235 
   412.2       20.80     1.54                                     1433400400236 
   412.4       22.60     1.71                                     1433400400237 
   412.6       25.60     1.80                                     1433400400238 
   412.7       30.90     1.97                                     1433400400239 
   413.0       29.20     1.80                                     1433400400240 
   413.1       35.60     2.23                                     1433400400241 
   413.3       33.60     2.23                                     1433400400242 
   413.5       39.20     2.14                                     1433400400243 
   413.7       38.80     2.05                                     1433400400244 
   413.9       42.30     2.31                                     1433400400245 
   414.1       42.30     2.48                                     1433400400246 
   414.3       44.40     2.48                                     1433400400247 
   414.4       40.40     2.31                                     1433400400248 
   414.7       37.70     2.14                                     1433400400249 
   414.8       33.20     2.40                                     1433400400250 
   415.0       34.80     2.05                                     1433400400251 
   415.2       30.90     2.05                                     1433400400252 
   415.4       23.60     1.80                                     1433400400253 
   415.6       24.90     2.40                                     1433400400254 
   415.8       20.20     1.97                                     1433400400255 
   416.0       23.20     1.71                                     1433400400256 
   416.2       22.70     1.71                                     1433400400257 
   416.4       21.30     1.71                                     1433400400258 
   416.6       19.80     1.71                                     1433400400259 
   416.8       20.20     1.88                                     1433400400260 
   417.0       21.60     1.88                                     1433400400261 
   417.2       24.30     1.54                                     1433400400262 
   417.3       22.90     1.71                                     1433400400263 
   417.6       24.80     1.71                                     1433400400264 
   417.7       26.30     1.97                                     1433400400265 
   417.9       28.00     2.05                                     1433400400266 
   418.1       32.00     1.97                                     1433400400267 
   418.3       34.70     2.31                                     1433400400268 
   418.5       41.90     2.31                                     1433400400269 
   418.7       41.70     2.40                                     1433400400270 
   418.9       47.50     2.57                                     1433400400271 
   419.1       50.40     2.48                                     1433400400272 
   419.3       56.70     2.74                                     1433400400273 
   419.4       64.40     2.91                                     1433400400274 
   419.7       65.30     2.74                                     1433400400275 
   419.8       70.10     2.91                                     1433400400276 
   420.0       72.60     2.91                                     1433400400277 
   420.2       71.50     2.74                                     1433400400278 
   420.4       70.10     3.08                                     1433400400279 
   420.6       72.70     3.08                                     1433400400280 
   420.8       71.90     2.91                                     1433400400281 
   421.0       64.60     2.65                                     1433400400282 
   421.2       59.10     2.65                                     1433400400283 
   421.4       49.20     2.57                                     1433400400284 
   421.8       44.70     2.40                                     1433400400285 
   422.0       43.30     2.48                                     1433400400286 
   422.2       42.20     2.23                                     1433400400287 
   422.4       36.20     2.31                                     1433400400288 
   422.5       35.40     2.23                                     1433400400289 
   422.8       33.90     2.14                                     1433400400290 
   422.9       36.80     2.23                                     1433400400291 
   423.1       34.90     2.14                                     1433400400292 
   423.3       40.20     2.31                                     1433400400293 
   423.6       40.80     2.57                                     1433400400294 
   423.7       42.00     2.40                                     1433400400295 
   423.9       41.30     2.48                                     1433400400296 
   424.1       41.10     2.23                                     1433400400297 
   424.3       39.10     2.31                                     1433400400298 
   424.5       38.10     2.05                                     1433400400299 
   424.7       36.60     2.31                                     1433400400300 
   424.9       35.00     2.40                                     1433400400301 
   425.1       31.60     2.23                                     1433400400302 
   425.3       25.10     1.88                                     1433400400303 
   425.5       20.30     1.71                                     1433400400304 
   425.7       14.50     1.54                                     1433400400305 
   425.9       10.50     1.20                                     1433400400306 
   426.1        5.86     0.94                                     1433400400307 
   426.4        7.14     0.69                                     1433400400308 
   426.4        4.66     0.69                                     1433400400309 
   426.7        3.89     0.60                                     1433400400310 
   426.9        2.86     0.77                                     1433400400311 
   427.2        2.26     0.77                                     1433400400312 
   427.5        3.20     0.77                                     1433400400313 
   427.7        3.80     0.77                                     1433400400314 
   427.9        6.37     1.03                                     1433400400315 
   428.1        3.46     0.77                                     1433400400316 
   428.3        6.37     0.94                                     1433400400317 
   428.5        5.00     1.03                                     1433400400318 
   428.7        3.97     0.69                                     1433400400319 
   428.8        5.26     0.69                                     1433400400320 
   429.0        4.66     0.69                                     1433400400321 
   429.2        5.69     0.51                                     1433400400322 
   429.4        5.69     0.60                                     1433400400323 
   429.7        4.83     0.51                                     1433400400324 
   429.8        5.94     0.60                                     1433400400325 
ENDDATA            317          0                                 1433400400326 
ENDSUBENT          325          0                                 1433400499999 
SUBENT        14334005   20120506                             13831433400500001 
BIB                  2          2                                 1433400500002 
REACTION   (62-SM-147(N,G),,WID,,AV)                              1433400500003 
STATUS     (TABLE) Data taken from tab. 1 of the reference        1433400500004 
ENDBIB               2          0                                 1433400500005 
NOCOMMON             0          0                                 1433400500006 
DATA                 4          2                                 1433400500007 
EN-MIN     EN-MAX     DATA       DATA-ERR                         1433400500008 
EV         EV         MILLI-EV   MILLI-EV                         1433400500009 
   0.0        300.0      52.0       1.1                           1433400500010 
 300.0        700.0      59.6       2.0                           1433400500011 
ENDDATA              4          0                                 1433400500012 
ENDSUBENT           11          0                                 1433400599999 
ENDENTRY             5          0                                 1433499999999 
