ENTRY            14848   20250418                             151814848000    1 
SUBENT        14848001   20250418                             151814848001    1 
BIB                 10         25                                 14848001    2 
TITLE      Total Neutron Cross Section Measurements of 10B and 11B14848001    3 
AUTHOR     (O.A.Wasson,A.D.Carlson,R.A.Schrack,J.A.Harvey,        14848001    4 
           N.W.Hill)                                              14848001    5 
REFERENCE  (C,94GATLIN,1,50,1994)                                 14848001    6 
INSTITUTE  (1USANIS,1USAORL)                                      14848001    7 
FACILITY   (LINAC,1USAORL) The Oak Ridge Electron Linear          14848001    8 
           Accelerator (ORELA).                                   14848001    9 
INC-SPECT  The energy region extended from about 0.1 to 20 MeV    14848001   10 
           using 80 m & 200 m flight paths and 10 ns electron beam14848001   11 
           width. The 2.3 cm diameter neutron beam was            14848001   12 
           collimated to originate from tantalum portion of the   14848001   13 
           target in order to reduce the gamma ray background     14848001   14 
           produced in the water moderator.                       14848001   15 
DETECTOR   (SCIN) The neutron detector consisted of a 2.5 cm      14848001   16 
           thick NE110 plastic scintillator.                      14848001   17 
SAMPLE     Two samples were contained in 3.2                      14848001   18 
           cm diameter cylindrical holders with 0.5 cm thick      14848001   19 
           tantalum end caps. The thickness in each sample of     14848001   20 
           10B (0.2355 and 0.2349 atoms per barn)                 14848001   21 
           was determined                                         14848001   22 
           from the dimensions of the precisely matched holder,   14848001   23 
           the chemical analysis of the boron, and the weight of  14848001   24 
           the material.                                          14848001   25 
STATUS     (APRVD) Approved by A.D.Carlson on April 18, 2025.     14848001   26 
HISTORY    (20250418C) BP                                         14848001   27 
ENDBIB              25          0                                 14848001   28 
NOCOMMON             0          0                                 14848001   29 
ENDSUBENT           28          0                                 1484800199999 
SUBENT        14848002   20250418                             151814848002    1 
BIB                  5         25                                 14848002    2 
REACTION   (5-B-10(N,TOT),,SIG)                                   14848002    3 
METHOD     (TOF) 80 m flight path. The boron and blank            14848002    4 
            (including tantalum end caps) samples were measured   14848002    5 
           at approximately 10 minute intervals. Typical          14848002    6 
           measurements lasted several days. Two separate beam    14848002    7 
           monitors were employed for fluence normalization.      14848002    8 
           These data have been grouped in ~5% energy groups.     14848002    9 
CORRECTION The maximum dead time correction was approximately     14848002   10 
           60% for the 80 m measurements due to a longer data     14848002   11 
           gate in the acquisition system. Because of this large  14848002   12 
           correction at 80 m, additional measurements using      14848002   13 
           thick iron filters in the beam were done at this       14848002   14 
           distance. The maximum dead time correction was         14848002   15 
           reduced to less than 0.3%, although only               14848002   16 
           approximately 20 neutron energy windows between 20     14848002   17 
           and 600 keV were available for analysis.               14848002   18 
ERR-ANALYS (ERR-S) Statistical uncertainty.                       14848002   19 
           (ERR-SYS,0.4,0.5)                                      14848002   20 
           (ERR-1) Sample uncertainties.                          14848002   21 
           (ERR-2) Areal density.                                 14848002   22 
           (ERR-3) Background uncertainty, deadtime correction    14848002   23 
           and measurement procedure.                             14848002   24 
STATUS     (TABLE,,O.A.Wasson,C,94GATLIN,1,50,1994) Data were     14848002   25 
           provided by A.D.Carlson on April 17, 2025.             14848002   26 
           (COREL,14848003) Data from 200 m.                      14848002   27 
ENDBIB              25          0                                 14848002   28 
COMMON               3          3                                 14848002   29 
ERR-1      ERR-2      ERR-3                                       14848002   30 
PER-CENT   PER-CENT   PER-CENT                                    14848002   31 
        0.3        0.2        0.2                                 14848002   32 
ENDCOMMON            3          0                                 14848002   33 
DATA                 3         90                                 14848002   34 
EN         DATA       ERR-S                                       14848002   35 
EV         B          B                                           14848002   36 
0.98922E+07    1.506510.46841E-01                                 14848002   37 
0.90764E+07    1.519290.42206E-01                                 14848002   38 
0.83580E+07    1.567580.42413E-01                                 14848002   39 
0.77219E+07    1.563690.39133E-01                                 14848002   40 
0.71561E+07    1.581450.48468E-01                                 14848002   41 
0.66504E+07    1.611560.46531E-01                                 14848002   42 
0.61967E+07    1.509560.39870E-01                                 14848002   43 
0.57419E+07    1.469550.38144E-01                                 14848002   44 
0.52909E+07    1.487460.42215E-01                                 14848002   45 
0.48912E+07    1.605120.41280E-01                                 14848002   46 
0.45353E+07    1.791510.44106E-01                                 14848002   47 
0.42169E+07    1.912090.44420E-01                                 14848002   48 
0.39309E+07    1.698890.44318E-01                                 14848002   49 
0.36734E+07    1.750720.42800E-01                                 14848002   50 
0.34408E+07    1.765870.42518E-01                                 14848002   51 
0.32092E+07    1.875730.38803E-01                                 14848002   52 
0.29821E+07    2.228740.40916E-01                                 14848002   53 
0.27783E+07    2.476230.42024E-01                                 14848002   54 
0.25948E+07    2.264660.39584E-01                                 14848002   55 
0.24289E+07    1.980640.36248E-01                                 14848002   56 
0.22784E+07    1.911920.32182E-01                                 14848002   57 
0.21311E+07    1.940630.29595E-01                                 14848002   58 
0.19874E+07    2.077110.30322E-01                                 14848002   59 
0.18572E+07    2.192190.29306E-01                                 14848002   60 
0.17406E+07    2.287910.28566E-01                                 14848002   61 
0.16341E+07    2.087830.27920E-01                                 14848002   62 
0.15370E+07    1.893180.26660E-01                                 14848002   63 
0.14426E+07    1.950660.24307E-01                                 14848002   64 
0.13510E+07    2.032120.24187E-01                                 14848002   65 
0.12678E+07    2.114250.23017E-01                                 14848002   66 
0.11921E+07    2.198070.21728E-01                                 14848002   67 
0.11226E+07    2.309010.22498E-01                                 14848002   68 
0.10560E+07    2.431870.22442E-01                                 14848002   69 
    991367.    2.552720.23247E-01                                 14848002   70 
    932454.    2.705550.23399E-01                                 14848002   71 
    878644.    2.797020.23154E-01                                 14848002   72 
    826855.    2.919220.21227E-01                                 14848002   73 
    777033.    3.156060.21572E-01                                 14848002   74 
    731585.    3.205300.22404E-01                                 14848002   75 
    690012.    3.358940.22962E-01                                 14848002   76 
    650137.    3.587480.23610E-01                                 14848002   77 
    611890.    3.786990.25140E-01                                 14848002   78 
    576923.    4.012730.25573E-01                                 14848002   79 
    543533.    4.200670.25196E-01                                 14848002   80 
    511637.    4.402340.26079E-01                                 14848002   81 
    482470.    4.484330.26744E-01                                 14848002   82 
    455728.    4.570000.28146E-01                                 14848002   83 
    430208.    4.607040.28347E-01                                 14848002   84 
    405839.    4.673340.27904E-01                                 14848002   85 
    383485.    4.720790.29662E-01                                 14848002   86 
    362200.    4.822160.29284E-01                                 14848002   87 
    341918.    4.853010.29989E-01                                 14848002   88 
    322682.    4.889940.30728E-01                                 14848002   89 
    304417.    4.958250.31991E-01                                 14848002   90 
    287661.    4.974040.33874E-01                                 14848002   91 
    271779.    4.957470.33150E-01                                 14848002   92 
    256707.    5.071320.34558E-01                                 14848002   93 
    242457.    5.030090.34708E-01                                 14848002   94 
    228965.    5.105980.36399E-01                                 14848002   95 
    216570.    5.049170.37625E-01                                 14848002   96 
    204845.    5.097720.39408E-01                                 14848002   97 
    193740.    5.081870.39459E-01                                 14848002   98 
    183252.    5.121520.40135E-01                                 14848002   99 
    173333.    5.008390.41157E-01                                 14848002  100 
    163977.    5.010270.42539E-01                                 14848002  101 
    155137.    4.946820.44093E-01                                 14848002  102 
    146806.    4.943110.45286E-01                                 14848002  103 
    138942.    4.930280.46598E-01                                 14848002  104 
    131534.    4.916930.45487E-01                                 14848002  105 
    124545.    4.923540.48037E-01                                 14848002  106 
    117962.    4.914520.50468E-01                                 14848002  107 
    111630.    4.826130.54254E-01                                 14848002  108 
    105670.    4.918980.57218E-01                                 14848002  109 
    100069.    4.837770.57546E-01                                 14848002  110 
    94699.0    4.984480.56573E-01                                 14848002  111 
    89653.5    4.934920.58692E-01                                 14848002  112 
    84918.3    4.991250.59814E-01                                 14848002  113 
    80390.2    4.902250.57471E-01                                 14848002  114 
    76139.1    4.881350.59252E-01                                 14848002  115 
    72151.8    4.897280.59824E-01                                 14848002  116 
    68345.7    4.948470.62470E-01                                 14848002  117 
    64718.7    5.052680.65697E-01                                 14848002  118 
    61318.1    5.038600.66476E-01                                 14848002  119 
    58131.9    5.070170.71836E-01                                 14848002  120 
    55097.9    5.129740.75350E-01                                 14848002  121 
    52212.5    4.956120.75248E-01                                 14848002  122 
    49471.6    5.178240.77709E-01                                 14848002  123 
    46870.6    5.237520.81996E-01                                 14848002  124 
    44404.3    5.351460.87619E-01                                 14848002  125 
    42067.9    5.212440.90168E-01                                 14848002  126 
ENDDATA             92          0                                 14848002  127 
ENDSUBENT          126          0                                 1484800299999 
SUBENT        14848003   20250418                             151814848003    1 
BIB                  5         18                                 14848003    2 
REACTION   (5-B-10(N,TOT),,SIG)                                   14848003    3 
METHOD     (TOF) 200 m flight path. The boron and blank           14848003    4 
            (including tantalum end caps) samples were measured   14848003    5 
           at approximately 10 minute intervals. Typical          14848003    6 
           measurements lasted several days. Two separate beam    14848003    7 
           monitors were employed for fluence normalization.      14848003    8 
           These data have been grouped in ~5% energy groups.     14848003    9 
CORRECTION The maximum dead time correction for the 200 m         14848003   10 
           measurement was approximately 7%.                      14848003   11 
ERR-ANALYS (ERR-S) Statistical uncertainty.                       14848003   12 
           (ERR-SYS,0.4,0.5)                                      14848003   13 
           (ERR-1) Sample uncertainties.                          14848003   14 
           (ERR-2) Areal density.                                 14848003   15 
           (ERR-3) Background uncertainty, deadtime correction    14848003   16 
           and measurement procedure.                             14848003   17 
STATUS     (TABLE,,O.A.Wasson,C,94GATLIN,1,50,1994) Data were     14848003   18 
           provided by A.D.Carlson on April 17, 2025.             14848003   19 
           (COREL,14848002) Data from 80 m.                       14848003   20 
ENDBIB              18          0                                 14848003   21 
COMMON               3          3                                 14848003   22 
ERR-1      ERR-2      ERR-3                                       14848003   23 
PER-CENT   PER-CENT   PER-CENT                                    14848003   24 
        0.3        0.2        0.2                                 14848003   25 
ENDCOMMON            3          0                                 14848003   26 
DATA                 3         94                                 14848003   27 
EN         DATA       ERR-S                                       14848003   28 
EV         B          B                                           14848003   29 
0.16024E+08    1.441950.19318E-01                                 14848003   30 
0.15087E+08    1.454380.18268E-01                                 14848003   31 
0.14230E+08    1.474990.17125E-01                                 14848003   32 
0.13411E+08    1.459710.15404E-01                                 14848003   33 
0.12630E+08    1.485870.14329E-01                                 14848003   34 
0.11915E+08    1.489760.13277E-01                                 14848003   35 
0.11235E+08    1.502380.11867E-01                                 14848003   36 
0.10586E+08    1.498160.11124E-01                                 14848003   37 
0.99929E+07    1.502830.99553E-02                                 14848003   38 
0.94290E+07    1.491070.87057E-02                                 14848003   39 
0.88925E+07    1.480100.84346E-02                                 14848003   40 
0.84007E+07    1.513160.81461E-02                                 14848003   41 
0.79340E+07    1.525830.71347E-02                                 14848003   42 
0.74905E+07    1.542770.71038E-02                                 14848003   43 
0.70833E+07    1.585350.73466E-02                                 14848003   44 
0.66970E+07    1.577630.70000E-02                                 14848003   45 
0.63302E+07    1.571940.68234E-02                                 14848003   46 
0.59831E+07    1.520250.67759E-02                                 14848003   47 
0.56542E+07    1.460820.68045E-02                                 14848003   48 
0.53435E+07    1.495330.67943E-02                                 14848003   49 
0.50497E+07    1.530260.68984E-02                                 14848003   50 
0.47725E+07    1.642110.68824E-02                                 14848003   51 
0.45110E+07    1.783650.69289E-02                                 14848003   52 
0.42645E+07    1.874490.67730E-02                                 14848003   53 
0.40319E+07    1.779780.66731E-02                                 14848003   54 
0.38129E+07    1.644080.62849E-02                                 14848003   55 
0.36064E+07    1.631480.61101E-02                                 14848003   56 
0.34121E+07    1.754570.59594E-02                                 14848003   57 
0.32290E+07    1.873090.59091E-02                                 14848003   58 
0.30567E+07    2.108340.57449E-02                                 14848003   59 
0.28944E+07    2.368350.56645E-02                                 14848003   60 
0.27416E+07    2.471390.54650E-02                                 14848003   61 
0.25949E+07    2.291300.48751E-02                                 14848003   62 
0.24569E+07    2.064670.44847E-02                                 14848003   63 
0.23273E+07    1.951640.41071E-02                                 14848003   64 
0.22032E+07    1.921490.37889E-02                                 14848003   65 
0.20866E+07    1.953510.35085E-02                                 14848003   66 
0.19772E+07    2.080110.33513E-02                                 14848003   67 
0.18727E+07    2.215790.31568E-02                                 14848003   68 
0.17730E+07    2.292250.30905E-02                                 14848003   69 
0.16795E+07    2.173030.29012E-02                                 14848003   70 
0.15919E+07    1.984300.27100E-02                                 14848003   71 
0.15084E+07    1.938750.26516E-02                                 14848003   72 
0.14290E+07    1.960230.25767E-02                                 14848003   73 
0.13536E+07    2.024010.25395E-02                                 14848003   74 
0.12829E+07    2.102560.24924E-02                                 14848003   75 
0.12167E+07    2.191860.25354E-02                                 14848003   76 
0.11538E+07    2.274220.25000E-02                                 14848003   77 
0.10941E+07    2.364920.24741E-02                                 14848003   78 
0.10375E+07    2.462740.25955E-02                                 14848003   79 
    983830.    2.570870.25620E-02                                 14848003   80 
    932955.    2.675360.26013E-02                                 14848003   81 
    884790.    2.792360.26549E-02                                 14848003   82 
    839205.    2.908900.27338E-02                                 14848003   83 
    796085.    3.031600.28487E-02                                 14848003   84 
    755300.    3.163400.29368E-02                                 14848003   85 
    716340.    3.302030.30656E-02                                 14848003   86 
    679150.    3.448160.31859E-02                                 14848003   87 
    644070.    3.605010.35888E-02                                 14848003   88 
    610985.    3.771380.37968E-02                                 14848003   89 
    579485.    3.943930.39063E-02                                 14848003   90 
    549515.    4.130120.41384E-02                                 14848003   91 
    521290.    4.309520.44302E-02                                 14848003   92 
    494485.    4.459150.47176E-02                                 14848003   93 
    469020.    4.569940.50875E-02                                 14848003   94 
    444865.    4.620850.55727E-02                                 14848003   95 
    421965.    4.670320.59197E-02                                 14848003   96 
    400275.    4.704410.59368E-02                                 14848003   97 
    379720.    4.736500.62836E-02                                 14848003   98 
    360270.    4.807450.65566E-02                                 14848003   99 
    341860.    4.854160.70185E-02                                 14848003  100 
    324450.    4.905450.75360E-02                                 14848003  101 
    307870.    4.965050.81960E-02                                 14848003  102 
    292095.    5.001140.93644E-02                                 14848003  103 
    277200.    5.022000.99997E-02                                 14848003  104 
    263140.    5.051330.10384E-01                                 14848003  105 
    249775.    5.054940.11072E-01                                 14848003  106 
    237090.    5.087730.11826E-01                                 14848003  107 
    225055.    5.095590.12761E-01                                 14848003  108 
    213635.    5.100320.13662E-01                                 14848003  109 
    202760.    5.050370.14940E-01                                 14848003  110 
    192400.    5.043050.15690E-01                                 14848003  111 
    182600.    5.019920.16949E-01                                 14848003  112 
    173330.    5.042660.18332E-01                                 14848003  113 
    164520.    4.977030.19900E-01                                 14848003  114 
    156155.    4.955610.21474E-01                                 14848003  115 
    148215.    4.920790.22991E-01                                 14848003  116 
    140690.    4.918780.25340E-01                                 14848003  117 
    133550.    4.915260.26478E-01                                 14848003  118 
    126785.    4.858760.28174E-01                                 14848003  119 
    120365.    4.941290.32808E-01                                 14848003  120 
    114185.    4.908040.35954E-01                                 14848003  121 
    108330.    4.852970.41231E-01                                 14848003  122 
    102780.    4.832190.45032E-01                                 14848003  123 
ENDDATA             96          0                                 14848003  124 
ENDSUBENT          123          0                                 1484800399999 
ENDENTRY             3          0                                 1484899999999 
