ENTRY            20131   19831102                             00002013100000001 
SUBENT        20131001   19831102                             00002013100100001 
BIB                 15         79                                 2013100100002 
INSTITUTE  (2ZZZGEL)                                              2013100100003 
REFERENCE  (J,JNE,25,263,7107)     FULL FINAL PAPER.              2013100100004 
           (W,DERUYTTER,7010)      CROSS-SECTION DATA ON TAPE.    2013100100005 
           (R,EANDC(E)-129AL,7007) EXP.DESCR.,PRELIM.VALUES.      2013100100006 
            (ENTRY 20128).                                        2013100100007 
           (C,68WASH,1,475,6803)   EXP.DESCR.,PRELIM.VALUES.      2013100100008 
            (ENTRY 20140).                                        2013100100009 
AUTHOR     (A.J.DERUYTTER, C.WAGEMANS)                            2013100100010 
TITLE      -MEASUREMENT AND NORMALIZATION OF THE RELATIVE 92-U-2352013100100011 
            FISSION CROSS SECTION IN THE LOW RESONANCE REGION.-   2013100100012 
FACILITY   (LINAC)    ELECTRON LINEAR ACCELERATOR OF CBNM,        2013100100013 
            SEE COMMENT FOR THE LINAC PARAMETERS FOR TWO SERIES OF2013100100014 
            MEASUREMENTS.                                         2013100100015 
INC-SOURCE (PHOTO) NEUTRONS PRODUCED BY BOMBARDING AN             2013100100016 
            URANIUM TARGET WITH ELECTRONS.                        2013100100017 
INC-SPECT  .NEUTRONS WERE SLOWED DOWN BY 2.8 CM THICK POLYETHYLENE2013100100018 
            SHEET ON WHICH A 1 MM THICK B-10 DECOUPLER WAS        2013100100019 
            ATTACHED.  SEE COMMENT FOR NEUTRON FILTERS (BLACK     2013100100020 
            RESONANCE).                                           2013100100021 
SAMPLE     .THE U-235-LAYER WAS PREPARED BY ELECTRO-              2013100100022 
            SPRAYING OF URANYLACETATE ON A 0.1 MM THIN ALUMINIUM  2013100100023 
            PLATE,                                                2013100100024 
           .THE THICKNESS OF THE LAYER = 2 MILLI-G/CM2,  DIAMETER 2013100100025 
            = 80 MM.                                              2013100100026 
           .ISOTOPIC COMPOSITION IS                               2013100100027 
                    U-234   0.168 +- 0.002 ATOM PER CENT          2013100100028 
                    U-235  99.505 +- 0.004 ATOM PER CENT          2013100100029 
                    U-236   0.026 +- 0.001 ATOM PER CENT          2013100100030 
                    U-238   0.301 +- 0.002 ATOM PER CENT          2013100100031 
METHOD     (TOF  )    TIME OF FLIGHT, FLIGHT PATH = 8 M (FROM THE 2013100100032 
            BACK-SIDE OF THE POLYETHYLENE MODERATOR TO THE        2013100100033 
            B-10/U-235 LAYERS.)                                   2013100100034 
DETECTOR   (SOLST)    VERY THIN AU-SI SURFACE BARRIER DETECTORS   2013100100035 
            ARE PLACED TO VIEW EACH SIDE OF THE BACK-TO-BACK      2013100100036 
            LAYER OF B-10 AND U-235, IN A EVACUATED DETECTOR      2013100100037 
            CHAMBER (THE INNER DIAMETER IS 27 CM.).               2013100100038 
           .B-10 DEPOSIT IS AN ELEMENTAL BORON LAYER PREPARED BY  2013100100039 
            EVAPORATION (ELECTRON BOMBARDMENT).  THICKNESS =      2013100100040 
            103 MICRO-G/CM2, ISOTOPIC ENRICHMENT = 92 PER CENT,   2013100100041 
            DIAMETER = 80 MM.                                     2013100100042 
           .THE SIGNAL FROM THE B-10(N,A)- AND U-235(N,FISSION)-  2013100100043 
            REACTIONS ARE FED INTO TWO HALVES OF A 4096-CHANNEL   2013100100044 
            TOF ANALYSER WITH ''ACORDEON'' SYSTEM SO THAT FISSION 2013100100045 
            SPECTRUM AND B-10(N,A)LI-7 SPECTRUM ARE RECORDED      2013100100046 
            SIMULTANEOUSLY FROM THE SAME POSITION IN THE BEAM,    2013100100047 
            AND DATA ARE TRANSFERRED VIA A READ-OUT UNIT TO A     2013100100048 
            MAGNETIC TAPE FOR STORAGE.                            2013100100049 
ANALYSIS   .THE QUOTIENT OF FISSION AND ALPHA COUNTS GIVES A      2013100100050 
            RELATIVE CURVE OF (SIGMA FISSION) * SQRT(E).          2013100100051 
COMMENT    .TWO-SERIES OF MEASUREMENTS WITH THE FOLLOWING         2013100100052 
            EXPERIMENTAL CONDITIONS WERE PERFORMED.               2013100100053 
            ------------------------------------------------------2013100100054 
                       * 1ST SERIES EXP.    * 2ND SERIES EXP.     2013100100055 
            -----------*--------------------*---------------------2013100100056 
           .ENERGY     * 0.0065 EV - 140 EV,* 0.15 EV - 140 EV,   2013100100057 
                REGION *   USEFUL REGION,   *   USEFUL REGION,    2013100100058 
                       * 0.01 EV - 10 EV.   * 0.4 EV - 21 EV.     2013100100059 
           .LINAC      * 1 MICRO-S, 40 HZ,  * 50 NS,  400 HZ,     2013100100060 
             PARAMETERS* E(ELECTRON) = 55MEV* E(ELECTRON) = 60 MEV2013100100061 
                       * I(AV) = 17 MICRO-A,* I(AV) = 40 MICRO-A, 2013100100062 
                       * P = 1 KW.          * P = 2.4 KW.         2013100100063 
           .NEUTRON    *(FOR COMMON FILTERS)*(FOR COMMON FILTERS) 2013100100064 
              FILTERS  * CO, W  AND CO,     * CO, CD,             2013100100065 
                       *(FOR B.G. FILTERS)  *(FOR B.G. FILTERS)   2013100100066 
                       * TA, RH.            * W, TA, RH.          2013100100067 
            ------------------------------------------------------2013100100068 
HISTORY    (701010L)  THE FISSION DATA TO NEUDADA.                2013100100069 
           (710315T)  COMMENT WRITTEN FOR SIGMA AND RESONANCE     2013100100070 
            INTEGRAL.                                             2013100100071 
           (730309E)                                              2013100100072 
           (800523A) G.C., REACTION STRINGS CORRECTED.            2013100100073 
           (800603E)                                              2013100100074 
CORRECTION .THE BACKGROUND WITH A CD-FILTER WAS FOUND TO BE 0.05  2013100100075 
            PER CENT FOR THE FISSION SPECTRA AND 0.7 PER CENT FOR 2013100100076 
            B-10(N,A)LI-7 SPECTRA.                                2013100100077 
           .THE REDUCTION OF THE NEUTRON FLUX AFTER PASSING       2013100100078 
            THROUGH THE B-10 LAYER IS NEGLIGIBLE IN THE ENERGY    2013100100079 
            REGION OF INTEREST.                                   2013100100080 
ERR-ANALYS .NO DETAILS GIVEN.                                     2013100100081 
ENDBIB              79          0                                 2013100100082 
NOCOMMON             0          0                                 2013100100083 
ENDSUBENT           82          0                                 2013100199999 
SUBENT        20131002   19831102                             00002013100200001 
BIB                  5         29                                 2013100200002 
REACTION   (92-U-235(N,F),,SIG) FISSION CROSS SECTION.            2013100200003 
MONITOR    (92-U-235(N,F),,INT) NORMALIZED TO THE FISSION         2013100200004 
            INTEGRAL FROM 0.02060 TO 0.06239 EV =                 2013100200005 
            19.27 +- 0.08 BARN.EV FOR SERIES 1, CORRESPONDING TO  2013100200006 
            A 2200 M/SEC VALUE OF SIGMA FISSION = 587.9 BARN.     2013100200007 
            (DERUYTTER ET AL., 1970 HELSINKI CONF. VOL.1, P.117,  2013100200008 
             ENTRY 20143)                                         2013100200009 
           .THE SECOND SERIES HAS BEEN NORMALIZED TO THE SUM OF   2013100200010 
            THE INTEGRALS FROM 1.3 TO 3.7 AND FROM 4.5 TO 7.3 EV  2013100200011 
            TAKEN FROM THE FIRST SERIES.                          2013100200012 
COMMENT    .FOR STATISTICAL AND RESOLUTION REASONS THE DATA FROM  2013100200013 
            0.020 TO 1.5 EV WERE TAKEN FROM SERIES 1 AND THOSE    2013100200014 
            FROM 1.5 TO 11 EV FROM SERIES 2.                      2013100200015 
           .AUTHOR STATED THAT FOR THE REGION FROM 11 TO 21 EV    2013100200016 
            ONLY THE INTEGRALS ARE OF VALUE.                      2013100200017 
           .THE QUALITY OF THE LOWER ENERGY FISSION CROSS-SECTION 2013100200018 
            CURVE IS TESTED BY CALCULATING THE VALUE OF THE       2013100200019 
            WESTCOTT G-FACTOR WITH A PROGRAMME BY BECKER AND      2013100200020 
            SCHOTSMANS, PRIVATE COMMUNICATION (1970),             2013100200021 
             G(FISSION) = 0.978 +- 0.001                          2013100200022 
            AS COMPARED TO THE IAEA RECOMMENDED VALUE             2013100200023 
             G(FISSION) = 0.9766 +- 0.0016.                       2013100200024 
STATUS     .DATA FROM DERUYTTER ON CARDS OCT 1970.                2013100200025 
HISTORY    (701010L)  THE FISSION DATA TO NEUDADA                 2013100200026 
           (710315T)  COMMENT ADDED                               2013100200027 
           (720828A)  COMMENT MODIFIED.                           2013100200028 
           (730309E)                                              2013100200029 
           (800523A) G.C., REACTION STRINGS CORRECTED.            2013100200030 
           (800603E)                                              2013100200031 
ENDBIB              29          0                                 2013100200032 
COMMON               4          3                                 2013100200033 
EN-NRM-MIN EN-NRM-MAX MONIT      MONIT-ERR                        2013100200034 
EV         EV         B*EV       B*EV                             2013100200035 
 2.0600E-02 6.2390E-02 1.9270E+01 8.0000E-02                      2013100200036 
ENDCOMMON            3          0                                 2013100200037 
DATA                 3        870                                 2013100200038 
EN         DATA       DATA-ERR                                    2013100200039 
MEV        B          B                                           2013100200040 
 2.0180E-08 6.7540E+02 6.5000E+00                                 2013100200041 
 2.0440E-08 6.7900E+02 6.5000E+00                                 2013100200042 
 2.0700E-08 6.6660E+02 6.5000E+00                                 2013100200043 
 2.0960E-08 6.6860E+02 6.5000E+00                                 2013100200044 
 2.1230E-08 6.6320E+02 6.5000E+00                                 2013100200045 
 2.1510E-08 6.4500E+02 6.2000E+00                                 2013100200046 
 2.1790E-08 6.4190E+02 6.2000E+00                                 2013100200047 
 2.2080E-08 6.4630E+02 6.2000E+00                                 2013100200048 
 2.2370E-08 6.2480E+02 6.2000E+00                                 2013100200049 
 2.2670E-08 6.1610E+02 6.2000E+00                                 2013100200050 
 2.2980E-08 6.2530E+02 5.6000E+00                                 2013100200051 
 2.3290E-08 6.0910E+02 5.6000E+00                                 2013100200052 
 2.3600E-08 6.0380E+02 5.6000E+00                                 2013100200053 
 2.3930E-08 6.0140E+02 5.6000E+00                                 2013100200054 
 2.4260E-08 5.9570E+02 5.6000E+00                                 2013100200055 
 2.4600E-08 5.8910E+02 5.0000E+00                                 2013100200056 
 2.4940E-08 5.7830E+02 5.0000E+00                                 2013100200057 
 2.5290E-08 5.8310E+02 5.0000E+00                                 2013100200058 
 2.5650E-08 5.6980E+02 5.0000E+00                                 2013100200059 
 2.6020E-08 5.7190E+02 5.0000E+00                                 2013100200060 
 2.6390E-08 5.6210E+02 4.5000E+00                                 2013100200061 
 2.6780E-08 5.6250E+02 4.5000E+00                                 2013100200062 
 2.7170E-08 5.4800E+02 4.5000E+00                                 2013100200063 
 2.7570E-08 5.4730E+02 4.5000E+00                                 2013100200064 
 2.7980E-08 5.4300E+02 4.5000E+00                                 2013100200065 
 2.8400E-08 5.3930E+02 4.2000E+00                                 2013100200066 
 2.8830E-08 5.4140E+02 4.2000E+00                                 2013100200067 
 2.9260E-08 5.3650E+02 4.2000E+00                                 2013100200068 
 2.9710E-08 5.3510E+02 4.2000E+00                                 2013100200069 
 3.0170E-08 5.2830E+02 4.2000E+00                                 2013100200070 
 3.0640E-08 5.2550E+02 3.9000E+00                                 2013100200071 
 3.1120E-08 5.2150E+02 3.9000E+00                                 2013100200072 
 3.1610E-08 5.1850E+02 3.9000E+00                                 2013100200073 
 3.2110E-08 5.0230E+02 3.9000E+00                                 2013100200074 
 3.2630E-08 5.0250E+02 3.9000E+00                                 2013100200075 
 3.3150E-08 4.9640E+02 3.5000E+00                                 2013100200076 
 3.3690E-08 4.9100E+02 3.5000E+00                                 2013100200077 
 3.4250E-08 4.9110E+02 3.5000E+00                                 2013100200078 
 3.4810E-08 4.8760E+02 3.5000E+00                                 2013100200079 
 3.5390E-08 4.7560E+02 3.5000E+00                                 2013100200080 
 3.5990E-08 4.7450E+02 3.2000E+00                                 2013100200081 
 3.6600E-08 4.7670E+02 3.2000E+00                                 2013100200082 
 3.7230E-08 4.6740E+02 3.2000E+00                                 2013100200083 
 3.7870E-08 4.6010E+02 3.2000E+00                                 2013100200084 
 3.8530E-08 4.5580E+02 3.2000E+00                                 2013100200085 
 3.9210E-08 4.5310E+02 3.0000E+00                                 2013100200086 
 3.9910E-08 4.4760E+02 3.0000E+00                                 2013100200087 
 4.0620E-08 4.3970E+02 3.0000E+00                                 2013100200088 
 4.1350E-08 4.3350E+02 3.0000E+00                                 2013100200089 
 4.2110E-08 4.3090E+02 3.0000E+00                                 2013100200090 
 4.2880E-08 4.2710E+02 2.8000E+00                                 2013100200091 
 4.3680E-08 4.2190E+02 2.8000E+00                                 2013100200092 
 4.4500E-08 4.1280E+02 2.8000E+00                                 2013100200093 
 4.5340E-08 4.1360E+02 2.8000E+00                                 2013100200094 
 4.6200E-08 4.1320E+02 2.8000E+00                                 2013100200095 
 4.7090E-08 4.0890E+02 2.6000E+00                                 2013100200096 
 4.8010E-08 4.0630E+02 2.6000E+00                                 2013100200097 
 4.8950E-08 4.0240E+02 2.6000E+00                                 2013100200098 
 4.9930E-08 3.9350E+02 2.6000E+00                                 2013100200099 
 5.0930E-08 3.8810E+02 2.6000E+00                                 2013100200100 
 5.1960E-08 3.8260E+02 2.3000E+00                                 2013100200101 
 5.3020E-08 3.7810E+02 2.3000E+00                                 2013100200102 
 5.4120E-08 3.7230E+02 2.3000E+00                                 2013100200103 
 5.5250E-08 3.6960E+02 2.3000E+00                                 2013100200104 
 5.6410E-08 3.6030E+02 2.3000E+00                                 2013100200105 
 5.7620E-08 3.5800E+02 2.1000E+00                                 2013100200106 
 5.8860E-08 3.5100E+02 2.1000E+00                                 2013100200107 
 6.0140E-08 3.4460E+02 2.1000E+00                                 2013100200108 
 6.1470E-08 3.4080E+02 2.1000E+00                                 2013100200109 
 6.2840E-08 3.3840E+02 2.1000E+00                                 2013100200110 
 6.4250E-08 3.3260E+02 2.0000E+00                                 2013100200111 
 6.5720E-08 3.2900E+02 2.0000E+00                                 2013100200112 
 6.7230E-08 3.2120E+02 2.0000E+00                                 2013100200113 
 6.8800E-08 3.1930E+02 2.0000E+00                                 2013100200114 
 7.0420E-08 3.1490E+02 2.0000E+00                                 2013100200115 
 7.2110E-08 3.1170E+02 1.9000E+00                                 2013100200116 
 7.3850E-08 3.0710E+02 1.9000E+00                                 2013100200117 
 7.5650E-08 2.9790E+02 1.9000E+00                                 2013100200118 
 7.7530E-08 2.9740E+02 1.9000E+00                                 2013100200119 
 7.9470E-08 2.9250E+02 1.9000E+00                                 2013100200120 
 8.1490E-08 2.8630E+02 1.7000E+00                                 2013100200121 
 8.3590E-08 2.8020E+02 1.7000E+00                                 2013100200122 
 8.5770E-08 2.7580E+02 1.7000E+00                                 2013100200123 
 8.8030E-08 2.7190E+02 1.7000E+00                                 2013100200124 
 9.0390E-08 2.6870E+02 1.7000E+00                                 2013100200125 
 9.2840E-08 2.6450E+02 1.6000E+00                                 2013100200126 
 9.5400E-08 2.6160E+02 1.6000E+00                                 2013100200127 
 9.8060E-08 2.5680E+02 1.6000E+00                                 2013100200128 
 1.0080E-07 2.4790E+02 1.6000E+00                                 2013100200129 
 1.0370E-07 2.4760E+02 1.6000E+00                                 2013100200130 
 1.0670E-07 2.4040E+02 1.6000E+00                                 2013100200131 
 1.0990E-07 2.3550E+02 1.6000E+00                                 2013100200132 
 1.1320E-07 2.3250E+02 1.6000E+00                                 2013100200133 
 1.1660E-07 2.2670E+02 1.6000E+00                                 2013100200134 
 1.2020E-07 2.2380E+02 1.6000E+00                                 2013100200135 
 1.2400E-07 2.1960E+02 1.5000E+00                                 2013100200136 
 1.2800E-07 2.1580E+02 1.5000E+00                                 2013100200137 
 1.3210E-07 2.1150E+02 1.5000E+00                                 2013100200138 
 1.3650E-07 2.0840E+02 1.5000E+00                                 2013100200139 
 1.4110E-07 2.0120E+02 1.5000E+00                                 2013100200140 
 1.4590E-07 1.9750E+02 1.4000E+00                                 2013100200141 
 1.5090E-07 1.9400E+02 1.4000E+00                                 2013100200142 
 1.5620E-07 1.9000E+02 1.4000E+00                                 2013100200143 
 1.6180E-07 1.8820E+02 1.4000E+00                                 2013100200144 
 1.6780E-07 1.8420E+02 1.4000E+00                                 2013100200145 
 1.7400E-07 1.7920E+02 1.4000E+00                                 2013100200146 
 1.8060E-07 1.8000E+02 1.4000E+00                                 2013100200147 
 1.8760E-07 1.7810E+02 1.4000E+00                                 2013100200148 
 1.9500E-07 1.7850E+02 1.4000E+00                                 2013100200149 
 2.0280E-07 1.7640E+02 1.4000E+00                                 2013100200150 
 2.1180E-07 1.7650E+02 1.4000E+00                                 2013100200151 
 2.1640E-07 1.7435E+02 3.0400E+00                                 2013100200152 
 2.1820E-07 1.7749E+02 3.0600E+00                                 2013100200153 
 2.2000E-07 1.7719E+02 3.0600E+00                                 2013100200154 
 2.2190E-07 1.7756E+02 3.0600E+00                                 2013100200155 
 2.2370E-07 1.7565E+02 3.0600E+00                                 2013100200156 
 2.2560E-07 1.7160E+02 3.0200E+00                                 2013100200157 
 2.2750E-07 1.7575E+02 3.0600E+00                                 2013100200158 
 2.2950E-07 1.7438E+02 3.0400E+00                                 2013100200159 
 2.3140E-07 1.7778E+02 3.0600E+00                                 2013100200160 
 2.3340E-07 1.8089E+02 3.0700E+00                                 2013100200161 
 2.3540E-07 1.7521E+02 3.0600E+00                                 2013100200162 
 2.3740E-07 1.7929E+02 3.1000E+00                                 2013100200163 
 2.3950E-07 1.7945E+02 3.1000E+00                                 2013100200164 
 2.4160E-07 1.7540E+02 3.0600E+00                                 2013100200165 
 2.4370E-07 1.7690E+02 3.0600E+00                                 2013100200166 
 2.4580E-07 1.7436E+02 3.0300E+00                                 2013100200167 
 2.4800E-07 1.8054E+02 3.0700E+00                                 2013100200168 
 2.5020E-07 1.8337E+02 3.0900E+00                                 2013100200169 
 2.5240E-07 1.7792E+02 3.0400E+00                                 2013100200170 
 2.5470E-07 1.8765E+02 3.1100E+00                                 2013100200171 
 2.5700E-07 1.8411E+02 3.0700E+00                                 2013100200172 
 2.5930E-07 1.8875E+02 3.1000E+00                                 2013100200173 
 2.6170E-07 1.8547E+02 3.0700E+00                                 2013100200174 
 2.6400E-07 1.9069E+02 3.1000E+00                                 2013100200175 
 2.6650E-07 1.9239E+02 3.1000E+00                                 2013100200176 
 2.6890E-07 1.8856E+02 3.0700E+00                                 2013100200177 
 2.7140E-07 1.8708E+02 3.0500E+00                                 2013100200178 
 2.7390E-07 1.8985E+02 3.0600E+00                                 2013100200179 
 2.7650E-07 1.8547E+02 3.0200E+00                                 2013100200180 
 2.7910E-07 1.9362E+02 3.0700E+00                                 2013100200181 
 2.8170E-07 1.9107E+02 3.0500E+00                                 2013100200182 
 2.8440E-07 1.9332E+02 3.0600E+00                                 2013100200183 
 2.8710E-07 1.9073E+02 3.0300E+00                                 2013100200184 
 2.8980E-07 1.9230E+02 3.0300E+00                                 2013100200185 
 2.9260E-07 1.9205E+02 3.0200E+00                                 2013100200186 
 2.9540E-07 1.8986E+02 3.0000E+00                                 2013100200187 
 2.9830E-07 1.9059E+02 3.0000E+00                                 2013100200188 
 3.0120E-07 1.8110E+02 2.9200E+00                                 2013100200189 
 3.0410E-07 1.8923E+02 2.9700E+00                                 2013100200190 
 3.0710E-07 1.8179E+02 2.9100E+00                                 2013100200191 
 3.1010E-07 1.8506E+02 2.9200E+00                                 2013100200192 
 3.1320E-07 1.7858E+02 2.8700E+00                                 2013100200193 
 3.1630E-07 1.8100E+02 2.8800E+00                                 2013100200194 
 3.1950E-07 1.7652E+02 2.8400E+00                                 2013100200195 
 3.2270E-07 1.7503E+02 2.8200E+00                                 2013100200196 
 3.2600E-07 1.7248E+02 2.7900E+00                                 2013100200197 
 3.2930E-07 1.6340E+02 2.7100E+00                                 2013100200198 
 3.3270E-07 1.6473E+02 2.7100E+00                                 2013100200199 
 3.3610E-07 1.6256E+02 2.6900E+00                                 2013100200200 
 3.3960E-07 1.6085E+02 2.6700E+00                                 2013100200201 
 3.4310E-07 1.5378E+02 2.6100E+00                                 2013100200202 
 3.4690E-07 1.5026E+02 2.5700E+00                                 2013100200203 
 3.5030E-07 1.5085E+02 2.5700E+00                                 2013100200204 
 3.5400E-07 1.4720E+02 2.5300E+00                                 2013100200205 
 3.5780E-07 1.4075E+02 2.4700E+00                                 2013100200206 
 3.6160E-07 1.3666E+02 2.4300E+00                                 2013100200207 
 3.6550E-07 1.3779E+02 2.4400E+00                                 2013100200208 
 3.6940E-07 1.3092E+02 2.3700E+00                                 2013100200209 
 3.7340E-07 1.2884E+02 2.3500E+00                                 2013100200210 
 3.7750E-07 1.2715E+02 2.3300E+00                                 2013100200211 
 3.8160E-07 1.2337E+02 2.2900E+00                                 2013100200212 
 3.8580E-07 1.2074E+02 2.2600E+00                                 2013100200213 
 3.9010E-07 1.1675E+02 2.2200E+00                                 2013100200214 
 3.9450E-07 1.1875E+02 2.2300E+00                                 2013100200215 
 3.9890E-07 1.1463E+02 2.1900E+00                                 2013100200216 
 4.0340E-07 1.1228E+02 2.1600E+00                                 2013100200217 
 4.0790E-07 1.0891E+02 2.1300E+00                                 2013100200218 
 4.1260E-07 1.0463E+02 2.0800E+00                                 2013100200219 
 4.1730E-07 1.0101E+02 2.0400E+00                                 2013100200220 
 4.2210E-07 1.0171E+02 2.0400E+00                                 2013100200221 
 4.2700E-07 1.0218E+02 2.0400E+00                                 2013100200222 
 4.3200E-07 9.5660E+01 1.9800E+00                                 2013100200223 
 4.3710E-07 9.5140E+01 1.9700E+00                                 2013100200224 
 4.4220E-07 9.5840E+01 1.9700E+00                                 2013100200225 
 4.4750E-07 9.2660E+01 1.9300E+00                                 2013100200226 
 4.5280E-07 9.1160E+01 1.9100E+00                                 2013100200227 
 4.5830E-07 8.5710E+01 1.8600E+00                                 2013100200228 
 4.6380E-07 8.9390E+01 1.8800E+00                                 2013100200229 
 4.6940E-07 8.4060E+01 1.8300E+00                                 2013100200230 
 4.7520E-07 8.6170E+01 1.8400E+00                                 2013100200231 
 4.8100E-07 8.4730E+01 1.8200E+00                                 2013100200232 
 4.8700E-07 8.1420E+01 1.7900E+00                                 2013100200233 
 4.9310E-07 8.2400E+01 1.7900E+00                                 2013100200234 
 4.9920E-07 7.9580E+01 1.7600E+00                                 2013100200235 
 5.0550E-07 7.8600E+01 1.7400E+00                                 2013100200236 
 5.1200E-07 7.6690E+01 1.7200E+00                                 2013100200237 
 5.1850E-07 7.9370E+01 1.7400E+00                                 2013100200238 
 5.2520E-07 7.7330E+01 1.7100E+00                                 2013100200239 
 5.3200E-07 7.3400E+01 1.6700E+00                                 2013100200240 
 5.3890E-07 7.4100E+01 1.6800E+00                                 2013100200241 
 5.4690E-07 7.2130E+01 1.3400E+00                                 2013100200242 
 5.5600E-07 7.0010E+01 1.3100E+00                                 2013100200243 
 5.6530E-07 6.8420E+01 1.2800E+00                                 2013100200244 
 5.7480E-07 6.6570E+01 1.2600E+00                                 2013100200245 
 5.8450E-07 6.6600E+01 1.2500E+00                                 2013100200246 
 5.9450E-07 6.5270E+01 1.2300E+00                                 2013100200247 
 6.0480E-07 6.5030E+01 1.2200E+00                                 2013100200248 
 6.1540E-07 6.3960E+01 1.2100E+00                                 2013100200249 
 6.2620E-07 6.2120E+01 1.1800E+00                                 2013100200250 
 6.3730E-07 6.1960E+01 1.1800E+00                                 2013100200251 
 6.4870E-07 6.2100E+01 1.1700E+00                                 2013100200252 
 6.6040E-07 5.9950E+01 1.1500E+00                                 2013100200253 
 6.7240E-07 5.9140E+01 1.1300E+00                                 2013100200254 
 6.8480E-07 5.7870E+01 1.1100E+00                                 2013100200255 
 6.9750E-07 5.8560E+01 1.1100E+00                                 2013100200256 
 7.1050E-07 5.7150E+01 1.1000E+00                                 2013100200257 
 7.2400E-07 5.5800E+01 1.0800E+00                                 2013100200258 
 7.3780E-07 5.6340E+01 1.0800E+00                                 2013100200259 
 7.5200E-07 5.5830E+01 1.0800E+00                                 2013100200260 
 7.6660E-07 5.5560E+01 1.0600E+00                                 2013100200261 
 7.8170E-07 5.3540E+01 1.0300E+00                                 2013100200262 
 7.9720E-07 5.2770E+01 1.0200E+00                                 2013100200263 
 8.1320E-07 5.2400E+01 1.0100E+00                                 2013100200264 
 8.2970E-07 5.3040E+01 1.0300E+00                                 2013100200265 
 8.4660E-07 5.2120E+01 9.9000E-01                                 2013100200266 
 8.6410E-07 5.3210E+01 9.9000E-01                                 2013100200267 
 8.8210E-07 5.3410E+01 9.9000E-01                                 2013100200268 
 9.0080E-07 5.4990E+01 1.0000E+00                                 2013100200269 
 9.2000E-07 5.4420E+01 9.9000E-01                                 2013100200270 
 9.3980E-07 5.7130E+01 1.0000E+00                                 2013100200271 
 9.6030E-07 5.8570E+01 1.0100E+00                                 2013100200272 
 9.8140E-07 6.1290E+01 1.0200E+00                                 2013100200273 
 1.0033E-06 6.5870E+01 1.0500E+00                                 2013100200274 
 1.0259E-06 7.0100E+01 1.0800E+00                                 2013100200275 
 1.0398E-06 7.3220E+01 2.4600E+00                                 2013100200276 
 1.0445E-06 7.6440E+01 2.5000E+00                                 2013100200277 
 1.0492E-06 8.0100E+01 2.5600E+00                                 2013100200278 
 1.0540E-06 7.9660E+01 2.5500E+00                                 2013100200279 
 1.0588E-06 7.9380E+01 2.5400E+00                                 2013100200280 
 1.0636E-06 8.6370E+01 2.6500E+00                                 2013100200281 
 1.0685E-06 8.4640E+01 2.6100E+00                                 2013100200282 
 1.0734E-06 8.2690E+01 2.5700E+00                                 2013100200283 
 1.0783E-06 9.3050E+01 2.7200E+00                                 2013100200284 
 1.0833E-06 9.0340E+01 2.6800E+00                                 2013100200285 
 1.0883E-06 9.8990E+01 2.8000E+00                                 2013100200286 
 1.0934E-06 9.5400E+01 2.7500E+00                                 2013100200287 
 1.0984E-06 9.6730E+01 2.7600E+00                                 2013100200288 
 1.1035E-06 9.8570E+01 2.7800E+00                                 2013100200289 
 1.1087E-06 1.0105E+02 2.8100E+00                                 2013100200290 
 1.1139E-06 1.0402E+02 2.8500E+00                                 2013100200291 
 1.1191E-06 1.0386E+02 2.8400E+00                                 2013100200292 
 1.1243E-06 1.0752E+02 2.8900E+00                                 2013100200293 
 1.1296E-06 9.9730E+01 2.7700E+00                                 2013100200294 
 1.1350E-06 1.0582E+02 2.8500E+00                                 2013100200295 
 1.1403E-06 1.0042E+02 2.7800E+00                                 2013100200296 
 1.1457E-06 9.9420E+01 2.7600E+00                                 2013100200297 
 1.1512E-06 9.9050E+01 2.7500E+00                                 2013100200298 
 1.1567E-06 9.5570E+01 2.6900E+00                                 2013100200299 
 1.1622E-06 9.5430E+01 2.6900E+00                                 2013100200300 
 1.1677E-06 9.1970E+01 2.6400E+00                                 2013100200301 
 1.1733E-06 8.2350E+01 2.4900E+00                                 2013100200302 
 1.1790E-06 7.5930E+01 2.3900E+00                                 2013100200303 
 1.1847E-06 7.2630E+01 2.3300E+00                                 2013100200304 
 1.1904E-06 6.8790E+01 2.2700E+00                                 2013100200305 
 1.1962E-06 6.6160E+01 2.2200E+00                                 2013100200306 
 1.2020E-06 6.3120E+01 2.1700E+00                                 2013100200307 
 1.2078E-06 5.7060E+01 2.0600E+00                                 2013100200308 
 1.2137E-06 5.1310E+01 1.9600E+00                                 2013100200309 
 1.2196E-06 4.4640E+01 1.8300E+00                                 2013100200310 
 1.2256E-06 4.3130E+01 1.8000E+00                                 2013100200311 
 1.2316E-06 3.9390E+01 1.7200E+00                                 2013100200312 
 1.2377E-06 3.8720E+01 1.7000E+00                                 2013100200313 
 1.2438E-06 3.3520E+01 1.5900E+00                                 2013100200314 
 1.2500E-06 3.1460E+01 1.5400E+00                                 2013100200315 
 1.2562E-06 2.8800E+01 1.4800E+00                                 2013100200316 
 1.2624E-06 2.9380E+01 1.4900E+00                                 2013100200317 
 1.2751E-06 2.5750E+01 8.1000E-01                                 2013100200318 
 1.2944E-06 2.2980E+01 7.6000E-01                                 2013100200319 
 1.3142E-06 2.3220E+01 7.6000E-01                                 2013100200320 
 1.3344E-06 2.1470E+01 7.3000E-01                                 2013100200321 
 1.3551E-06 2.0130E+01 7.1000E-01                                 2013100200322 
 1.3762E-06 1.9940E+01 7.0000E-01                                 2013100200323 
 1.3979E-06 1.9010E+01 6.9000E-01                                 2013100200324 
 1.4201E-06 1.7320E+01 6.5000E-01                                 2013100200325 
 1.4428E-06 1.8090E+01 6.6000E-01                                 2013100200326 
 1.4661E-06 1.6670E+01 6.4000E-01                                 2013100200327 
 1.4899E-06 1.5750E+01 6.2000E-01                                 2013100200328 
 1.5067E-06 1.6110E+01 6.1000E-01                                 2013100200329 
 1.5339E-06 1.6150E+01 6.0000E-01                                 2013100200330 
 1.5595E-06 1.5840E+01 5.9000E-01                                 2013100200331 
 1.5858E-06 1.5150E+01 5.8000E-01                                 2013100200332 
 1.6127E-06 1.4600E+01 5.7000E-01                                 2013100200333 
 1.6403E-06 1.4480E+01 5.6000E-01                                 2013100200334 
 1.6687E-06 1.5120E+01 5.6000E-01                                 2013100200335 
 1.6977E-06 1.4040E+01 5.5000E-01                                 2013100200336 
 1.7276E-06 1.5050E+01 5.6000E-01                                 2013100200337 
 1.7582E-06 1.3880E+01 5.4000E-01                                 2013100200338 
 1.7896E-06 1.3980E+01 5.4000E-01                                 2013100200339 
 1.8219E-06 1.3640E+01 5.4000E-01                                 2013100200340 
 1.8551E-06 1.3420E+01 5.3000E-01                                 2013100200341 
 1.8892E-06 1.3690E+01 5.3000E-01                                 2013100200342 
 1.9243E-06 1.3560E+01 5.2000E-01                                 2013100200343 
 1.9482E-06 1.6100E+01 9.5000E-01                                 2013100200344 
 1.9603E-06 1.5490E+01 9.4000E-01                                 2013100200345 
 1.9725E-06 1.7920E+01 9.9000E-01                                 2013100200346 
 1.9849E-06 1.8410E+01 1.0000E+00                                 2013100200347 
 1.9973E-06 2.1170E+01 1.0500E+00                                 2013100200348 
 2.0099E-06 2.3820E+01 1.1000E+00                                 2013100200349 
 2.0226E-06 2.6810E+01 1.1500E+00                                 2013100200350 
 2.0355E-06 2.6870E+01 1.1500E+00                                 2013100200351 
 2.0484E-06 2.5090E+01 1.1200E+00                                 2013100200352 
 2.0615E-06 2.0510E+01 1.0300E+00                                 2013100200353 
 2.0747E-06 1.8180E+01 9.8000E-01                                 2013100200354 
 2.0880E-06 1.7280E+01 9.6000E-01                                 2013100200355 
 2.1014E-06 1.4700E+01 9.0000E-01                                 2013100200356 
 2.1287E-06 1.2710E+01 4.9000E-01                                 2013100200357 
 2.1707E-06 1.1770E+01 4.8000E-01                                 2013100200358 
 2.2139E-06 1.1210E+01 4.7000E-01                                 2013100200359 
 2.2584E-06 1.1350E+01 4.7000E-01                                 2013100200360 
 2.3043E-06 1.0820E+01 4.6000E-01                                 2013100200361 
 2.3515E-06 1.0290E+01 4.5000E-01                                 2013100200362 
 2.4003E-06 9.8100E+00 4.3000E-01                                 2013100200363 
 2.4326E-06 9.4900E+00 6.2000E-01                                 2013100200364 
 2.4527E-06 9.7100E+00 5.7000E-01                                 2013100200365 
 2.4742E-06 9.5100E+00 5.6000E-01                                 2013100200366 
 2.4959E-06 8.2400E+00 5.2000E-01                                 2013100200367 
 2.5179E-06 8.7000E+00 5.3000E-01                                 2013100200368 
 2.5402E-06 8.8000E+00 5.4000E-01                                 2013100200369 
 2.5628E-06 8.1200E+00 5.2000E-01                                 2013100200370 
 2.5857E-06 8.5100E+00 5.3000E-01                                 2013100200371 
 2.6089E-06 7.6000E+00 5.1000E-01                                 2013100200372 
 2.6325E-06 8.3200E+00 5.2000E-01                                 2013100200373 
 2.6563E-06 7.7800E+00 5.1000E-01                                 2013100200374 
 2.6805E-06 7.4300E+00 5.0000E-01                                 2013100200375 
 2.7050E-06 7.0600E+00 4.9000E-01                                 2013100200376 
 2.7298E-06 7.2200E+00 4.9000E-01                                 2013100200377 
 2.7399E-06 7.8700E+00 1.1300E+00                                 2013100200378 
 2.7500E-06 7.8600E+00 1.1200E+00                                 2013100200379 
 2.7550E-06 9.0000E+00 1.1800E+00                                 2013100200380 
 2.7601E-06 9.1000E+00 1.1900E+00                                 2013100200381 
 2.7652E-06 1.0930E+01 1.2700E+00                                 2013100200382 
 2.7703E-06 1.0570E+01 1.2500E+00                                 2013100200383 
 2.7754E-06 1.1130E+01 1.2800E+00                                 2013100200384 
 2.7806E-06 1.1350E+01 1.2900E+00                                 2013100200385 
 2.7857E-06 1.3160E+01 1.3700E+00                                 2013100200386 
 2.7909E-06 1.2350E+01 1.3300E+00                                 2013100200387 
 2.7961E-06 1.2330E+01 1.3300E+00                                 2013100200388 
 2.8013E-06 1.6530E+01 1.5000E+00                                 2013100200389 
 2.8065E-06 1.5030E+01 1.4400E+00                                 2013100200390 
 2.8117E-06 1.4220E+01 1.4100E+00                                 2013100200391 
 2.8169E-06 1.6700E+01 1.5100E+00                                 2013100200392 
 2.8222E-06 1.3960E+01 1.4000E+00                                 2013100200393 
 2.8274E-06 1.6210E+01 1.4900E+00                                 2013100200394 
 2.8327E-06 1.6650E+01 1.5000E+00                                 2013100200395 
 2.8380E-06 1.4930E+01 1.4300E+00                                 2013100200396 
 2.8433E-06 1.5930E+01 1.4700E+00                                 2013100200397 
 2.8487E-06 1.6030E+01 1.4800E+00                                 2013100200398 
 2.8540E-06 1.4090E+01 1.4000E+00                                 2013100200399 
 2.8593E-06 1.8920E+01 1.5800E+00                                 2013100200400 
 2.8647E-06 1.8000E+01 1.5400E+00                                 2013100200401 
 2.8701E-06 1.8980E+01 1.5800E+00                                 2013100200402 
 2.8755E-06 1.7730E+01 1.5300E+00                                 2013100200403 
 2.8809E-06 1.8480E+01 1.5600E+00                                 2013100200404 
 2.8864E-06 1.7460E+01 1.5200E+00                                 2013100200405 
 2.8918E-06 1.9760E+01 1.6000E+00                                 2013100200406 
 2.8973E-06 1.6860E+01 1.4900E+00                                 2013100200407 
 2.9027E-06 2.2920E+01 1.7100E+00                                 2013100200408 
 2.9082E-06 1.6700E+01 1.4800E+00                                 2013100200409 
 2.9137E-06 1.7450E+01 1.5100E+00                                 2013100200410 
 2.9193E-06 2.0290E+01 1.6100E+00                                 2013100200411 
 2.9248E-06 2.1590E+01 1.6600E+00                                 2013100200412 
 2.9304E-06 2.0460E+01 1.6200E+00                                 2013100200413 
 2.9359E-06 1.8780E+01 1.5600E+00                                 2013100200414 
 2.9415E-06 2.0080E+01 1.6000E+00                                 2013100200415 
 2.9471E-06 2.1910E+01 1.6600E+00                                 2013100200416 
 2.9528E-06 2.0790E+01 1.6200E+00                                 2013100200417 
 2.9584E-06 2.1310E+01 1.6400E+00                                 2013100200418 
 2.9640E-06 1.9420E+01 1.5700E+00                                 2013100200419 
 2.9697E-06 2.2780E+01 1.6900E+00                                 2013100200420 
 2.9754E-06 2.3840E+01 1.7200E+00                                 2013100200421 
 2.9811E-06 2.2280E+01 1.6700E+00                                 2013100200422 
 2.9868E-06 1.9970E+01 1.5900E+00                                 2013100200423 
 2.9926E-06 2.1460E+01 1.6400E+00                                 2013100200424 
 2.9983E-06 2.4680E+01 1.7400E+00                                 2013100200425 
 3.0041E-06 2.5730E+01 1.7800E+00                                 2013100200426 
 3.0099E-06 2.7530E+01 1.8300E+00                                 2013100200427 
 3.0156E-06 2.4260E+01 1.7300E+00                                 2013100200428 
 3.0215E-06 2.7680E+01 1.8300E+00                                 2013100200429 
 3.0273E-06 2.9680E+01 1.8900E+00                                 2013100200430 
 3.0332E-06 2.9110E+01 1.8700E+00                                 2013100200431 
 3.0390E-06 2.7560E+01 1.8200E+00                                 2013100200432 
 3.0449E-06 3.1280E+01 1.9300E+00                                 2013100200433 
 3.0508E-06 3.4980E+01 2.0300E+00                                 2013100200434 
 3.0567E-06 3.2800E+01 1.9700E+00                                 2013100200435 
 3.0627E-06 3.2970E+01 1.9800E+00                                 2013100200436 
 3.0686E-06 3.7510E+01 2.1000E+00                                 2013100200437 
 3.0746E-06 3.8420E+01 2.1200E+00                                 2013100200438 
 3.0806E-06 3.6240E+01 2.0600E+00                                 2013100200439 
 3.0866E-06 4.3840E+01 2.2500E+00                                 2013100200440 
 3.0926E-06 4.3890E+01 2.2500E+00                                 2013100200441 
 3.0987E-06 4.6160E+01 2.3100E+00                                 2013100200442 
 3.1047E-06 4.8740E+01 2.3700E+00                                 2013100200443 
 3.1108E-06 5.0260E+01 2.4000E+00                                 2013100200444 
 3.1169E-06 5.0720E+01 2.4100E+00                                 2013100200445 
 3.1230E-06 5.2020E+01 2.4400E+00                                 2013100200446 
 3.1291E-06 4.9220E+01 2.3700E+00                                 2013100200447 
 3.1353E-06 5.4930E+01 2.5000E+00                                 2013100200448 
 3.1414E-06 5.1610E+01 2.4200E+00                                 2013100200449 
 3.1476E-06 5.2170E+01 2.4300E+00                                 2013100200450 
 3.1538E-06 5.2720E+01 2.4400E+00                                 2013100200451 
 3.1601E-06 4.6380E+01 2.3000E+00                                 2013100200452 
 3.1663E-06 4.9870E+01 2.3800E+00                                 2013100200453 
 3.1726E-06 4.6780E+01 2.3000E+00                                 2013100200454 
 3.1788E-06 4.6400E+01 2.2900E+00                                 2013100200455 
 3.1851E-06 4.4880E+01 2.2500E+00                                 2013100200456 
 3.1914E-06 4.0460E+01 2.1400E+00                                 2013100200457 
 3.1978E-06 3.9580E+01 2.1200E+00                                 2013100200458 
 3.2041E-06 3.7450E+01 2.0600E+00                                 2013100200459 
 3.2105E-06 3.5540E+01 2.0100E+00                                 2013100200460 
 3.2169E-06 2.9190E+01 1.8400E+00                                 2013100200461 
 3.2233E-06 2.6570E+01 1.7600E+00                                 2013100200462 
 3.2297E-06 2.9320E+01 1.8400E+00                                 2013100200463 
 3.2362E-06 2.5980E+01 1.7400E+00                                 2013100200464 
 3.2427E-06 2.6460E+01 1.7500E+00                                 2013100200465 
 3.2491E-06 2.5710E+01 1.7300E+00                                 2013100200466 
 3.2556E-06 2.0650E+01 1.5700E+00                                 2013100200467 
 3.2622E-06 2.0210E+01 1.5500E+00                                 2013100200468 
 3.2687E-06 1.9570E+01 1.5300E+00                                 2013100200469 
 3.2753E-06 2.0260E+01 1.5500E+00                                 2013100200470 
 3.2819E-06 1.9920E+01 1.5400E+00                                 2013100200471 
 3.2885E-06 1.8370E+01 1.4800E+00                                 2013100200472 
 3.2951E-06 1.8340E+01 1.4800E+00                                 2013100200473 
 3.3017E-06 1.8930E+01 1.5000E+00                                 2013100200474 
 3.3084E-06 1.8400E+01 1.4800E+00                                 2013100200475 
 3.3151E-06 1.9280E+01 1.5100E+00                                 2013100200476 
 3.3218E-06 1.7740E+01 1.4500E+00                                 2013100200477 
 3.3285E-06 1.8020E+01 1.4600E+00                                 2013100200478 
 3.3353E-06 1.7080E+01 1.4300E+00                                 2013100200479 
 3.3420E-06 1.8670E+01 1.4800E+00                                 2013100200480 
 3.3488E-06 1.6530E+01 1.4100E+00                                 2013100200481 
 3.3556E-06 1.6010E+01 1.3900E+00                                 2013100200482 
 3.3625E-06 1.8290E+01 1.4700E+00                                 2013100200483 
 3.3693E-06 1.7260E+01 1.4300E+00                                 2013100200484 
 3.3762E-06 1.6340E+01 1.4000E+00                                 2013100200485 
 3.3831E-06 1.9410E+01 1.5000E+00                                 2013100200486 
 3.3900E-06 1.9880E+01 1.5200E+00                                 2013100200487 
 3.3969E-06 1.8960E+01 1.4900E+00                                 2013100200488 
 3.4039E-06 2.0330E+01 1.5300E+00                                 2013100200489 
 3.4109E-06 2.0990E+01 1.5500E+00                                 2013100200490 
 3.4179E-06 1.9180E+01 1.4900E+00                                 2013100200491 
 3.4249E-06 2.1230E+01 1.5600E+00                                 2013100200492 
 3.4319E-06 2.0010E+01 1.5200E+00                                 2013100200493 
 3.4390E-06 2.3250E+01 1.6200E+00                                 2013100200494 
 3.4461E-06 2.0950E+01 1.5500E+00                                 2013100200495 
 3.4532E-06 2.7520E+01 1.7500E+00                                 2013100200496 
 3.4603E-06 2.6400E+01 1.7100E+00                                 2013100200497 
 3.4675E-06 2.7050E+01 1.7300E+00                                 2013100200498 
 3.4746E-06 3.0350E+01 1.8200E+00                                 2013100200499 
 3.4818E-06 2.9820E+01 1.8100E+00                                 2013100200500 
 3.4890E-06 2.9770E+01 1.8000E+00                                 2013100200501 
 3.4963E-06 3.2760E+01 1.8800E+00                                 2013100200502 
 3.5035E-06 3.3890E+01 1.9100E+00                                 2013100200503 
 3.5108E-06 4.2220E+01 2.1200E+00                                 2013100200504 
 3.5181E-06 3.9630E+01 2.0500E+00                                 2013100200505 
 3.5255E-06 4.5990E+01 2.2000E+00                                 2013100200506 
 3.5328E-06 5.2140E+01 2.3400E+00                                 2013100200507 
 3.5401E-06 5.4300E+01 2.3800E+00                                 2013100200508 
 3.5476E-06 6.3910E+01 2.5800E+00                                 2013100200509 
 3.5550E-06 6.9430E+01 2.6900E+00                                 2013100200510 
 3.5625E-06 7.1360E+01 2.7200E+00                                 2013100200511 
 3.5699E-06 7.5020E+01 2.7900E+00                                 2013100200512 
 3.5774E-06 8.0880E+01 2.8900E+00                                 2013100200513 
 3.5850E-06 8.9330E+01 3.0400E+00                                 2013100200514 
 3.5925E-06 8.4690E+01 2.9600E+00                                 2013100200515 
 3.6001E-06 8.5720E+01 2.9700E+00                                 2013100200516 
 3.6076E-06 8.5320E+01 2.9600E+00                                 2013100200517 
 3.6153E-06 8.9120E+01 3.0300E+00                                 2013100200518 
 3.6229E-06 8.4120E+01 2.9400E+00                                 2013100200519 
 3.6306E-06 8.1430E+01 2.8900E+00                                 2013100200520 
 3.6382E-06 7.2080E+01 2.7200E+00                                 2013100200521 
 3.6460E-06 6.1140E+01 2.5000E+00                                 2013100200522 
 3.6537E-06 5.6020E+01 2.4000E+00                                 2013100200523 
 3.6614E-06 5.2810E+01 2.3300E+00                                 2013100200524 
 3.6692E-06 4.1090E+01 2.0600E+00                                 2013100200525 
 3.6770E-06 3.2810E+01 1.8500E+00                                 2013100200526 
 3.6849E-06 2.8610E+01 1.7400E+00                                 2013100200527 
 3.6927E-06 2.4700E+01 1.6300E+00                                 2013100200528 
 3.7006E-06 2.3910E+01 1.6000E+00                                 2013100200529 
 3.7085E-06 1.9460E+01 1.4600E+00                                 2013100200530 
 3.7165E-06 1.9520E+01 1.4600E+00                                 2013100200531 
 3.7244E-06 1.2280E+01 1.2000E+00                                 2013100200532 
 3.7324E-06 1.2350E+01 1.2000E+00                                 2013100200533 
 3.7404E-06 9.0600E+00 1.0700E+00                                 2013100200534 
 3.7485E-06 8.0200E+00 1.0200E+00                                 2013100200535 
 3.7565E-06 6.8900E+00 9.6000E-01                                 2013100200536 
 3.7646E-06 5.8500E+00 9.1000E-01                                 2013100200537 
 3.7727E-06 5.4000E+00 8.9000E-01                                 2013100200538 
 3.7809E-06 5.0900E+00 8.7000E-01                                 2013100200539 
 3.7890E-06 5.6400E+00 9.0000E-01                                 2013100200540 
 3.7972E-06 4.6100E+00 8.4000E-01                                 2013100200541 
 3.8055E-06 5.2500E+00 8.8000E-01                                 2013100200542 
 3.8137E-06 4.3200E+00 8.2000E-01                                 2013100200543 
 3.8220E-06 4.0400E+00 8.1000E-01                                 2013100200544 
 3.8303E-06 3.7600E+00 7.9000E-01                                 2013100200545 
 3.8386E-06 3.0100E+00 7.5000E-01                                 2013100200546 
 3.8638E-06 2.9400E+00 3.3000E-01                                 2013100200547 
 3.9062E-06 3.2100E+00 3.4000E-01                                 2013100200548 
 3.9494E-06 2.6400E+00 3.1000E-01                                 2013100200549 
 3.9933E-06 2.8000E+00 3.2000E-01                                 2013100200550 
 4.0379E-06 2.9700E+00 3.3000E-01                                 2013100200551 
 4.0833E-06 2.4700E+00 3.1000E-01                                 2013100200552 
 4.1295E-06 3.0400E+00 3.2000E-01                                 2013100200553 
 4.1764E-06 3.1000E+00 3.2000E-01                                 2013100200554 
 4.2241E-06 3.0700E+00 3.2000E-01                                 2013100200555 
 4.2727E-06 3.0100E+00 3.2000E-01                                 2013100200556 
 4.3221E-06 2.7200E+00 3.1000E-01                                 2013100200557 
 4.3724E-06 2.8300E+00 3.1000E-01                                 2013100200558 
 4.4235E-06 3.0500E+00 3.2000E-01                                 2013100200559 
 4.4756E-06 3.0100E+00 3.2000E-01                                 2013100200560 
 4.5286E-06 3.1000E+00 3.2000E-01                                 2013100200561 
 4.5825E-06 3.6600E+00 3.3000E-01                                 2013100200562 
 4.6374E-06 3.9400E+00 3.4000E-01                                 2013100200563 
 4.6933E-06 4.6400E+00 3.5000E-01                                 2013100200564 
 4.7273E-06 5.2200E+00 8.1000E-01                                 2013100200565 
 4.7387E-06 6.4200E+00 8.7000E-01                                 2013100200566 
 4.7502E-06 6.5700E+00 8.8000E-01                                 2013100200567 
 4.7617E-06 7.0000E+00 8.9000E-01                                 2013100200568 
 4.7733E-06 1.0550E+01 1.0400E+00                                 2013100200569 
 4.7848E-06 1.0950E+01 1.0500E+00                                 2013100200570 
 4.7965E-06 1.0960E+01 1.0500E+00                                 2013100200571 
 4.8081E-06 1.6020E+01 1.2400E+00                                 2013100200572 
 4.8199E-06 1.8090E+01 1.3000E+00                                 2013100200573 
 4.8316E-06 2.0090E+01 1.3700E+00                                 2013100200574 
 4.8434E-06 2.1050E+01 1.4000E+00                                 2013100200575 
 4.8553E-06 2.1230E+01 1.4000E+00                                 2013100200576 
 4.8672E-06 2.0690E+01 1.3900E+00                                 2013100200577 
 4.8791E-06 1.7450E+01 1.2800E+00                                 2013100200578 
 4.8911E-06 1.2940E+01 1.1300E+00                                 2013100200579 
 4.9031E-06 1.2550E+01 1.1200E+00                                 2013100200580 
 4.9152E-06 8.5000E+00 9.6000E-01                                 2013100200581 
 4.9273E-06 8.0300E+00 9.4000E-01                                 2013100200582 
 4.9394E-06 6.5200E+00 8.7000E-01                                 2013100200583 
 4.9516E-06 5.0900E+00 8.1000E-01                                 2013100200584 
 4.9639E-06 4.1300E+00 7.6000E-01                                 2013100200585 
 4.9762E-06 6.3000E+00 8.7000E-01                                 2013100200586 
 4.9885E-06 5.2600E+00 8.2000E-01                                 2013100200587 
 5.0009E-06 5.5100E+00 8.3000E-01                                 2013100200588 
 5.0133E-06 4.9500E+00 8.0000E-01                                 2013100200589 
 5.0258E-06 5.0300E+00 8.1000E-01                                 2013100200590 
 5.0383E-06 4.7100E+00 7.9000E-01                                 2013100200591 
 5.0509E-06 5.4400E+00 8.3000E-01                                 2013100200592 
 5.0635E-06 5.2900E+00 8.2000E-01                                 2013100200593 
 5.0761E-06 5.2900E+00 8.2000E-01                                 2013100200594 
 5.0889E-06 5.1300E+00 8.2000E-01                                 2013100200595 
 5.1016E-06 5.2200E+00 8.2000E-01                                 2013100200596 
 5.1144E-06 6.1100E+00 8.7000E-01                                 2013100200597 
 5.1273E-06 6.3200E+00 8.7000E-01                                 2013100200598 
 5.1402E-06 4.9400E+00 8.0000E-01                                 2013100200599 
 5.1531E-06 6.9200E+00 9.0000E-01                                 2013100200600 
 5.1661E-06 6.0200E+00 8.5000E-01                                 2013100200601 
 5.1792E-06 5.2900E+00 8.2000E-01                                 2013100200602 
 5.1923E-06 6.7700E+00 8.9000E-01                                 2013100200603 
 5.2054E-06 7.4600E+00 9.2000E-01                                 2013100200604 
 5.2186E-06 8.4600E+00 9.6000E-01                                 2013100200605 
 5.2319E-06 8.1200E+00 9.4000E-01                                 2013100200606 
 5.2452E-06 8.6500E+00 9.6000E-01                                 2013100200607 
 5.2585E-06 9.0900E+00 9.8000E-01                                 2013100200608 
 5.2719E-06 9.9200E+00 1.0100E+00                                 2013100200609 
 5.2854E-06 9.7300E+00 1.0000E+00                                 2013100200610 
 5.2989E-06 1.1710E+01 1.0700E+00                                 2013100200611 
 5.3124E-06 1.0440E+01 1.0200E+00                                 2013100200612 
 5.3261E-06 9.9500E+00 1.0000E+00                                 2013100200613 
 5.3397E-06 1.1150E+01 1.0500E+00                                 2013100200614 
 5.3534E-06 1.1650E+01 1.0600E+00                                 2013100200615 
 5.3672E-06 1.2530E+01 1.0900E+00                                 2013100200616 
 5.3810E-06 1.4390E+01 1.1600E+00                                 2013100200617 
 5.3949E-06 1.6690E+01 1.2300E+00                                 2013100200618 
 5.4088E-06 1.3850E+01 1.1300E+00                                 2013100200619 
 5.4228E-06 1.3730E+01 1.1300E+00                                 2013100200620 
 5.4368E-06 1.6920E+01 1.2300E+00                                 2013100200621 
 5.4509E-06 1.6570E+01 1.2200E+00                                 2013100200622 
 5.4651E-06 1.4730E+01 1.1500E+00                                 2013100200623 
 5.4793E-06 1.5280E+01 1.1700E+00                                 2013100200624 
 5.4935E-06 1.6940E+01 1.2200E+00                                 2013100200625 
 5.5078E-06 1.6000E+01 1.1900E+00                                 2013100200626 
 5.5222E-06 1.6980E+01 1.2200E+00                                 2013100200627 
 5.5366E-06 1.3840E+01 1.1200E+00                                 2013100200628 
 5.5511E-06 1.4900E+01 1.1500E+00                                 2013100200629 
 5.5656E-06 1.5950E+01 1.1800E+00                                 2013100200630 
 5.5802E-06 1.6850E+01 1.2100E+00                                 2013100200631 
 5.5949E-06 1.7090E+01 1.2100E+00                                 2013100200632 
 5.6096E-06 1.5670E+01 1.1700E+00                                 2013100200633 
 5.6244E-06 1.3960E+01 1.1100E+00                                 2013100200634 
 5.6392E-06 1.4200E+01 1.1200E+00                                 2013100200635 
 5.6541E-06 1.4300E+01 1.1200E+00                                 2013100200636 
 5.6690E-06 1.5770E+01 1.1600E+00                                 2013100200637 
 5.6840E-06 1.5790E+01 1.1600E+00                                 2013100200638 
 5.6991E-06 1.5960E+01 1.1700E+00                                 2013100200639 
 5.7142E-06 1.6190E+01 1.1700E+00                                 2013100200640 
 5.7294E-06 1.5510E+01 1.1500E+00                                 2013100200641 
 5.7446E-06 1.3980E+01 1.1000E+00                                 2013100200642 
 5.7599E-06 1.7250E+01 1.2000E+00                                 2013100200643 
 5.7753E-06 1.4820E+01 1.1200E+00                                 2013100200644 
 5.7907E-06 1.5490E+01 1.1400E+00                                 2013100200645 
 5.8062E-06 1.4410E+01 1.1100E+00                                 2013100200646 
 5.8218E-06 1.5920E+01 1.1500E+00                                 2013100200647 
 5.8374E-06 1.5260E+01 1.1300E+00                                 2013100200648 
 5.8530E-06 1.6620E+01 1.1700E+00                                 2013100200649 
 5.8688E-06 1.6730E+01 1.1800E+00                                 2013100200650 
 5.8846E-06 1.5730E+01 1.1400E+00                                 2013100200651 
 5.9004E-06 1.8680E+01 1.2300E+00                                 2013100200652 
 5.9164E-06 1.8090E+01 1.2100E+00                                 2013100200653 
 5.9324E-06 1.9230E+01 1.2400E+00                                 2013100200654 
 5.9484E-06 2.0780E+01 1.2900E+00                                 2013100200655 
 5.9646E-06 2.1560E+01 1.3100E+00                                 2013100200656 
 5.9808E-06 1.9870E+01 1.2600E+00                                 2013100200657 
 5.9970E-06 2.0790E+01 1.2800E+00                                 2013100200658 
 6.0133E-06 2.5540E+01 1.4100E+00                                 2013100200659 
 6.0297E-06 2.5490E+01 1.4000E+00                                 2013100200660 
 6.0462E-06 2.6600E+01 1.4300E+00                                 2013100200661 
 6.0627E-06 3.1520E+01 1.5500E+00                                 2013100200662 
 6.0793E-06 3.2200E+01 1.5600E+00                                 2013100200663 
 6.0960E-06 3.3160E+01 1.5800E+00                                 2013100200664 
 6.1127E-06 4.1480E+01 1.7600E+00                                 2013100200665 
 6.1295E-06 4.1060E+01 1.7500E+00                                 2013100200666 
 6.1464E-06 4.5360E+01 1.8300E+00                                 2013100200667 
 6.1633E-06 4.6080E+01 1.8500E+00                                 2013100200668 
 6.1803E-06 5.0960E+01 1.9400E+00                                 2013100200669 
 6.1974E-06 4.8510E+01 1.8900E+00                                 2013100200670 
 6.2145E-06 4.9420E+01 1.9000E+00                                 2013100200671 
 6.2318E-06 4.9050E+01 1.8900E+00                                 2013100200672 
 6.2490E-06 5.4880E+01 2.0000E+00                                 2013100200673 
 6.2664E-06 5.5900E+01 2.0200E+00                                 2013100200674 
 6.2838E-06 5.7050E+01 2.0400E+00                                 2013100200675 
 6.3014E-06 6.7140E+01 2.2100E+00                                 2013100200676 
 6.3189E-06 7.8640E+01 2.3900E+00                                 2013100200677 
 6.3366E-06 9.3980E+01 2.6200E+00                                 2013100200678 
 6.3543E-06 1.0853E+02 2.8200E+00                                 2013100200679 
 6.3721E-06 1.1607E+02 2.9200E+00                                 2013100200680 
 6.3900E-06 1.2338E+02 3.0100E+00                                 2013100200681 
 6.4080E-06 1.1364E+02 2.8800E+00                                 2013100200682 
 6.4260E-06 9.5390E+01 2.6200E+00                                 2013100200683 
 6.4441E-06 6.9920E+01 2.2300E+00                                 2013100200684 
 6.4623E-06 4.9740E+01 1.8800E+00                                 2013100200685 
 6.4806E-06 3.7110E+01 1.6300E+00                                 2013100200686 
 6.4989E-06 2.4150E+01 1.3300E+00                                 2013100200687 
 6.5173E-06 1.7760E+01 1.1600E+00                                 2013100200688 
 6.5358E-06 1.5340E+01 1.0900E+00                                 2013100200689 
 6.5544E-06 1.1830E+01 9.7000E-01                                 2013100200690 
 6.5730E-06 9.3000E+00 8.8000E-01                                 2013100200691 
 6.5918E-06 9.0200E+00 8.7000E-01                                 2013100200692 
 6.6106E-06 7.7200E+00 8.2000E-01                                 2013100200693 
 6.6295E-06 7.1300E+00 7.9000E-01                                 2013100200694 
 6.6484E-06 7.3700E+00 8.0000E-01                                 2013100200695 
 6.6675E-06 6.5300E+00 7.7000E-01                                 2013100200696 
 6.6866E-06 5.7500E+00 7.3000E-01                                 2013100200697 
 6.7059E-06 5.3600E+00 7.2000E-01                                 2013100200698 
 6.7252E-06 6.4900E+00 7.6000E-01                                 2013100200699 
 6.7446E-06 7.6100E+00 8.1000E-01                                 2013100200700 
 6.7640E-06 6.8400E+00 7.8000E-01                                 2013100200701 
 6.7836E-06 7.4500E+00 8.0000E-01                                 2013100200702 
 6.8032E-06 6.3700E+00 7.6000E-01                                 2013100200703 
 6.8230E-06 7.7300E+00 8.1000E-01                                 2013100200704 
 6.8428E-06 8.7800E+00 8.5000E-01                                 2013100200705 
 6.8627E-06 1.0260E+01 9.0000E-01                                 2013100200706 
 6.8827E-06 1.0670E+01 9.1000E-01                                 2013100200707 
 6.9027E-06 1.3070E+01 9.9000E-01                                 2013100200708 
 6.9229E-06 1.5460E+01 1.0700E+00                                 2013100200709 
 6.9431E-06 1.8330E+01 1.1500E+00                                 2013100200710 
 6.9635E-06 2.3790E+01 1.2900E+00                                 2013100200711 
 6.9839E-06 3.4330E+01 1.5300E+00                                 2013100200712 
 7.0044E-06 4.6060E+01 1.7600E+00                                 2013100200713 
 7.0250E-06 6.1670E+01 2.0300E+00                                 2013100200714 
 7.0457E-06 7.1640E+01 2.1900E+00                                 2013100200715 
 7.0665E-06 8.0410E+01 2.3200E+00                                 2013100200716 
 7.0874E-06 8.3540E+01 2.3600E+00                                 2013100200717 
 7.1084E-06 7.9230E+01 2.2900E+00                                 2013100200718 
 7.1295E-06 6.1580E+01 2.0200E+00                                 2013100200719 
 7.1506E-06 4.7520E+01 1.7700E+00                                 2013100200720 
 7.1719E-06 3.2970E+01 1.4800E+00                                 2013100200721 
 7.1932E-06 2.3910E+01 1.2800E+00                                 2013100200722 
 7.2147E-06 1.6520E+01 1.0800E+00                                 2013100200723 
 7.2362E-06 1.1980E+01 9.4000E-01                                 2013100200724 
 7.2796E-06 7.3000E+00 4.5000E-01                                 2013100200725 
 7.3454E-06 5.5900E+00 4.0000E-01                                 2013100200726 
 7.4121E-06 4.8400E+00 3.8000E-01                                 2013100200727 
 7.4797E-06 4.5200E+00 3.8000E-01                                 2013100200728 
 7.5310E-06 4.4200E+00 4.9000E-01                                 2013100200729 
 7.5655E-06 4.1300E+00 4.8000E-01                                 2013100200730 
 7.6002E-06 4.5000E+00 4.9000E-01                                 2013100200731 
 7.6352E-06 3.9500E+00 4.7000E-01                                 2013100200732 
 7.6704E-06 3.7800E+00 4.6000E-01                                 2013100200733 
 7.7059E-06 3.8500E+00 4.6000E-01                                 2013100200734 
 7.7416E-06 2.6100E+00 4.1000E-01                                 2013100200735 
 7.7776E-06 3.4000E+00 4.4000E-01                                 2013100200736 
 7.8138E-06 2.4800E+00 4.0000E-01                                 2013100200737 
 7.8502E-06 2.0900E+00 3.8000E-01                                 2013100200738 
 7.8870E-06 3.3300E+00 4.4000E-01                                 2013100200739 
 7.9239E-06 3.0100E+00 4.2000E-01                                 2013100200740 
 7.9612E-06 3.3800E+00 4.4000E-01                                 2013100200741 
 7.9987E-06 4.6800E+00 4.9000E-01                                 2013100200742 
 8.0365E-06 6.0800E+00 5.4000E-01                                 2013100200743 
 8.0745E-06 5.9100E+00 5.3000E-01                                 2013100200744 
 8.1128E-06 7.3000E+00 5.8000E-01                                 2013100200745 
 8.1514E-06 7.9400E+00 6.0000E-01                                 2013100200746 
 8.1903E-06 9.8200E+00 6.5000E-01                                 2013100200747 
 8.2294E-06 1.1260E+01 6.9000E-01                                 2013100200748 
 8.2688E-06 1.3160E+01 7.3000E-01                                 2013100200749 
 8.3085E-06 1.5230E+01 7.9000E-01                                 2013100200750 
 8.3485E-06 1.8560E+01 8.6000E-01                                 2013100200751 
 8.3753E-06 2.4250E+01 1.6900E+00                                 2013100200752 
 8.3888E-06 2.7920E+01 1.8000E+00                                 2013100200753 
 8.4023E-06 2.9730E+01 1.8600E+00                                 2013100200754 
 8.4158E-06 2.8620E+01 1.8200E+00                                 2013100200755 
 8.4294E-06 3.0430E+01 1.8800E+00                                 2013100200756 
 8.4429E-06 3.6240E+01 2.0400E+00                                 2013100200757 
 8.4566E-06 4.0410E+01 2.1500E+00                                 2013100200758 
 8.4702E-06 4.4360E+01 2.2500E+00                                 2013100200759 
 8.4839E-06 4.7870E+01 2.3400E+00                                 2013100200760 
 8.4976E-06 5.6980E+01 2.5500E+00                                 2013100200761 
 8.5114E-06 6.0140E+01 2.6100E+00                                 2013100200762 
 8.5252E-06 6.9000E+01 2.8000E+00                                 2013100200763 
 8.5390E-06 7.1610E+01 2.8500E+00                                 2013100200764 
 8.5529E-06 8.4940E+01 3.1100E+00                                 2013100200765 
 8.5667E-06 9.7060E+01 3.3200E+00                                 2013100200766 
 8.5807E-06 1.0989E+02 3.5400E+00                                 2013100200767 
 8.5946E-06 1.4003E+02 4.0200E+00                                 2013100200768 
 8.6086E-06 1.4938E+02 4.1500E+00                                 2013100200769 
 8.6226E-06 1.7876E+02 4.5700E+00                                 2013100200770 
 8.6367E-06 2.1544E+02 5.0500E+00                                 2013100200771 
 8.6508E-06 2.4128E+02 5.3700E+00                                 2013100200772 
 8.6649E-06 2.8630E+02 5.9000E+00                                 2013100200773 
 8.6791E-06 3.4929E+02 6.6000E+00                                 2013100200774 
 8.6933E-06 4.0046E+02 7.1300E+00                                 2013100200775 
 8.7075E-06 4.4008E+02 7.5300E+00                                 2013100200776 
 8.7218E-06 4.9539E+02 8.0800E+00                                 2013100200777 
 8.7361E-06 5.6061E+02 8.7000E+00                                 2013100200778 
 8.7504E-06 5.7499E+02 8.8300E+00                                 2013100200779 
 8.7648E-06 5.9747E+02 9.0400E+00                                 2013100200780 
 8.7792E-06 6.1251E+02 9.1800E+00                                 2013100200781 
 8.7936E-06 5.8994E+02 8.9700E+00                                 2013100200782 
 8.8081E-06 5.6542E+02 8.7300E+00                                 2013100200783 
 8.8226E-06 5.2625E+02 8.3600E+00                                 2013100200784 
 8.8372E-06 4.8107E+02 7.9200E+00                                 2013100200785 
 8.8518E-06 4.5161E+02 7.6300E+00                                 2013100200786 
 8.8664E-06 3.9270E+02 7.0300E+00                                 2013100200787 
 8.8811E-06 3.4802E+02 6.5500E+00                                 2013100200788 
 8.8958E-06 3.0899E+02 6.1200E+00                                 2013100200789 
 8.9105E-06 2.6325E+02 5.6000E+00                                 2013100200790 
 8.9253E-06 2.2450E+02 5.1200E+00                                 2013100200791 
 8.9401E-06 1.9864E+02 4.7900E+00                                 2013100200792 
 8.9549E-06 1.7855E+02 4.5200E+00                                 2013100200793 
 8.9698E-06 1.5352E+02 4.1700E+00                                 2013100200794 
 8.9847E-06 1.3966E+02 3.9600E+00                                 2013100200795 
 8.9997E-06 1.3732E+02 3.9300E+00                                 2013100200796 
 9.0147E-06 1.2547E+02 3.7400E+00                                 2013100200797 
 9.0297E-06 1.1251E+02 3.5300E+00                                 2013100200798 
 9.0448E-06 1.0288E+02 3.3700E+00                                 2013100200799 
 9.0599E-06 9.8120E+01 3.2900E+00                                 2013100200800 
 9.0750E-06 9.0490E+01 3.1500E+00                                 2013100200801 
 9.0902E-06 8.6170E+01 3.0700E+00                                 2013100200802 
 9.1054E-06 7.8360E+01 2.9300E+00                                 2013100200803 
 9.1207E-06 8.0730E+01 2.9700E+00                                 2013100200804 
 9.1360E-06 7.6440E+01 2.8900E+00                                 2013100200805 
 9.1513E-06 7.7070E+01 2.9000E+00                                 2013100200806 
 9.1667E-06 8.0770E+01 2.9700E+00                                 2013100200807 
 9.1821E-06 8.3030E+01 3.0100E+00                                 2013100200808 
 9.1975E-06 8.8150E+01 3.1000E+00                                 2013100200809 
 9.2130E-06 9.0090E+01 3.1300E+00                                 2013100200810 
 9.2285E-06 9.6410E+01 3.2400E+00                                 2013100200811 
 9.2441E-06 9.9560E+01 3.3000E+00                                 2013100200812 
 9.2597E-06 1.0067E+02 3.3100E+00                                 2013100200813 
 9.2754E-06 1.0635E+02 3.4100E+00                                 2013100200814 
 9.2911E-06 1.1272E+02 3.5100E+00                                 2013100200815 
 9.3068E-06 1.0104E+02 3.3100E+00                                 2013100200816 
 9.3225E-06 1.0103E+02 3.3100E+00                                 2013100200817 
 9.3384E-06 9.2830E+01 3.1700E+00                                 2013100200818 
 9.3542E-06 9.0700E+01 3.1300E+00                                 2013100200819 
 9.3701E-06 7.9700E+01 2.9300E+00                                 2013100200820 
 9.3860E-06 7.0540E+01 2.7500E+00                                 2013100200821 
 9.4020E-06 6.9150E+01 2.7200E+00                                 2013100200822 
 9.4180E-06 5.7100E+01 2.4700E+00                                 2013100200823 
 9.4340E-06 5.1210E+01 2.3400E+00                                 2013100200824 
 9.4501E-06 4.6840E+01 2.2300E+00                                 2013100200825 
 9.4663E-06 4.3880E+01 2.1600E+00                                 2013100200826 
 9.4824E-06 3.9920E+01 2.0600E+00                                 2013100200827 
 9.4987E-06 4.1080E+01 2.0900E+00                                 2013100200828 
 9.5149E-06 3.9930E+01 2.0600E+00                                 2013100200829 
 9.5312E-06 3.6200E+01 1.9600E+00                                 2013100200830 
 9.5475E-06 3.7750E+01 2.0000E+00                                 2013100200831 
 9.5639E-06 3.2030E+01 1.8500E+00                                 2013100200832 
 9.5804E-06 3.2290E+01 1.8500E+00                                 2013100200833 
 9.5968E-06 3.1360E+01 1.8300E+00                                 2013100200834 
 9.6133E-06 3.2320E+01 1.8500E+00                                 2013100200835 
 9.6299E-06 3.2380E+01 1.8500E+00                                 2013100200836 
 9.6465E-06 3.4820E+01 1.9200E+00                                 2013100200837 
 9.6631E-06 3.0720E+01 1.8000E+00                                 2013100200838 
 9.6798E-06 2.9010E+01 1.7500E+00                                 2013100200839 
 9.6965E-06 3.0750E+01 1.8000E+00                                 2013100200840 
 9.7133E-06 3.0620E+01 1.8000E+00                                 2013100200841 
 9.7301E-06 3.1170E+01 1.8100E+00                                 2013100200842 
 9.7470E-06 3.0060E+01 1.7800E+00                                 2013100200843 
 9.7638E-06 2.7570E+01 1.7100E+00                                 2013100200844 
 9.7808E-06 3.0670E+01 1.8000E+00                                 2013100200845 
 9.7978E-06 2.6330E+01 1.6700E+00                                 2013100200846 
 9.8148E-06 2.5710E+01 1.6500E+00                                 2013100200847 
 9.8319E-06 2.7050E+01 1.6900E+00                                 2013100200848 
 9.8490E-06 2.4330E+01 1.6100E+00                                 2013100200849 
 9.8662E-06 2.2050E+01 1.5300E+00                                 2013100200850 
 9.8834E-06 2.3200E+01 1.5700E+00                                 2013100200851 
 9.9006E-06 2.0150E+01 1.4700E+00                                 2013100200852 
 9.9179E-06 1.9630E+01 1.4500E+00                                 2013100200853 
 9.9353E-06 1.8540E+01 1.4100E+00                                 2013100200854 
 9.9527E-06 1.8130E+01 1.3900E+00                                 2013100200855 
 9.9701E-06 1.8010E+01 1.3900E+00                                 2013100200856 
 9.9876E-06 1.6050E+01 1.3100E+00                                 2013100200857 
 1.0005E-05 1.5640E+01 1.3000E+00                                 2013100200858 
 1.0022E-05 1.9100E+01 1.4200E+00                                 2013100200859 
 1.0040E-05 1.8590E+01 1.4000E+00                                 2013100200860 
 1.0058E-05 1.7800E+01 1.3800E+00                                 2013100200861 
 1.0075E-05 2.6830E+01 1.6700E+00                                 2013100200862 
 1.0093E-05 2.8810E+01 1.7300E+00                                 2013100200863 
 1.0111E-05 2.8010E+01 1.7000E+00                                 2013100200864 
 1.0129E-05 3.3440E+01 1.8500E+00                                 2013100200865 
 1.0147E-05 3.4260E+01 1.8700E+00                                 2013100200866 
 1.0165E-05 3.9000E+01 2.0000E+00                                 2013100200867 
 1.0183E-05 3.5990E+01 1.9200E+00                                 2013100200868 
 1.0201E-05 3.9950E+01 2.0200E+00                                 2013100200869 
 1.0219E-05 3.4470E+01 1.8700E+00                                 2013100200870 
 1.0237E-05 3.1380E+01 1.7900E+00                                 2013100200871 
 1.0255E-05 3.0480E+01 1.7600E+00                                 2013100200872 
 1.0273E-05 2.7410E+01 1.6700E+00                                 2013100200873 
 1.0292E-05 2.6420E+01 1.6400E+00                                 2013100200874 
 1.0310E-05 2.3070E+01 1.5400E+00                                 2013100200875 
 1.0328E-05 2.3040E+01 1.5400E+00                                 2013100200876 
 1.0347E-05 2.2450E+01 1.5200E+00                                 2013100200877 
 1.0365E-05 1.9870E+01 1.4300E+00                                 2013100200878 
 1.0384E-05 1.4290E+01 1.2300E+00                                 2013100200879 
 1.0402E-05 1.6720E+01 1.3200E+00                                 2013100200880 
 1.0421E-05 1.6600E+01 1.3100E+00                                 2013100200881 
 1.0440E-05 1.5450E+01 1.2700E+00                                 2013100200882 
 1.0458E-05 1.4030E+01 1.2100E+00                                 2013100200883 
 1.0477E-05 1.5510E+01 1.2700E+00                                 2013100200884 
 1.0496E-05 1.3240E+01 1.1800E+00                                 2013100200885 
 1.0515E-05 1.4720E+01 1.2400E+00                                 2013100200886 
 1.0534E-05 1.2840E+01 1.1600E+00                                 2013100200887 
 1.0553E-05 1.1700E+01 1.1100E+00                                 2013100200888 
 1.0572E-05 1.2340E+01 1.1400E+00                                 2013100200889 
 1.0591E-05 1.3160E+01 1.1700E+00                                 2013100200890 
 1.0610E-05 1.3700E+01 1.1900E+00                                 2013100200891 
 1.0629E-05 1.1640E+01 1.1100E+00                                 2013100200892 
 1.0648E-05 1.1160E+01 1.0900E+00                                 2013100200893 
 1.0668E-05 1.3550E+01 1.1900E+00                                 2013100200894 
 1.0687E-05 1.0950E+01 1.0800E+00                                 2013100200895 
 1.0707E-05 1.2130E+01 1.1300E+00                                 2013100200896 
 1.0726E-05 1.0920E+01 1.0700E+00                                 2013100200897 
 1.0745E-05 1.5600E+01 1.2600E+00                                 2013100200898 
 1.0765E-05 1.4380E+01 1.2100E+00                                 2013100200899 
 1.0785E-05 1.4270E+01 1.2100E+00                                 2013100200900 
 1.0804E-05 1.4800E+01 1.2300E+00                                 2013100200901 
 1.0824E-05 1.6340E+01 1.2800E+00                                 2013100200902 
 1.0844E-05 1.3490E+01 1.1800E+00                                 2013100200903 
 1.0864E-05 1.3290E+01 1.1700E+00                                 2013100200904 
 1.0884E-05 1.2360E+01 1.1300E+00                                 2013100200905 
 1.0903E-05 1.3340E+01 1.1700E+00                                 2013100200906 
 1.0923E-05 1.1420E+01 1.0900E+00                                 2013100200907 
 1.0944E-05 1.2040E+01 1.1100E+00                                 2013100200908 
 1.0964E-05 1.0750E+01 1.0600E+00                                 2013100200909 
 1.0984E-05 1.1640E+01 1.1000E+00                                 2013100200910 
ENDDATA            872          0                                 2013100200911 
ENDSUBENT          910          0                                 2013100299999 
SUBENT        20131003   19831102                             00002013100300001 
BIB                  4          8                                 2013100300002 
REACTION   (92-U-235(N,F),,RI) RESONANCE INTEGRALS.               2013100300003 
MONITOR    (92-U-235(N,F),,SIG) 587.9+-3.4 B AT 0.0253 EV BY      2013100300004 
            DERUYTTER, WAGEMANS,70HELSINKI,1,117. SEE ENTRY 20143.2013100300005 
STATUS     .TAKEN FROM TABLE 3 OF J.NUCL.ENERGY, 25(1971)263.     2013100300006 
HISTORY    (710315C)                                              2013100300007 
           (730309E)                                              2013100300008 
           (800523A) G.C., REACTION STRINGS CONVERTED.            2013100300009 
           (800603E)                                              2013100300010 
ENDBIB               8          0                                 2013100300011 
COMMON               3          3                                 2013100300012 
EN-NRM     MONIT      MONIT-ERR                                   2013100300013 
EV         B          B                                           2013100300014 
 2.5300E-02 5.8790E+02 3.4000E+00                                 2013100300015 
ENDCOMMON            3          0                                 2013100300016 
DATA                 3          6                                 2013100300017 
EN-MAX     EN-MIN     DATA                                        2013100300018 
MEV        MEV        B                                           2013100300019 
 7.0000E-07 5.0000E-07 2.2790E+01                                 2013100300020 
 1.8000E-06 7.0000E-07 4.4300E+01                                 2013100300021 
 5.0000E-06 1.8000E-06 1.6660E+01                                 2013100300022 
 1.0000E-05 5.0000E-06 3.5030E+01                                 2013100300023 
 1.5000E-05 1.0000E-05 1.7510E+01                                 2013100300024 
 2.0500E-05 1.5000E-05 1.7350E+01                                 2013100300025 
ENDDATA              8          0                                 2013100300026 
ENDSUBENT           25          0                                 2013100399999 
SUBENT        20131004   19831102                             00002013100400001 
BIB                  4          9                                 2013100400002 
REACTION   (92-U-235(N,F),,INT) FISSION INTEGRALS.                2013100400003 
MONITOR    (92-U-235(N,F),,SIG) 587.9 +- 3.4 B AT 0.0253 EV BY    2013100400004 
            DERUYTTER, WAGEMANS, 1970 HELSINKI CONF. VOL.1, P.117 2013100400005 
            (ENTRY 20143)                                         2013100400006 
STATUS     .TAKEN FROM TABLE 1 OF J.NUCL.ENERGY, 25(1971)263.     2013100400007 
HISTORY    (720817C)                                              2013100400008 
           (730309E)                                              2013100400009 
           (800523A) G.C., REACTION STRINGS CORRECTED.            2013100400010 
           (800603E)                                              2013100400011 
ENDBIB               9          0                                 2013100400012 
COMMON               3          3                                 2013100400013 
EN-NRM     MONIT      MONIT-ERR                                   2013100400014 
EV         B          B                                           2013100400015 
 2.5300E-02 5.8790E+02 3.4000E+00                                 2013100400016 
ENDCOMMON            3          0                                 2013100400017 
DATA                 3          8                                 2013100400018 
EN-MAX     EN-MIN     DATA                                        2013100400019 
MEV        MEV        B*EV                                        2013100400020 
 7.0000E-07 5.0000E-07 1.3440E+01                                 2013100400021 
 1.0000E-06 7.0000E-07 1.6880E+01                                 2013100400022 
 1.8000E-06 1.0000E-06 2.9500E+01                                 2013100400023 
 5.0000E-06 1.8000E-06 5.0620E+01                                 2013100400024 
 7.4000E-06 5.0000E-06 6.2930E+01                                 2013100400025 
 1.0000E-05 7.4000E-06 2.2290E+02                                 2013100400026 
 1.5000E-05 1.0000E-05 2.1730E+02                                 2013100400027 
 2.0500E-05 1.5000E-05 3.2020E+02                                 2013100400028 
ENDDATA             10          0                                 2013100400029 
ENDSUBENT           28          0                                 2013100499999 
SUBENT        20131005   19831102                             00002013100500001 
BIB                  5         11                                 2013100500002 
REACTION   (92-U-235(N,F),,INT) FISSION INTEGRALS.                2013100500003 
MONITOR    (92-U-235(N,F),,SIG) 587.9 +- 3.4 B AT 0.0253 BY       2013100500004 
            DERUYTTER, WAGEMANS, 1970 HELSINKI CONF. VOL.1, P.117 2013100500005 
            (ENTRY 20143)                                         2013100500006 
COMMENT    .RECOMMENDED INTEGRAL BOUNDARIES FOR NORMALIZATION     2013100500007 
            INTEGRAL.                                             2013100500008 
STATUS     .TAKEN FROM TABLE 1 OF J.NUCL.ENERGY, 25(1971)263.     2013100500009 
HISTORY    (720817C)                                              2013100500010 
           (730309E)                                              2013100500011 
           (800523A) G.C., REACTION STRINGS CORRECTED.            2013100500012 
           (800603E)                                              2013100500013 
ENDBIB              11          0                                 2013100500014 
COMMON               3          3                                 2013100500015 
EN-NRM     MONIT      MONIT-ERR                                   2013100500016 
EV         B          B                                           2013100500017 
 2.5300E-02 5.8790E+02 3.4000E+00                                 2013100500018 
ENDCOMMON            3          0                                 2013100500019 
DATA                 4          1                                 2013100500020 
EN-MAX     EN-MIN     DATA       DATA-ERR                         2013100500021 
MEV        MEV        B*EV       B*EV                             2013100500022 
 1.1000E-05 7.8000E-06 2.4020E+02 2.1000E+00                      2013100500023 
ENDDATA              3          0                                 2013100500024 
ENDSUBENT           23          0                                 2013100599999 
ENDENTRY             5          0                                 2013199999999 
