ENTRY            20132   19831102                             00002013200000001 
SUBENT        20132001   19831102                             00002013200100001 
BIB                 12         45                                 2013200100002 
INSTITUTE  (2ZZZGEL)                                              2013200100003 
REFERENCE  (J,JNE,26,293,7206)   FULL PAPER.                      2013200100004 
           (C,70HELSINKI,1,151,7006)  ABSTRACT.                   2013200100005 
           (W,DERUYTTER,7205)  FISSION CROSS-SECTIONS ON CARDS.   2013200100006 
AUTHOR     (A.J.DERUYTTER, C.WAGEMANS)                            2013200100007 
TITLE      -MEASUREMENT AND NORMALIZATION OF THE RELATIVE PU-239  2013200100008 
            FISSION CROSS-SECTION IN THE LOW RESONANCE REGION.-   2013200100009 
FACILITY   (LINAC)    ELECTRON LINEAR ACCELERATOR OF CBNM.        2013200100010 
INC-SOURCE .PHOTO NEUTRONS OF A MERCURY COOLED NATURAL            2013200100011 
            URANIUM TARGET, MODERATED BY A 2.8 CM TICK            2013200100012 
            POLYETHYLENE SHEET WITH A 1 MM THICK B-10 DECOUPLER.  2013200100013 
            A PIECE OF NATURAL URANIUM IS INCORPORATED IN THE     2013200100014 
            CENTRAL PART OF THE MODERATOR TO REDUCE THE INTENSITY 2013200100015 
            OF THE TARGET GAMMA-FLASH.                            2013200100016 
SAMPLE     .BACK-TO-BACK PU-240 AND B-10 LAYER,                   2013200100017 
            120 MICRO-GR/CM2 PU  AND 103 MICRO-GR/CM2 B-10        2013200100018 
            (92 PER-CENT ENRICHED).                               2013200100019 
           .ISOTOPIC COMPOSITION IN ATOMIC PER-CENT,              2013200100020 
            PU-238 LESS  0.005,  PU-239  99.956 +- 0.010          2013200100021 
            PU-241 LESS  0.005,  PU-240   0.044 +- 0.010          2013200100022 
METHOD     (TOF)      TIME OF FLIGHT, WELL COLLIMATED SHORT       2013200100023 
            FLIGHT PATH OF ABOUT 8 M.                             2013200100024 
DETECTOR   (SOLST)    LARGE AU-SI SURFACE BARRIER DETECTOR.       2013200100025 
MONITOR    (94-PU-238(N,F),,ARE)                                  2013200100026 
             NORMALIZED TO THE FISSION INTEGRAL                   2013200100027 
            FROM 0.02001 TO 0.06001 EV = 25.15 +- 0.13 BARN.EV    2013200100028 
            (DERUYTTER, 1970 HELSINKI CONF. VOL.1, P.117,         2013200100029 
             ENTRY 20143)                                         2013200100030 
COMMENT    .3 SERIES OF MEASUREMENTS DONE.                        2013200100031 
           .TWO GOING DOWN BELOW 2200 M/SEC WITH DIFFERENT BURST  2013200100032 
            WIDTHS AND DIFFERENT PERMANENT BACKGROUND FILTERS     2013200100033 
            GIVING RESULTS WHICH AGREE WITHIN THE STATISTICAL     2013200100034 
            ERROR.                                                2013200100035 
           .THE THIRD SERIES WITH BETTER RESOLUTION AND WITH CD   2013200100036 
            OVERLAP FILTER WENT UP UNTO 40 EV AND WAS NORMALIZED  2013200100037 
            WITH THE OTHER RUNS BETWEEN 6. AND 9. EV IN THE       2013200100038 
            OVERLAPPING REGION.                                   2013200100039 
           .COMPARISONS WITH DATA FROM GWIN, BLONS, BOLLINGER,    2013200100040 
            RYABOV AND IGNATIEV BEFORE AND AFTER RENORMALIZATION  2013200100041 
            TO THE FISSION INTEGRAL FROM 9. TO 20. EV =           2013200100042 
            1046.6 +- 10.4 BARN.EV LEAD TO THE CONCLUSION THAT    2013200100043 
            THE DISCREPANCIES WERE PARTLY DUE TO DIFFERENT        2013200100044 
            (INDIRECT) NORMALIZATION TECHNIQUES USED.             2013200100045 
HISTORY    (720828C)                                              2013200100046 
           (730309E)                                              2013200100047 
ENDBIB              45          0                                 2013200100048 
NOCOMMON             0          0                                 2013200100049 
ENDSUBENT           48          0                                 2013200199999 
SUBENT        20132002   19831102                             00002013200200001 
BIB                  6         14                                 2013200200002 
REACTION   (94-PU-239(N,F),,SIG)                                  2013200200003 
PART-DET   (FF)       FISSION FRAGMENTS.                          2013200200004 
COMMENT    .THE THREE RUNS ARE COMBINED IN ONE DATASET BY AUTHOR. 2013200200005 
           .POINT CROSS-SECTIONS ABOVE 20 EV ARE NOT GIVEN BECAUSE2013200200006 
            OF BAD RESOLUTION.                                    2013200200007 
           .THE QUALITY OF THE SHAPE OF THE LOW ENERGY CROSS-     2013200200008 
            SECTION CURVE IS TESTED BY CALCULATING THE VALUE OF   2013200200009 
            THE WESTCOTT FACTOR FOR A 20.44 DEGREE CELSIUS        2013200200010 
            MAXWELLIAN NEUTRON SPECTRUM, G(F) = 1.057 +- 0.002    2013200200011 
            AGAINST AN IAEA RECOMMENDED VALUE = 1.0548 +- 0.0030. 2013200200012 
STATUS     .NUMERICAL VALUES FROM DERUYTTER 15/05/72.             2013200200013 
HISTORY    (720828C)                                              2013200200014 
           (730309E)                                              2013200200015 
ERR-ANALYS .NO DETAILS GIVEN.                                     2013200200016 
ENDBIB              14          0                                 2013200200017 
NOCOMMON             0          0                                 2013200200018 
DATA                 3        560                                 2013200200019 
EN         DATA       DATA-ERR                                    2013200200020 
MEV        B          B                                           2013200200021 
 1.9810E-08 8.2650E+02 1.7000E+01                                 2013200200022 
 1.9950E-08 8.3520E+02 1.7000E+01                                 2013200200023 
 2.0210E-08 8.2220E+02 1.7000E+01                                 2013200200024 
 2.0460E-08 8.0760E+02 1.7000E+01                                 2013200200025 
 2.0720E-08 7.9800E+02 1.6000E+01                                 2013200200026 
 2.0990E-08 7.7930E+02 1.6000E+01                                 2013200200027 
 2.1260E-08 8.2810E+02 1.6000E+01                                 2013200200028 
 2.1540E-08 8.0690E+02 1.6000E+01                                 2013200200029 
 2.1820E-08 7.9420E+02 1.5000E+01                                 2013200200030 
 2.2110E-08 7.9480E+02 1.5000E+01                                 2013200200031 
 2.2400E-08 7.7450E+02 1.5000E+01                                 2013200200032 
 2.2700E-08 7.6100E+02 1.4000E+01                                 2013200200033 
 2.3000E-08 7.8160E+02 1.4000E+01                                 2013200200034 
 2.3310E-08 7.5050E+02 1.4000E+01                                 2013200200035 
 2.3630E-08 7.6350E+02 1.4000E+01                                 2013200200036 
 2.3950E-08 7.6770E+02 1.4000E+01                                 2013200200037 
 2.4280E-08 7.5250E+02 1.3000E+01                                 2013200200038 
 2.4620E-08 7.3940E+02 1.3000E+01                                 2013200200039 
 2.4970E-08 7.4540E+02 1.3000E+01                                 2013200200040 
 2.5320E-08 7.5740E+02 1.3000E+01                                 2013200200041 
 2.5680E-08 7.3650E+02 1.2000E+01                                 2013200200042 
 2.6050E-08 7.2600E+02 1.2000E+01                                 2013200200043 
 2.6420E-08 7.3070E+02 1.2000E+01                                 2013200200044 
 2.6800E-08 7.2330E+02 1.2000E+01                                 2013200200045 
 2.7200E-08 7.2520E+02 1.1000E+01                                 2013200200046 
 2.7600E-08 7.1140E+02 1.1000E+01                                 2013200200047 
 2.8010E-08 7.0100E+02 1.1000E+01                                 2013200200048 
 2.8420E-08 6.9910E+02 1.1000E+01                                 2013200200049 
 2.8850E-08 6.9420E+02 1.1000E+01                                 2013200200050 
 2.9290E-08 6.9830E+02 1.1000E+01                                 2013200200051 
 2.9740E-08 6.8140E+02 1.0000E+01                                 2013200200052 
 3.0200E-08 6.7090E+02 1.0000E+01                                 2013200200053 
 3.0660E-08 6.6740E+02 1.0000E+01                                 2013200200054 
 3.1140E-08 6.8580E+02 1.0000E+01                                 2013200200055 
 3.1640E-08 6.7300E+02 1.0000E+01                                 2013200200056 
 3.2140E-08 6.6850E+02 1.0000E+01                                 2013200200057 
 3.2650E-08 6.5890E+02 9.0000E+00                                 2013200200058 
 3.3180E-08 6.4710E+02 9.0000E+00                                 2013200200059 
 3.3720E-08 6.5610E+02 9.0000E+00                                 2013200200060 
 3.4270E-08 6.3790E+02 9.0000E+00                                 2013200200061 
 3.4840E-08 6.3860E+02 9.0000E+00                                 2013200200062 
 3.5420E-08 6.3730E+02 9.0000E+00                                 2013200200063 
 3.6020E-08 6.3400E+02 9.0000E+00                                 2013200200064 
 3.6630E-08 6.2180E+02 8.0000E+00                                 2013200200065 
 3.7260E-08 6.1340E+02 8.0000E+00                                 2013200200066 
 3.7900E-08 6.0900E+02 8.0000E+00                                 2013200200067 
 3.8560E-08 6.1820E+02 8.0000E+00                                 2013200200068 
 3.9240E-08 6.1140E+02 8.0000E+00                                 2013200200069 
 3.9930E-08 6.0330E+02 8.0000E+00                                 2013200200070 
 4.0650E-08 6.0190E+02 8.0000E+00                                 2013200200071 
 4.1380E-08 5.9650E+02 8.0000E+00                                 2013200200072 
 4.2130E-08 5.9860E+02 7.0000E+00                                 2013200200073 
 4.2910E-08 5.7150E+02 7.0000E+00                                 2013200200074 
 4.3700E-08 5.7380E+02 7.0000E+00                                 2013200200075 
 4.4520E-08 5.7500E+02 7.0000E+00                                 2013200200076 
 4.5360E-08 5.7210E+02 7.0000E+00                                 2013200200077 
 4.6230E-08 5.7060E+02 7.0000E+00                                 2013200200078 
 4.7120E-08 5.8010E+02 7.0000E+00                                 2013200200079 
 4.8030E-08 5.5570E+02 7.0000E+00                                 2013200200080 
 4.8980E-08 5.5120E+02 7.0000E+00                                 2013200200081 
 4.9950E-08 5.5000E+02 7.0000E+00                                 2013200200082 
 5.0950E-08 5.5590E+02 6.0000E+00                                 2013200200083 
 5.1980E-08 5.4550E+02 6.0000E+00                                 2013200200084 
 5.3040E-08 5.4880E+02 6.0000E+00                                 2013200200085 
 5.4140E-08 5.3310E+02 6.0000E+00                                 2013200200086 
 5.5270E-08 5.3900E+02 6.0000E+00                                 2013200200087 
 5.6430E-08 5.2930E+02 6.0000E+00                                 2013200200088 
 5.7640E-08 5.2960E+02 6.0000E+00                                 2013200200089 
 5.8880E-08 5.2380E+02 6.0000E+00                                 2013200200090 
 6.0160E-08 5.2060E+02 6.0000E+00                                 2013200200091 
 6.1480E-08 5.0900E+02 6.0000E+00                                 2013200200092 
 6.2850E-08 5.1010E+02 6.0000E+00                                 2013200200093 
 6.4270E-08 5.1110E+02 6.0000E+00                                 2013200200094 
 6.5730E-08 5.1250E+02 6.0000E+00                                 2013200200095 
 6.7240E-08 4.9720E+02 5.0000E+00                                 2013200200096 
 6.8810E-08 5.0400E+02 5.0000E+00                                 2013200200097 
 7.0430E-08 4.9870E+02 5.0000E+00                                 2013200200098 
 7.2110E-08 4.9900E+02 5.0000E+00                                 2013200200099 
 7.3850E-08 4.8430E+02 5.0000E+00                                 2013200200100 
 7.5660E-08 4.8320E+02 5.0000E+00                                 2013200200101 
 7.7530E-08 4.8610E+02 5.0000E+00                                 2013200200102 
 7.9470E-08 4.7780E+02 5.0000E+00                                 2013200200103 
 8.1490E-08 4.7740E+02 5.0000E+00                                 2013200200104 
 8.3580E-08 4.8140E+02 5.0000E+00                                 2013200200105 
 8.5750E-08 4.8010E+02 5.0000E+00                                 2013200200106 
 8.8010E-08 4.8160E+02 5.0000E+00                                 2013200200107 
 9.0370E-08 4.6980E+02 5.0000E+00                                 2013200200108 
 9.2810E-08 4.6630E+02 5.0000E+00                                 2013200200109 
 9.5360E-08 4.7560E+02 5.0000E+00                                 2013200200110 
 9.8020E-08 4.8020E+02 5.0000E+00                                 2013200200111 
 1.0078E-07 4.7490E+02 5.0000E+00                                 2013200200112 
 1.0367E-07 4.7480E+02 5.0000E+00                                 2013200200113 
 1.0668E-07 4.7700E+02 5.0000E+00                                 2013200200114 
 1.0982E-07 4.7730E+02 5.0000E+00                                 2013200200115 
 1.1311E-07 4.8030E+02 5.0000E+00                                 2013200200116 
 1.1655E-07 4.7740E+02 5.0000E+00                                 2013200200117 
 1.2014E-07 4.8250E+02 5.0000E+00                                 2013200200118 
 1.2390E-07 4.8870E+02 5.0000E+00                                 2013200200119 
 1.2785E-07 4.9250E+02 5.0000E+00                                 2013200200120 
 1.3198E-07 4.9600E+02 5.0000E+00                                 2013200200121 
 1.3632E-07 5.1090E+02 5.0000E+00                                 2013200200122 
 1.4087E-07 5.2100E+02 5.0000E+00                                 2013200200123 
 1.4566E-07 5.3270E+02 5.0000E+00                                 2013200200124 
 1.5070E-07 5.4530E+02 6.0000E+00                                 2013200200125 
 1.5600E-07 5.6330E+02 6.0000E+00                                 2013200200126 
 1.6158E-07 5.8670E+02 6.0000E+00                                 2013200200127 
 1.6747E-07 6.1520E+02 6.0000E+00                                 2013200200128 
 1.7369E-07 6.4420E+02 6.0000E+00                                 2013200200129 
 1.7890E-07 6.7020E+02 9.0000E+00                                 2013200200130 
 1.8299E-07 7.0380E+02 9.0000E+00                                 2013200200131 
 1.8722E-07 7.2470E+02 9.0000E+00                                 2013200200132 
 1.9157E-07 7.7580E+02 9.0000E+00                                 2013200200133 
 1.9610E-07 7.9860E+02 1.0000E+01                                 2013200200134 
 2.0077E-07 8.4830E+02 1.1000E+01                                 2013200200135 
 2.0563E-07 8.9520E+02 1.2000E+01                                 2013200200136 
 2.1064E-07 9.6420E+02 1.2000E+01                                 2013200200137 
 2.1587E-07 1.0304E+03 1.2000E+01                                 2013200200138 
 2.1944E-07 1.0636E+03 2.2000E+01                                 2013200200139 
 2.2130E-07 1.1435E+03 2.2000E+01                                 2013200200140 
 2.2314E-07 1.1797E+03 2.3000E+01                                 2013200200141 
 2.2501E-07 1.2240E+03 2.3000E+01                                 2013200200142 
 2.2690E-07 1.2055E+03 2.3000E+01                                 2013200200143 
 2.2881E-07 1.2461E+03 2.3000E+01                                 2013200200144 
 2.3079E-07 1.3362E+03 2.4000E+01                                 2013200200145 
 2.3275E-07 1.3079E+03 2.4000E+01                                 2013200200146 
 2.3474E-07 1.3814E+03 2.4000E+01                                 2013200200147 
 2.3675E-07 1.4266E+03 2.4000E+01                                 2013200200148 
 2.3879E-07 1.4908E+03 2.5000E+01                                 2013200200149 
 2.4090E-07 1.5680E+03 2.5000E+01                                 2013200200150 
 2.4299E-07 1.5934E+03 2.6000E+01                                 2013200200151 
 2.4511E-07 1.6745E+03 2.6000E+01                                 2013200200152 
 2.4726E-07 1.7309E+03 2.7000E+01                                 2013200200153 
 2.4944E-07 1.7662E+03 2.7000E+01                                 2013200200154 
 2.5169E-07 1.8757E+03 2.8000E+01                                 2013200200155 
 2.5392E-07 1.9256E+03 2.8000E+01                                 2013200200156 
 2.5619E-07 2.0396E+03 2.9000E+01                                 2013200200157 
 2.5849E-07 2.1062E+03 3.0000E+01                                 2013200200158 
 2.6081E-07 2.2214E+03 3.1000E+01                                 2013200200159 
 2.6322E-07 2.3158E+03 3.1000E+01                                 2013200200160 
 2.6561E-07 2.3801E+03 3.2000E+01                                 2013200200161 
 2.6803E-07 2.5199E+03 3.3000E+01                                 2013200200162 
 2.7049E-07 2.6621E+03 3.4000E+01                                 2013200200163 
 2.7298E-07 2.7186E+03 3.4000E+01                                 2013200200164 
 2.7556E-07 2.7380E+03 3.5000E+01                                 2013200200165 
 2.7863E-07 2.9228E+03 3.6000E+01                                 2013200200166 
 2.8072E-07 3.0539E+03 3.7000E+01                                 2013200200167 
 2.8335E-07 3.1203E+03 3.7000E+01                                 2013200200168 
 2.8603E-07 3.1698E+03 3.8000E+01                                 2013200200169 
 2.8879E-07 3.2041E+03 3.8000E+01                                 2013200200170 
 2.9154E-07 3.2782E+03 3.9000E+01                                 2013200200171 
 2.9433E-07 3.3273E+03 3.9000E+01                                 2013200200172 
 2.9716E-07 3.2999E+03 3.9000E+01                                 2013200200173 
 3.0003E-07 3.2938E+03 3.9000E+01                                 2013200200174 
 3.0300E-07 3.3419E+03 3.9000E+01                                 2013200200175 
 3.0595E-07 3.2478E+03 3.8000E+01                                 2013200200176 
 3.0895E-07 3.2360E+03 3.8000E+01                                 2013200200177 
 3.1200E-07 3.1354E+03 3.7000E+01                                 2013200200178 
 3.1508E-07 3.0382E+03 3.7000E+01                                 2013200200179 
 3.1840E-07 2.9112E+03 3.6000E+01                                 2013200200180 
 3.2146E-07 2.7498E+03 3.4000E+01                                 2013200200181 
 3.2469E-07 2.6917E+03 3.4000E+01                                 2013200200182 
 3.2797E-07 2.5421E+03 3.2000E+01                                 2013200200183 
 3.3130E-07 2.3776E+03 3.1000E+01                                 2013200200184 
 3.3468E-07 2.2198E+03 3.0000E+01                                 2013200200185 
 3.3813E-07 2.0773E+03 2.9000E+01                                 2013200200186 
 3.4163E-07 1.9034E+03 2.7000E+01                                 2013200200187 
 3.4518E-07 1.7910E+03 2.6000E+01                                 2013200200188 
 3.4879E-07 1.6640E+03 2.5000E+01                                 2013200200189 
 3.5245E-07 1.5747E+03 2.4000E+01                                 2013200200190 
 3.5618E-07 1.4287E+03 2.3000E+01                                 2013200200191 
 3.5996E-07 1.3745E+03 2.2000E+01                                 2013200200192 
 3.6381E-07 1.2748E+03 2.1000E+01                                 2013200200193 
 3.6771E-07 1.1680E+03 2.0000E+01                                 2013200200194 
 3.7168E-07 1.0700E+03 1.9000E+01                                 2013200200195 
 3.7572E-07 1.0016E+03 1.9000E+01                                 2013200200196 
 3.7982E-07 9.3410E+02 1.8000E+01                                 2013200200197 
 3.8399E-07 8.5380E+02 1.7000E+01                                 2013200200198 
 3.8822E-07 7.7050E+02 1.6000E+01                                 2013200200199 
 3.9253E-07 7.2750E+02 1.6000E+01                                 2013200200200 
 3.9691E-07 6.7520E+02 1.5000E+01                                 2013200200201 
 4.0136E-07 6.4420E+02 1.5000E+01                                 2013200200202 
 4.0598E-07 5.9250E+02 1.4000E+01                                 2013200200203 
 4.1050E-07 5.5470E+02 1.4000E+01                                 2013200200204 
 4.1518E-07 5.2600E+02 1.4000E+01                                 2013200200205 
 4.1995E-07 4.8560E+02 1.3000E+01                                 2013200200206 
 4.2479E-07 4.5280E+02 1.3000E+01                                 2013200200207 
 4.2973E-07 4.2140E+02 1.2000E+01                                 2013200200208 
 4.3474E-07 4.1210E+02 1.2000E+01                                 2013200200209 
 4.3985E-07 3.8090E+02 1.2000E+01                                 2013200200210 
 4.4505E-07 3.5380E+02 1.2000E+01                                 2013200200211 
 4.5034E-07 3.2930E+02 1.1000E+01                                 2013200200212 
 4.5572E-07 3.2610E+02 1.1000E+01                                 2013200200213 
 4.6120E-07 3.0960E+02 1.1000E+01                                 2013200200214 
 4.6679E-07 2.8660E+02 1.1000E+01                                 2013200200215 
 4.7247E-07 2.7110E+02 1.0000E+01                                 2013200200216 
 4.7826E-07 2.4360E+02 1.0000E+01                                 2013200200217 
 4.8415E-07 2.3300E+02 1.0000E+01                                 2013200200218 
 4.9016E-07 2.2890E+02 1.0000E+01                                 2013200200219 
 4.9627E-07 2.1310E+02 9.0000E+00                                 2013200200220 
 5.0251E-07 2.0120E+02 9.0000E+00                                 2013200200221 
 5.0886E-07 1.8830E+02 9.0000E+00                                 2013200200222 
 5.2192E-07 1.7450E+02 5.0000E+00                                 2013200200223 
 5.4249E-07 1.5010E+02 5.0000E+00                                 2013200200224 
 5.6429E-07 1.3260E+02 5.0000E+00                                 2013200200225 
 5.8744E-07 1.1630E+02 4.0000E+00                                 2013200200226 
 6.1204E-07 1.0050E+02 4.0000E+00                                 2013200200227 
 6.3822E-07 8.5300E+01 4.0000E+00                                 2013200200228 
 6.6611E-07 8.0200E+01 4.0000E+00                                 2013200200229 
 6.9587E-07 7.1600E+01 4.0000E+00                                 2013200200230 
 7.2768E-07 6.8600E+01 4.0000E+00                                 2013200200231 
 7.6172E-07 6.1400E+01 4.0000E+00                                 2013200200232 
 7.9820E-07 5.2400E+01 3.0000E+00                                 2013200200233 
 8.3736E-07 4.7400E+01 3.0000E+00                                 2013200200234 
 8.7948E-07 4.4100E+01 3.0000E+00                                 2013200200235 
 9.2486E-07 3.7300E+01 3.0000E+00                                 2013200200236 
 9.7385E-07 3.6800E+01 3.0000E+00                                 2013200200237 
 1.0268E-06 3.5220E+01 3.0000E+00                                 2013200200238 
 1.0843E-06 3.2290E+01 3.0000E+00                                 2013200200239 
 1.1466E-06 2.8720E+01 2.5000E+00                                 2013200200240 
 1.2146E-06 2.7740E+01 2.5000E+00                                 2013200200241 
 1.2887E-06 2.4750E+01 2.5000E+00                                 2013200200242 
 1.3699E-06 2.2450E+01 2.0000E+00                                 2013200200243 
 1.4589E-06 2.1150E+01 2.0000E+00                                 2013200200244 
 1.5570E-06 1.8950E+01 2.0000E+00                                 2013200200245 
 1.6652E-06 1.8460E+01 2.0000E+00                                 2013200200246 
 1.7852E-06 1.6620E+01 2.0000E+00                                 2013200200247 
 1.9186E-06 1.6430E+01 2.0000E+00                                 2013200200248 
 2.0675E-06 1.4840E+01 1.5000E+00                                 2013200200249 
 2.2119E-06 1.4150E+01 7.0000E-01                                 2013200200250 
 2.3168E-06 1.4400E+01 6.0000E-01                                 2013200200251 
 2.4292E-06 1.3640E+01 6.0000E-01                                 2013200200252 
 2.5500E-06 1.3460E+01 6.0000E-01                                 2013200200253 
 2.6801E-06 1.1660E+01 5.0000E-01                                 2013200200254 
 2.8204E-06 1.2530E+01 5.0000E-01                                 2013200200255 
 2.9720E-06 1.1910E+01 5.0000E-01                                 2013200200256 
 3.1362E-06 1.0100E+01 5.0000E-01                                 2013200200257 
 3.3143E-06 1.0340E+01 5.0000E-01                                 2013200200258 
 3.5081E-06 9.9000E+00 5.0000E-01                                 2013200200259 
 3.7194E-06 8.6000E+00 4.0000E-01                                 2013200200260 
 3.9504E-06 8.3200E+00 4.0000E-01                                 2013200200261 
 4.1659E-06 7.6500E+00 4.5000E-01                                 2013200200262 
 4.3593E-06 8.0700E+00 4.5000E-01                                 2013200200263 
 4.5664E-06 7.9000E+00 4.5000E-01                                 2013200200264 
 4.7887E-06 6.7200E+00 4.5000E-01                                 2013200200265 
 5.0276E-06 7.0600E+00 4.0000E-01                                 2013200200266 
 5.2848E-06 6.6600E+00 4.0000E-01                                 2013200200267 
 5.5624E-06 6.8700E+00 4.0000E-01                                 2013200200268 
 5.8623E-06 6.5700E+00 4.0000E-01                                 2013200200269 
 6.0664E-06 6.5900E+00 7.0000E-01                                 2013200200270 
 6.1577E-06 7.2600E+00 7.0000E-01                                 2013200200271 
 6.2511E-06 7.5000E+00 7.0000E-01                                 2013200200272 
 6.3466E-06 7.1800E+00 7.0000E-01                                 2013200200273 
 6.4444E-06 8.5400E+00 8.0000E-01                                 2013200200274 
 6.5444E-06 7.5100E+00 8.0000E-01                                 2013200200275 
 6.6468E-06 9.3100E+00 8.0000E-01                                 2013200200276 
 6.7515E-06 1.0190E+01 8.0000E-01                                 2013200200277 
 6.8588E-06 9.1600E+00 8.0000E-01                                 2013200200278 
 6.9687E-06 1.1050E+01 9.0000E-01                                 2013200200279 
 7.0812E-06 1.1380E+01 9.0000E-01                                 2013200200280 
 7.1648E-06 1.2170E+01 1.5000E+00                                 2013200200281 
 7.2178E-06 1.5760E+01 1.5000E+00                                 2013200200282 
 7.2713E-06 1.7760E+01 1.5000E+00                                 2013200200283 
 7.3255E-06 2.0810E+01 1.5000E+00                                 2013200200284 
 7.3803E-06 2.2750E+01 1.5000E+00                                 2013200200285 
 7.4357E-06 2.3360E+01 2.0000E+00                                 2013200200286 
 7.4917E-06 2.7290E+01 2.0000E+00                                 2013200200287 
 7.5369E-06 4.1540E+01 3.0000E+00                                 2013200200288 
 7.5712E-06 4.2600E+01 3.0000E+00                                 2013200200289 
 7.6056E-06 5.9180E+01 3.5000E+00                                 2013200200290 
 7.6403E-06 7.8610E+01 4.0000E+00                                 2013200200291 
 7.6636E-06 8.8640E+01 7.0000E+00                                 2013200200292 
 7.6752E-06 1.1259E+02 8.0000E+00                                 2013200200293 
 7.6869E-06 1.3005E+02 9.0000E+00                                 2013200200294 
 7.6987E-06 1.4397E+02 9.0000E+00                                 2013200200295 
 7.7104E-06 1.7423E+02 1.0000E+01                                 2013200200296 
 7.7222E-06 2.0910E+02 1.1000E+01                                 2013200200297 
 7.7340E-06 2.4974E+02 1.2000E+01                                 2013200200298 
 7.7458E-06 2.8156E+02 1.3000E+01                                 2013200200299 
 7.7577E-06 3.2030E+02 1.4000E+01                                 2013200200300 
 7.7696E-06 3.8049E+02 1.5000E+01                                 2013200200301 
 7.7815E-06 4.6439E+02 1.7000E+01                                 2013200200302 
 7.7934E-06 4.8832E+02 1.7000E+01                                 2013200200303 
 7.8054E-06 5.6789E+02 1.9000E+01                                 2013200200304 
 7.8174E-06 6.2992E+02 2.0000E+01                                 2013200200305 
 7.8294E-06 6.9992E+02 2.1000E+01                                 2013200200306 
 7.8415E-06 6.9287E+02 2.1000E+01                                 2013200200307 
 7.8535E-06 7.7250E+02 2.2000E+01                                 2013200200308 
 7.8656E-06 7.0709E+02 2.1000E+01                                 2013200200309 
 7.8772E-06 6.8393E+02 2.1000E+01                                 2013200200310 
 7.8894E-06 6.5906E+02 2.0000E+01                                 2013200200311 
 7.9016E-06 5.8762E+02 1.9000E+01                                 2013200200312 
 7.9138E-06 5.3414E+02 1.8000E+01                                 2013200200313 
 7.9260E-06 4.7330E+02 1.7000E+01                                 2013200200314 
 7.9383E-06 3.8102E+02 1.5000E+01                                 2013200200315 
 7.9506E-06 3.3650E+02 1.4000E+01                                 2013200200316 
 7.9629E-06 2.8519E+02 1.3000E+01                                 2013200200317 
 7.9753E-06 2.2369E+02 1.2000E+01                                 2013200200318 
 7.9877E-06 1.8232E+02 1.0000E+01                                 2013200200319 
 8.0001E-06 1.5816E+02 1.0000E+01                                 2013200200320 
 8.0126E-06 1.2206E+02 8.0000E+00                                 2013200200321 
 8.0250E-06 9.0030E+01 7.0000E+00                                 2013200200322 
 8.0375E-06 6.9450E+01 6.0000E+00                                 2013200200323 
 8.0501E-06 6.9380E+01 6.0000E+00                                 2013200200324 
 8.0626E-06 6.0220E+01 6.0000E+00                                 2013200200325 
 8.0752E-06 4.0860E+01 5.0000E+00                                 2013200200326 
 8.1005E-06 3.7000E+01 3.0000E+00                                 2013200200327 
 8.1386E-06 3.4070E+01 2.5000E+00                                 2013200200328 
 8.1770E-06 1.8950E+01 2.0000E+00                                 2013200200329 
 8.2157E-06 1.7020E+01 2.0000E+00                                 2013200200330 
 8.2547E-06 1.3050E+01 1.5000E+00                                 2013200200331 
 8.3070E-06 1.0580E+01 1.0000E+00                                 2013200200332 
 8.3732E-06 9.9700E+00 1.0000E+00                                 2013200200333 
 8.4402E-06 8.9200E+00 1.0000E+00                                 2013200200334 
 8.5079E-06 7.3400E+00 1.0000E+00                                 2013200200335 
 8.5765E-06 6.2100E+00 1.0000E+00                                 2013200200336 
 8.6459E-06 6.5000E+00 1.0000E+00                                 2013200200337 
 8.7162E-06 6.0300E+00 9.0000E-01                                 2013200200338 
 8.7873E-06 3.8400E+00 8.0000E-01                                 2013200200339 
 8.8593E-06 6.0700E+00 9.0000E-01                                 2013200200340 
 8.9322E-06 4.3300E+00 8.0000E-01                                 2013200200341 
 9.0060E-06 6.1100E+00 9.0000E-01                                 2013200200342 
 9.0807E-06 5.0200E+00 8.0000E-01                                 2013200200343 
 9.1564E-06 4.5800E+00 8.0000E-01                                 2013200200344 
 9.2330E-06 6.3200E+00 9.0000E-01                                 2013200200345 
 9.3105E-06 4.1100E+00 8.0000E-01                                 2013200200346 
 9.3891E-06 5.1100E+00 8.0000E-01                                 2013200200347 
 9.4686E-06 4.8800E+00 8.0000E-01                                 2013200200348 
 9.5491E-06 6.4900E+00 9.0000E-01                                 2013200200349 
 9.6307E-06 7.5700E+00 1.0000E+00                                 2013200200350 
 9.7134E-06 6.4100E+00 9.0000E-01                                 2013200200351 
 9.7971E-06 7.1800E+00 1.0000E+00                                 2013200200352 
 9.8819E-06 8.2400E+00 1.0000E+00                                 2013200200353 
 9.9677E-06 8.0900E+00 1.0000E+00                                 2013200200354 
 1.0037E-05 1.2320E+01 1.5000E+00                                 2013200200355 
 1.0089E-05 1.2600E+01 1.5000E+00                                 2013200200356 
 1.0142E-05 1.3870E+01 1.5000E+00                                 2013200200357 
 1.0196E-05 1.5300E+01 1.5000E+00                                 2013200200358 
 1.0250E-05 1.7690E+01 2.0000E+00                                 2013200200359 
 1.0304E-05 2.5100E+01 2.0000E+00                                 2013200200360 
 1.0359E-05 2.3400E+01 2.0000E+00                                 2013200200361 
 1.0414E-05 3.4930E+01 2.5000E+00                                 2013200200362 
 1.0451E-05 3.9520E+01 4.5000E+00                                 2013200200363 
 1.0470E-05 4.4780E+01 5.0000E+00                                 2013200200364 
 1.0488E-05 4.5210E+01 5.0000E+00                                 2013200200365 
 1.0507E-05 5.3340E+01 5.0000E+00                                 2013200200366 
 1.0526E-05 5.5210E+01 5.0000E+00                                 2013200200367 
 1.0545E-05 5.8510E+01 5.5000E+00                                 2013200200368 
 1.0563E-05 7.2350E+01 6.0000E+00                                 2013200200369 
 1.0582E-05 8.0890E+01 6.5000E+00                                 2013200200370 
 1.0601E-05 7.9850E+01 6.5000E+00                                 2013200200371 
 1.0620E-05 1.0031E+02 7.0000E+00                                 2013200200372 
 1.0639E-05 1.2121E+02 8.0000E+00                                 2013200200373 
 1.0658E-05 1.2823E+02 8.0000E+00                                 2013200200374 
 1.0677E-05 1.4476E+02 8.5000E+00                                 2013200200375 
 1.0697E-05 1.7410E+02 9.0000E+00                                 2013200200376 
 1.0716E-05 1.8484E+02 9.5000E+00                                 2013200200377 
 1.0735E-05 2.3450E+02 1.1000E+01                                 2013200200378 
 1.0755E-05 2.6649E+02 1.2000E+01                                 2013200200379 
 1.0774E-05 3.2779E+02 1.3000E+01                                 2013200200380 
 1.0793E-05 3.8895E+02 1.4000E+01                                 2013200200381 
 1.0813E-05 4.9110E+02 1.6000E+01                                 2013200200382 
 1.0832E-05 5.5761E+02 1.7000E+01                                 2013200200383 
 1.0852E-05 6.4520E+02 1.8000E+01                                 2013200200384 
 1.0872E-05 7.2317E+02 2.0000E+01                                 2013200200385 
 1.0892E-05 8.2778E+02 2.1000E+01                                 2013200200386 
 1.0911E-05 8.9691E+02 2.2000E+01                                 2013200200387 
 1.0931E-05 1.0020E+03 2.3000E+01                                 2013200200388 
 1.0951E-05 9.8216E+02 2.3000E+01                                 2013200200389 
 1.0971E-05 9.8762E+02 2.3000E+01                                 2013200200390 
 1.0991E-05 9.9307E+02 2.3000E+01                                 2013200200391 
 1.1011E-05 9.4661E+02 2.3000E+01                                 2013200200392 
 1.1031E-05 8.5963E+02 2.2000E+01                                 2013200200393 
 1.1051E-05 7.5837E+02 2.0000E+01                                 2013200200394 
 1.1071E-05 6.7086E+02 1.9000E+01                                 2013200200395 
 1.1092E-05 5.8354E+02 1.7000E+01                                 2013200200396 
 1.1112E-05 5.0897E+02 1.6000E+01                                 2013200200397 
 1.1132E-05 4.3596E+02 1.5000E+01                                 2013200200398 
 1.1153E-05 3.7053E+02 1.4000E+01                                 2013200200399 
 1.1173E-05 3.0849E+02 1.3000E+01                                 2013200200400 
 1.1194E-05 2.7621E+02 1.2000E+01                                 2013200200401 
 1.1215E-05 2.2643E+02 1.1000E+01                                 2013200200402 
 1.1235E-05 2.1556E+02 1.0000E+01                                 2013200200403 
 1.1256E-05 2.0102E+02 1.0000E+01                                 2013200200404 
 1.1277E-05 1.6900E+02 9.0000E+00                                 2013200200405 
 1.1298E-05 1.7157E+02 9.0000E+00                                 2013200200406 
 1.1318E-05 1.3920E+02 8.0000E+00                                 2013200200407 
 1.1339E-05 1.2618E+02 8.0000E+00                                 2013200200408 
 1.1360E-05 1.2466E+02 8.0000E+00                                 2013200200409 
 1.1381E-05 1.1673E+02 8.0000E+00                                 2013200200410 
 1.1403E-05 1.0196E+02 7.0000E+00                                 2013200200411 
 1.1424E-05 1.2195E+02 8.0000E+00                                 2013200200412 
 1.1445E-05 1.0264E+02 7.0000E+00                                 2013200200413 
 1.1466E-05 9.7510E+01 7.0000E+00                                 2013200200414 
 1.1488E-05 8.5560E+01 6.0000E+00                                 2013200200415 
 1.1509E-05 7.3630E+01 6.0000E+00                                 2013200200416 
 1.1531E-05 9.2630E+01 7.0000E+00                                 2013200200417 
 1.1552E-05 8.9350E+01 7.0000E+00                                 2013200200418 
 1.1574E-05 8.0180E+01 6.0000E+00                                 2013200200419 
 1.1595E-05 9.1410E+01 7.0000E+00                                 2013200200420 
 1.1617E-05 9.5380E+01 7.0000E+00                                 2013200200421 
 1.1639E-05 9.6620E+01 7.0000E+00                                 2013200200422 
 1.1661E-05 1.1501E+02 7.0000E+00                                 2013200200423 
 1.1683E-05 1.0992E+02 7.0000E+00                                 2013200200424 
 1.1705E-05 1.1835E+02 7.0000E+00                                 2013200200425 
 1.1727E-05 1.4431E+02 8.0000E+00                                 2013200200426 
 1.1749E-05 1.5942E+02 9.0000E+00                                 2013200200427 
 1.1771E-05 2.1444E+02 1.0000E+01                                 2013200200428 
 1.1793E-05 2.4423E+02 1.1000E+01                                 2013200200429 
 1.1815E-05 2.7851E+02 1.1000E+01                                 2013200200430 
 1.1838E-05 3.6081E+02 1.3000E+01                                 2013200200431 
 1.1860E-05 3.9205E+02 1.4000E+01                                 2013200200432 
 1.1883E-05 4.0539E+02 1.4000E+01                                 2013200200433 
 1.1905E-05 4.0401E+02 1.4000E+01                                 2013200200434 
 1.1928E-05 3.8575E+02 1.4000E+01                                 2013200200435 
 1.1950E-05 3.5331E+02 1.3000E+01                                 2013200200436 
 1.1973E-05 2.8460E+02 1.2000E+01                                 2013200200437 
 1.1996E-05 2.0364E+02 1.0000E+01                                 2013200200438 
 1.2019E-05 1.6757E+02 9.0000E+00                                 2013200200439 
 1.2042E-05 1.0727E+02 7.0000E+00                                 2013200200440 
 1.2065E-05 5.9490E+01 5.0000E+00                                 2013200200441 
 1.2088E-05 4.5750E+01 5.0000E+00                                 2013200200442 
 1.2111E-05 2.6770E+01 4.0000E+00                                 2013200200443 
 1.2134E-05 1.5740E+01 3.0000E+00                                 2013200200444 
 1.2157E-05 1.3520E+01 3.0000E+00                                 2013200200445 
 1.2181E-05 1.3510E+01 3.0000E+00                                 2013200200446 
 1.2228E-05 7.7900E+00 1.2000E+00                                 2013200200447 
 1.2298E-05 9.5000E+00 1.2000E+00                                 2013200200448 
 1.2370E-05 1.0620E+01 1.3000E+00                                 2013200200449 
 1.2442E-05 1.1590E+01 1.3000E+00                                 2013200200450 
 1.2514E-05 1.0400E+01 1.3000E+00                                 2013200200451 
 1.2588E-05 1.1940E+01 1.4000E+00                                 2013200200452 
 1.2662E-05 1.2320E+01 1.4000E+00                                 2013200200453 
 1.2736E-05 9.2900E+00 1.2000E+00                                 2013200200454 
 1.2812E-05 9.5300E+00 1.2000E+00                                 2013200200455 
 1.2887E-05 1.0340E+01 1.3000E+00                                 2013200200456 
 1.2964E-05 9.7400E+00 1.2000E+00                                 2013200200457 
 1.3041E-05 1.0690E+01 1.3000E+00                                 2013200200458 
 1.3119E-05 9.1100E+00 1.2000E+00                                 2013200200459 
 1.3198E-05 1.1580E+01 1.3000E+00                                 2013200200460 
 1.3277E-05 1.2500E+01 1.4000E+00                                 2013200200461 
 1.3358E-05 1.1620E+01 1.3000E+00                                 2013200200462 
 1.3438E-05 1.2400E+01 1.4000E+00                                 2013200200463 
 1.3520E-05 1.4960E+01 1.5000E+00                                 2013200200464 
 1.3602E-05 1.8990E+01 1.6000E+00                                 2013200200465 
 1.3685E-05 1.9460E+01 1.6000E+00                                 2013200200466 
 1.3769E-05 2.1420E+01 1.7000E+00                                 2013200200467 
 1.3854E-05 2.7800E+01 2.0000E+00                                 2013200200468 
 1.3911E-05 2.8950E+01 3.5000E+00                                 2013200200469 
 1.3939E-05 3.9790E+01 4.0000E+00                                 2013200200470 
 1.3968E-05 3.8930E+01 4.0000E+00                                 2013200200471 
 1.3997E-05 4.7730E+01 4.5000E+00                                 2013200200472 
 1.4025E-05 5.8100E+01 5.0000E+00                                 2013200200473 
 1.4054E-05 7.2060E+01 5.5000E+00                                 2013200200474 
 1.4083E-05 8.9580E+01 6.0000E+00                                 2013200200475 
 1.4112E-05 1.1026E+02 7.0000E+00                                 2013200200476 
 1.4142E-05 1.3647E+02 7.5000E+00                                 2013200200477 
 1.4171E-05 1.7339E+02 8.5000E+00                                 2013200200478 
 1.4200E-05 1.9826E+02 9.0000E+00                                 2013200200479 
 1.4230E-05 2.5251E+02 1.0000E+01                                 2013200200480 
 1.4259E-05 2.6570E+02 1.1000E+01                                 2013200200481 
 1.4289E-05 2.9908E+02 1.1000E+01                                 2013200200482 
 1.4318E-05 2.9117E+02 1.1000E+01                                 2013200200483 
 1.4348E-05 2.8723E+02 1.1000E+01                                 2013200200484 
 1.4378E-05 2.3547E+02 1.0000E+01                                 2013200200485 
 1.4408E-05 2.1424E+02 1.0000E+01                                 2013200200486 
 1.4438E-05 1.8716E+02 9.0000E+00                                 2013200200487 
 1.4469E-05 1.7943E+02 8.5000E+00                                 2013200200488 
 1.4499E-05 2.0633E+02 9.0000E+00                                 2013200200489 
 1.4529E-05 2.5398E+02 1.0000E+01                                 2013200200490 
 1.4560E-05 3.4778E+02 1.2000E+01                                 2013200200491 
 1.4590E-05 4.3271E+02 1.4000E+01                                 2013200200492 
 1.4621E-05 5.4677E+02 1.5000E+01                                 2013200200493 
 1.4652E-05 6.1482E+02 1.6000E+01                                 2013200200494 
 1.4683E-05 6.3860E+02 1.7000E+01                                 2013200200495 
 1.4713E-05 6.1283E+02 1.6000E+01                                 2013200200496 
 1.4745E-05 5.2563E+02 1.5000E+01                                 2013200200497 
 1.4776E-05 4.2623E+02 1.4000E+01                                 2013200200498 
 1.4807E-05 3.2786E+02 1.2000E+01                                 2013200200499 
 1.4838E-05 2.3556E+02 1.0000E+01                                 2013200200500 
 1.4870E-05 1.6983E+02 8.0000E+00                                 2013200200501 
 1.4901E-05 1.3520E+02 7.0000E+00                                 2013200200502 
 1.4933E-05 1.2189E+02 7.0000E+00                                 2013200200503 
 1.4965E-05 9.3980E+01 6.0000E+00                                 2013200200504 
 1.4997E-05 8.7690E+01 6.0000E+00                                 2013200200505 
 1.5029E-05 9.1810E+01 6.0000E+00                                 2013200200506 
 1.5061E-05 8.7080E+01 6.0000E+00                                 2013200200507 
 1.5093E-05 7.8520E+01 6.0000E+00                                 2013200200508 
 1.5125E-05 9.4510E+01 6.0000E+00                                 2013200200509 
 1.5157E-05 7.5250E+01 5.5000E+00                                 2013200200510 
 1.5190E-05 8.8140E+01 6.0000E+00                                 2013200200511 
 1.5222E-05 8.9550E+01 6.0000E+00                                 2013200200512 
 1.5255E-05 9.5910E+01 6.0000E+00                                 2013200200513 
 1.5288E-05 9.9590E+01 6.0000E+00                                 2013200200514 
 1.5321E-05 1.0705E+02 6.5000E+00                                 2013200200515 
 1.5354E-05 1.2171E+02 7.0000E+00                                 2013200200516 
 1.5387E-05 1.1246E+02 7.0000E+00                                 2013200200517 
 1.5420E-05 1.1571E+02 7.0000E+00                                 2013200200518 
 1.5454E-05 1.1783E+02 7.0000E+00                                 2013200200519 
 1.5487E-05 1.1843E+02 7.0000E+00                                 2013200200520 
 1.5520E-05 1.0356E+02 6.5000E+00                                 2013200200521 
 1.5554E-05 1.0568E+02 6.5000E+00                                 2013200200522 
 1.5588E-05 8.9380E+01 6.0000E+00                                 2013200200523 
 1.5622E-05 9.4140E+01 6.0000E+00                                 2013200200524 
 1.5656E-05 1.0151E+02 6.0000E+00                                 2013200200525 
 1.5690E-05 7.8910E+01 5.5000E+00                                 2013200200526 
 1.5724E-05 7.3190E+01 5.0000E+00                                 2013200200527 
 1.5758E-05 6.0390E+01 5.0000E+00                                 2013200200528 
 1.5793E-05 7.5610E+01 5.0000E+00                                 2013200200529 
 1.5827E-05 6.0600E+01 5.0000E+00                                 2013200200530 
 1.5862E-05 4.9730E+01 4.5000E+00                                 2013200200531 
 1.5897E-05 5.3010E+01 4.5000E+00                                 2013200200532 
 1.5932E-05 4.1070E+01 4.0000E+00                                 2013200200533 
 1.5967E-05 4.2490E+01 4.0000E+00                                 2013200200534 
 1.6037E-05 3.1050E+01 2.0000E+00                                 2013200200535 
 1.6143E-05 3.0800E+01 2.0000E+00                                 2013200200536 
 1.6251E-05 2.0530E+01 1.5000E+00                                 2013200200537 
 1.6359E-05 2.1660E+01 1.5000E+00                                 2013200200538 
 1.6469E-05 1.8790E+01 1.5000E+00                                 2013200200539 
 1.6580E-05 1.7020E+01 1.5000E+00                                 2013200200540 
 1.6692E-05 1.6110E+01 1.5000E+00                                 2013200200541 
 1.6805E-05 1.3760E+01 1.5000E+00                                 2013200200542 
 1.6919E-05 1.5740E+01 1.5000E+00                                 2013200200543 
 1.7034E-05 1.6260E+01 1.5000E+00                                 2013200200544 
 1.7150E-05 2.2680E+01 1.5000E+00                                 2013200200545 
 1.7229E-05 2.8160E+01 3.0000E+00                                 2013200200546 
 1.7268E-05 4.0470E+01 4.0000E+00                                 2013200200547 
 1.7308E-05 5.6270E+01 4.5000E+00                                 2013200200548 
 1.7347E-05 6.8150E+01 5.0000E+00                                 2013200200549 
 1.7387E-05 1.0951E+02 6.0000E+00                                 2013200200550 
 1.7427E-05 1.7144E+02 8.0000E+00                                 2013200200551 
 1.7467E-05 2.3319E+02 9.0000E+00                                 2013200200552 
 1.7507E-05 3.2379E+02 1.1000E+01                                 2013200200553 
 1.7547E-05 3.9316E+02 1.2000E+01                                 2013200200554 
 1.7588E-05 4.2430E+02 1.3000E+01                                 2013200200555 
 1.7628E-05 4.1426E+02 1.3000E+01                                 2013200200556 
 1.7669E-05 3.6947E+02 1.2000E+01                                 2013200200557 
 1.7710E-05 2.6719E+02 1.0000E+01                                 2013200200558 
 1.7751E-05 1.9711E+02 8.0000E+00                                 2013200200559 
 1.7792E-05 1.2136E+02 7.0000E+00                                 2013200200560 
 1.7834E-05 7.7980E+01 5.0000E+00                                 2013200200561 
 1.7875E-05 4.4050E+01 4.0000E+00                                 2013200200562 
 1.7917E-05 3.0540E+01 3.0000E+00                                 2013200200563 
 1.7958E-05 1.7420E+01 2.5000E+00                                 2013200200564 
 1.8000E-05 1.4990E+01 2.5000E+00                                 2013200200565 
 1.8084E-05 8.4400E+00 1.0000E+00                                 2013200200566 
 1.8212E-05 5.5600E+00 9.0000E-01                                 2013200200567 
 1.8341E-05 4.8500E+00 8.0000E-01                                 2013200200568 
 1.8471E-05 4.2700E+00 8.0000E-01                                 2013200200569 
 1.8602E-05 3.5700E+00 7.0000E-01                                 2013200200570 
 1.8735E-05 3.7800E+00 7.0000E-01                                 2013200200571 
 1.8870E-05 2.8700E+00 6.0000E-01                                 2013200200572 
 1.9006E-05 3.5200E+00 7.0000E-01                                 2013200200573 
 1.9143E-05 2.6300E+00 6.0000E-01                                 2013200200574 
 1.9282E-05 3.1600E+00 7.0000E-01                                 2013200200575 
 1.9422E-05 2.6000E+00 6.0000E-01                                 2013200200576 
 1.9564E-05 1.9400E+00 5.0000E-01                                 2013200200577 
 1.9707E-05 1.7100E+00 5.0000E-01                                 2013200200578 
 1.9852E-05 2.3400E+00 6.0000E-01                                 2013200200579 
 1.9999E-05 2.2300E+00 6.0000E-01                                 2013200200580 
 2.0147E-05 1.3600E+00 5.0000E-01                                 2013200200581 
ENDDATA            562          0                                 2013200200582 
ENDSUBENT          581          0                                 2013200299999 
SUBENT        20132003   19831102                             00002013200300001 
BIB                  5          7                                 2013200300002 
REACTION   (94-PU-239(N,F),,RI)                                   2013200300003 
PART-DET   (FF)       FISSION FRAGMENTS.                          2013200300004 
STATUS     .PUBLISHED IN TABLE 4 AND ON P.300 OF                  2013200300005 
            J.NUCL.EN.,26(1972)293.                               2013200300006 
HISTORY    (720825C)                                              2013200300007 
           (730309E)                                              2013200300008 
ERR-ANALYS .NO INFORMATION GIVEN.                                 2013200300009 
ENDBIB               7          0                                 2013200300010 
NOCOMMON             0          0                                 2013200300011 
DATA                 3          6                                 2013200300012 
EN-MAX     EN-MIN     DATA                                        2013200300013 
MEV        MEV        B                                           2013200300014 
 9.0000E-06 6.0000E-06 2.3150E+01                                 2013200300015 
 1.2600E-05 9.0000E-06 4.5100E+01                                 2013200300016 
 2.0000E-05 9.0000E-06 8.0310E+01                                 2013200300017 
 2.0000E-05 1.2600E-05 3.5210E+01                                 2013200300018 
 2.4700E-05 2.0000E-05 1.0050E+01                                 2013200300019 
 3.0000E-05 2.4700E-05 3.8400E+00                                 2013200300020 
ENDDATA              8          0                                 2013200300021 
ENDSUBENT           20          0                                 2013200399999 
SUBENT        20132004   19831102                             00002013200400001 
BIB                  6         13                                 2013200400002 
REACTION   (94-PU-239(N,F),,ARE)                                  2013200400003 
PART-DET   (FF)       FISSION FRAGMENTS.                          2013200400004 
FLAG       (1.)       VALUE AND INTEGRAL BOUNDARIES RECOMMENDED.  2013200400005 
STATUS     .PUBLISHED IN TABLE 2, AND ON PAGE 298 OF              2013200400006 
            J.NUCL.ENERGY, 26(1972)293.                           2013200400007 
           (DEP,20132002) INTEGRATION OF FISSION CROSS-SECTION.   2013200400008 
HISTORY    (720828C)                                              2013200400009 
           (730309E)                                              2013200400010 
ERR-ANALYS .AS FAR AS GIVEN THE ERRORS INCLUDE ERRORS IN          2013200400011 
            NORMALIZATION,                                        2013200400012 
            COUNT STATISTICS,                                     2013200400013 
            BACKGROUND SUBTRACTION AND                            2013200400014 
            FITTING OF THE NEUTRON SPECTRUM.                      2013200400015 
ENDBIB              13          0                                 2013200400016 
NOCOMMON             0          0                                 2013200400017 
DATA                 5          6                                 2013200400018 
EN-MAX     EN-MIN     DATA       DATA-ERR   FLAG                  2013200400019 
MEV        MEV        B*EV       B*EV       NO-DIM                2013200400020 
 9.0000E-06 6.0000E-06 1.7970E+02                                 2013200400021 
 1.2600E-05 9.0000E-06 5.0280E+02 5.0000E+00 1.0000E+00           2013200400022 
 2.0000E-05 9.0000E-06 1.0466E+03 1.0400E+01 1.0000E+00           2013200400023 
 2.0000E-05 1.2600E-05 5.4380E+02                                 2013200400024 
 2.4700E-05 2.0000E-05 2.2320E+02                                 2013200400025 
 3.0000E-05 2.4700E-05 1.0030E+02                                 2013200400026 
ENDDATA              8          0                                 2013200400027 
ENDSUBENT           26          0                                 2013200499999 
ENDENTRY             4          0                                 2013299999999 
