ENTRY            20146   19831102                             00002014600000001 
SUBENT        20146001   19831102                             00002014600100001 
BIB                 15         43                                 2014600100002 
INSTITUTE  (2FR SAC)                                              2014600100003 
REFERENCE  (J,NP/A,143,130,7003)   RESONANCE PARAMETERS.          2014600100004 
            FOR RH SIG(TOT) SEE PRIV.COMM. RIBON 1961-1966        2014600100005 
            (ENTRY 20148).                                        2014600100006 
           ((T,RIBON,6912)=(R,CEA-N-1149,6912)) RH EXP.DETAILS,   2014600100007 
            RES.PARS SAME AS NP/A,143,130.                        2014600100008 
           (C,65ANTWERP,,(165),565,6507)   ABSTRACT, SEE EANDC-50.2014600100009 
           (R,EANDC-50,2,(165),6507)   RES.PARS. UNTIL 760 EV.    2014600100010 
           (J,CR,254,2546,6204) STRENGTH FUNCTION, UNTIL 370 EV.  2014600100011 
            SUPERSEDED.                                           2014600100012 
AUTHOR     (P.RIBON, J.GIRARD, J.TROCHON)                         2014600100013 
TITLE      -STATISTICAL PROPERTIES OF 45-RH-104 LEVEL PARAMETERS  2014600100014 
            (IN FRENCH).-                                         2014600100015 
FACILITY   (LINAC)    45 MEV SACLAY ELECTRON LINEAR ACCELERATOR.  2014600100016 
INC-SOURCE (PHOTO)    PHOTO-NEUTRONS.                             2014600100017 
SAMPLE     .POWDER FOR TRANSMISSION.                              2014600100018 
           .THIN METAL PLATE FOR SCATTERING.                      2014600100019 
           .TRANSMISSION IN THE ENERGY RANGE OF 627 TO 4216 EV    2014600100020 
            WAS DONE AT 77 DEG-K, OTHERS WERE AT 293 DEG-K.       2014600100021 
METHOD     (TOF  )    TIME OF FLIGHT, FLIGHT PATH = 53.7 AND      2014600100022 
            103.7 M FOR TRANSMISSION, AND 32.7 M FOR SCATTERING.  2014600100023 
DETECTOR   .BORON 1 TO 2 CM THICK AND 6 NA-I CRYSTALS (DIA 125 MM,2014600100024 
            HEIGHT 50 MM) FOR TRANSMISSION.                       2014600100025 
           (SCIN )    BORON LOADED LIQUID SCINTILLATOR FOR        2014600100026 
            SCATTERING.                                           2014600100027 
ANALYSIS   (SHAPE)    SHAPE ANALYSIS ON NORMALIZED TRANSMISSION   2014600100028 
            DATA. FOR DETAILS SEE CEA-N-1149.                     2014600100029 
PART-DET   (N    )    NEUTRONS.                                   2014600100030 
COMMENT    .THE RESONANCE AT 1.257 EV WAS NOT ANALYZED BY AUTHOR  2014600100031 
            BUT USED FOR THE AVERAGED RESONANCE PARAMETERS.       2014600100032 
            THE FOLLOWING VALUES WERE TAKEN FROM B.N.BROCKHOUSE,  2014600100033 
            CAN.J.PHYS.,31(1953)432 AND BNL-325,2ND.ED.,SUPPL.2.  2014600100034 
            RESONANCE PARAMETERS +- ERROR IN PER-CENT,            2014600100035 
             GAMMA     2G*GAMMA(N)  GAMMA(GAMMA)  SPIN  MOMENTUM L2014600100036 
             156.+-3.  0.7800+-1.2    155.+-3.     1.      0.     2014600100037 
           .ONE RESONANCE ENERGY AND 3 GAMMA(TOT) ERROR VALUES    2014600100038 
            WERE MISPRINTED. (ORAL PRIV.COMM. FROM RIBON).        2014600100039 
STATUS     .TAKEN FROM NUCL. PHYS. A143(1970)130.                 2014600100040 
           (APRVD)    APPROVED BY RIBON.                          2014600100041 
HISTORY    (711027C)                                              2014600100042 
           (730517E)                                              2014600100043 
ERR-ANALYS .SYSTEMATIC ERRORS WERE EXTENSIVILY DISCUSSED IN       2014600100044 
            CEA-N-1149.                                           2014600100045 
ENDBIB              43          0                                 2014600100046 
NOCOMMON             0          0                                 2014600100047 
ENDSUBENT           46          0                                 2014600199999 
SUBENT        20146002   19831102                             00002014600200001 
BIB                  3          8                                 2014600200002 
REACTION   (45-RH-103(N,G),,WID)                                  2014600200003 
FLAG       (1.)       STUDY WAS DIFFICULT OR IMPOSSIBLE BECAUSE   2014600200004 
            OF THE PRESENCE OF A NEAR-BY RESONANCE.               2014600200005 
           (2.)       RESONANCE LEVEL CAN BE DOUBLE BECAUSE THE   2014600200006 
            (GAMMA-WIDTH) IS VERY LARGE.                          2014600200007 
           (3.)       THE VALUE OF (GAMMA-WIDTH) IS PROBABLE.     2014600200008 
HISTORY    (711027C)                                              2014600200009 
           (730517E)                                              2014600200010 
ENDBIB               8          0                                 2014600200011 
NOCOMMON             0          0                                 2014600200012 
DATA                 4        123                                 2014600200013 
EN-RES     DATA       DATA-ERR   FLAG                             2014600200014 
EV         MILLI-EV   PER-CENT   NO-DIM                           2014600200015 
 3.4410E+01 1.5100E+02 8.0000E+00                                 2014600200016 
 4.6850E+01 1.7400E+02 7.0000E+00                                 2014600200017 
 6.8340E+01 1.6700E+02 5.0000E+00                                 2014600200018 
 8.3540E+01 1.5700E+02 5.0000E+01                                 2014600200019 
 9.5780E+01 1.6600E+02 6.0000E+00                                 2014600200020 
 9.8820E+01 1.7800E+02 1.1000E+01                                 2014600200021 
 1.0888E+02 1.0000E+02 8.0000E+01                                 2014600200022 
 1.1088E+02 1.6900E+02 8.0000E+00 1.0000E+00                      2014600200023 
 1.1408E+02 1.7500E+02 1.1000E+01                                 2014600200024 
 1.2562E+02 1.6800E+02 3.0000E+00                                 2014600200025 
 1.5431E+02 1.9100E+02 4.0000E+00                                 2014600200026 
 1.7943E+02 1.7400E+02 1.2000E+01                                 2014600200027 
 1.8723E+02 1.7200E+02 4.0000E+00                                 2014600200028 
 1.9983E+02 6.0000E+02 5.0000E+01 2.0000E+00                      2014600200029 
 2.0515E+02 1.8000E+02 6.0000E+01                                 2014600200030 
 2.5404E+02 1.7800E+02 7.0000E+00                                 2014600200031 
 2.6328E+02 2.1800E+02 2.5000E+01 1.0000E+00                      2014600200032 
 2.7240E+02 1.7400E+02 7.0000E+00                                 2014600200033 
 2.9006E+02 1.5900E+02 6.0000E+00                                 2014600200034 
 3.1276E+02 2.2000E+02 5.5000E+01                                 2014600200035 
 3.1988E+02 1.7700E+02 5.0000E+00                                 2014600200036 
 3.2776E+02 1.8400E+02 3.5000E+01                                 2014600200037 
 3.6278E+02 1.0400E+02 9.1000E+01                                 2014600200038 
 3.6655E+02 1.3200E+02 2.1000E+01                                 2014600200039 
 3.7428E+02 1.6400E+02 5.0000E+01                                 2014600200040 
 3.8894E+02 1.3000E+02 8.0000E+01                                 2014600200041 
 4.0648E+02 1.8300E+02 7.0000E+00                                 2014600200042 
 4.3574E+02 1.9400E+02 1.0000E+01                                 2014600200043 
 4.5034E+02 1.4500E+02 3.0000E+01                                 2014600200044 
 4.7315E+02 7.8000E+01 9.2000E+01 2.0000E+00                      2014600200045 
 4.8681E+02 3.1000E+01 9.9000E+01 1.0000E+00                      2014600200046 
 4.9242E+02 1.6100E+02 3.0000E+01                                 2014600200047 
 5.0515E+02 8.9000E+01 9.6000E+01                                 2014600200048 
 5.2644E+02 1.0900E+02 8.1000E+01                                 2014600200049 
 5.5579E+02 1.7400E+02 7.0000E+00                                 2014600200050 
 5.8207E+02 1.5100E+02 2.6000E+01                                 2014600200051 
 6.0520E+02 9.6000E+01 8.3000E+01 1.0000E+00                      2014600200052 
 6.2112E+02 3.8000E+02 3.1000E+01 2.0000E+00                      2014600200053 
 6.4662E+02 1.6400E+02 1.9000E+01                                 2014600200054 
 6.6390E+02 1.8400E+02 2.5000E+01                                 2014600200055 
 6.7693E+02 1.2700E+02 6.2000E+01                                 2014600200056 
 6.8382E+02 1.0900E+02 5.8000E+01                                 2014600200057 
 6.9246E+02 1.6000E+02 2.4000E+01                                 2014600200058 
 7.0233E+02 1.8300E+02 1.2000E+01                                 2014600200059 
 7.6015E+02 9.5000E+01 9.9000E+01                                 2014600200060 
 7.8316E+02 1.8700E+02 1.8000E+01 3.0000E+00                      2014600200061 
 7.9708E+02 2.6200E+02 4.0000E+01                                 2014600200062 
 8.3136E+02 1.9200E+02 6.1000E+01                                 2014600200063 
 8.4577E+02 1.7000E+02 1.1000E+01                                 2014600200064 
 8.9558E+02 1.2900E+02 6.3000E+01                                 2014600200065 
 9.1449E+02 1.4900E+02 2.0000E+01                                 2014600200066 
 9.3004E+02 1.4800E+02 1.6000E+01                                 2014600200067 
 9.5571E+02 2.0400E+02 2.5000E+01                                 2014600200068 
 1.0250E+03 1.8600E+02 8.2000E+01                                 2014600200069 
 1.0771E+03 1.7300E+02 4.4000E+01                                 2014600200070 
 1.1110E+03 1.5700E+02 2.6000E+01 3.0000E+00                      2014600200071 
 1.1549E+03 2.4300E+02 1.8000E+01                                 2014600200072 
 1.1904E+03 1.7700E+02 3.0000E+01 3.0000E+00                      2014600200073 
 1.1967E+03 2.2400E+02 3.0000E+01                                 2014600200074 
 1.2457E+03 1.7200E+02 8.3000E+01                                 2014600200075 
 1.2724E+03 1.8500E+02 1.5000E+01                                 2014600200076 
 1.3069E+03 1.5400E+02 2.0000E+01                                 2014600200077 
 1.3260E+03 1.7300E+02 3.2000E+01 3.0000E+00                      2014600200078 
 1.3655E+03 1.8400E+02 2.5000E+01                                 2014600200079 
 1.4080E+03 2.3300E+02 4.0000E+01 3.0000E+00                      2014600200080 
 1.4337E+03 8.4000E+01 9.9000E+01                                 2014600200081 
 1.4871E+03 1.5600E+02 9.0000E+01                                 2014600200082 
 1.5319E+03 1.8500E+02 9.7000E+01                                 2014600200083 
 1.5440E+03 1.2200E+02 5.0000E+01                                 2014600200084 
 1.5616E+03 1.0900E+02 9.9000E+01                                 2014600200085 
 1.5677E+03 1.3800E+02 3.0000E+01                                 2014600200086 
 1.6202E+03 1.8700E+02 2.0000E+01                                 2014600200087 
 1.6714E+03 8.0000E+01 8.0000E+01                                 2014600200088 
 1.6976E+03 2.7900E+02 1.4000E+01                                 2014600200089 
 1.7370E+03 1.2300E+02 9.9000E+01                                 2014600200090 
 1.7662E+03 1.7300E+02 7.7000E+01                                 2014600200091 
 1.7963E+03 1.9500E+02 3.6000E+01                                 2014600200092 
 1.8208E+03 3.1600E+02 1.7000E+01 2.0000E+00                      2014600200093 
 1.8434E+03 6.0000E+01 9.9000E+01                                 2014600200094 
 1.9051E+03 1.4900E+02 9.5000E+01                                 2014600200095 
 1.9829E+03 2.8500E+02 3.0000E+01                                 2014600200096 
 2.0102E+03 9.9000E+01 9.9000E+01                                 2014600200097 
 2.0602E+03 2.4400E+02 3.8000E+01                                 2014600200098 
 2.1024E+03 1.6400E+02 9.9000E+01                                 2014600200099 
 2.1158E+03 1.1000E+02 7.5000E+01                                 2014600200100 
 2.1798E+03 5.7000E+01 9.9000E+01                                 2014600200101 
 2.1952E+03 1.3900E+02 5.0000E+01                                 2014600200102 
 2.2602E+03 2.6100E+02 5.7000E+01 3.0000E+00                      2014600200103 
 2.2967E+03 2.7300E+02 2.2000E+01                                 2014600200104 
 2.3158E+03 1.7100E+02 9.8000E+01                                 2014600200105 
 2.3331E+03 1.1780E+03 2.7000E+01 2.0000E+00                      2014600200106 
 2.3800E+03 1.9000E+02 9.5000E+01                                 2014600200107 
 2.4101E+03 5.0700E+02 9.5000E+01                                 2014600200108 
 2.4168E+03 9.8000E+01 9.8000E+01                                 2014600200109 
 2.4341E+03 8.1000E+02 3.3000E+01 2.0000E+00                      2014600200110 
 2.4614E+03 2.7300E+02 3.2000E+01                                 2014600200111 
 2.5968E+03 4.5400E+02 9.9000E+01                                 2014600200112 
 2.6060E+03 1.5700E+02 5.5000E+01                                 2014600200113 
 2.6304E+03 1.9400E+02 5.5000E+01                                 2014600200114 
 2.6689E+03 1.8160E+03 4.7000E+01 2.0000E+00                      2014600200115 
 2.7217E+03 1.6900E+02 9.9000E+01                                 2014600200116 
 2.7933E+03 4.3000E+01 9.9000E+01                                 2014600200117 
 2.8581E+03 2.8200E+02 9.5000E+01                                 2014600200118 
 2.8817E+03 3.1000E+02 9.8000E+01                                 2014600200119 
 2.9528E+03 2.2100E+03 3.6000E+01 2.0000E+00                      2014600200120 
 2.9988E+03 1.6000E+02 9.5000E+01                                 2014600200121 
 3.0304E+03 2.8500E+02 4.8000E+01                                 2014600200122 
 3.0843E+03 1.0700E+02 9.5000E+01                                 2014600200123 
 3.1316E+03 2.5700E+02 4.0000E+01                                 2014600200124 
 3.1686E+03 1.6100E+02 9.9000E+01                                 2014600200125 
 3.2729E+03 3.0000E+02 9.0000E+01                                 2014600200126 
 3.3050E+03 3.9400E+02 7.8000E+01 3.0000E+00                      2014600200127 
 3.3962E+03 2.2000E+02 9.0000E+01                                 2014600200128 
 3.4920E+03 2.3400E+02 9.0000E+01                                 2014600200129 
 3.5125E+03 2.3700E+02 5.0000E+01                                 2014600200130 
 3.5537E+03 2.0700E+02 5.5000E+01                                 2014600200131 
 3.5972E+03 3.0500E+02 7.3000E+01 3.0000E+00                      2014600200132 
 3.6462E+03 5.2000E+01 9.9000E+01                                 2014600200133 
 3.6875E+03 8.0000E+01 9.9000E+01                                 2014600200134 
 3.8538E+03 9.6000E+02 6.3000E+01 3.0000E+00                      2014600200135 
 4.0594E+03 1.5400E+03 4.2000E+01 3.0000E+00                      2014600200136 
 4.0799E+03 3.6000E+01 9.9000E+01                                 2014600200137 
 4.1403E+03 3.0000E+01 9.9000E+01                                 2014600200138 
ENDDATA            125          0                                 2014600200139 
ENDSUBENT          138          0                                 2014600299999 
SUBENT        20146003   19831102                             00002014600300001 
BIB                  3          4                                 2014600300002 
REACTION   (45-RH-103(N,G),,WID,,AV)                              2014600300003 
ANALYSIS   .FOR 27 RESONANCES WITH ERRORS LESS THAN 20 PER-CENT.  2014600300004 
HISTORY    (711027C)                                              2014600300005 
           (730517E)                                              2014600300006 
ENDBIB               4          0                                 2014600300007 
NOCOMMON             0          0                                 2014600300008 
DATA                 4          1                                 2014600300009 
EN-MAX     EN-MIN     DATA       DATA-ERR                         2014600300010 
MEV        MEV        MILLI-EV   MILLI-EV                         2014600300011 
 4.1400E-03 1.2000E-06 1.7100E+02 3.0000E+00                      2014600300012 
ENDDATA              3          0                                 2014600300013 
ENDSUBENT           12          0                                 2014600399999 
SUBENT        20146004   19831102                             00002014600400001 
BIB                  3          7                                 2014600400002 
REACTION   (45-RH-103(N,EL),,WID,,2G)                             2014600400003 
FLAG       (1.)       STUDY WAS DIFFICULT OR IMPOSSIBLE BECAUSE   2014600400004 
            OF THE PRESENCE OF A NEAR-BY RESONANCE.               2014600400005 
           (2.)       RESONANCE LEVEL CAN BE DOUBLE BECAUSE THE   2014600400006 
            (GAMMA-WIDTH) IS VERY LARGE.                          2014600400007 
HISTORY    (711027C)                                              2014600400008 
           (730517E)                                              2014600400009 
ENDBIB               7          0                                 2014600400010 
NOCOMMON             0          0                                 2014600400011 
DATA                 4        273                                 2014600400012 
EN-RES     DATA       DATA-ERR   FLAG                             2014600400013 
EV         MILLI-EV   PER-CENT   NO-DIM                           2014600400014 
 3.4410E+01 2.3800E-02 2.0000E+00                                 2014600400015 
 4.4490E+01 5.8000E-03 1.0000E+01                                 2014600400016 
 4.6850E+01 7.6000E-01 6.0000E+00                                 2014600400017 
 5.1850E+01 2.0000E-03 6.0000E+01                                 2014600400018 
 6.8340E+01 2.9600E-01 2.0000E+00                                 2014600400019 
 8.3540E+01 1.5900E-02 1.2000E+01                                 2014600400020 
 9.5780E+01 3.6200E+00 4.0000E+00                                 2014600400021 
 9.8820E+01 1.0740E-01 3.5000E+00                                 2014600400022 
 1.0888E+02 1.7000E-02 1.6000E+01                                 2014600400023 
 1.1088E+02 2.5300E-01 2.6000E+00 1.0000E+00                      2014600400024 
 1.1408E+02 1.6600E-01 3.5000E+00                                 2014600400025 
 1.2562E+02 1.1100E+01 2.5000E+00                                 2014600400026 
 1.5431E+02 9.8150E+01 1.5000E+00                                 2014600400027 
 1.7943E+02 2.7000E-01 3.0000E+00                                 2014600400028 
 1.8723E+02 5.7500E+01 2.3000E+00                                 2014600400029 
 1.9983E+02 9.5000E-02 1.3000E+01 2.0000E+00                      2014600400030 
 2.0515E+02 1.5000E-01 6.0000E+00                                 2014600400031 
 2.5137E+02 2.3000E-01 1.0000E+01 1.0000E+00                      2014600400032 
 2.5404E+02 5.3000E+01 2.0000E+00                                 2014600400033 
 2.6328E+02 2.0200E+00 6.0000E+00 1.0000E+00                      2014600400034 
 2.6438E+02 8.2000E-01 8.0000E+00 1.0000E+00                      2014600400035 
 2.7240E+02 8.8700E+01 2.0000E+00                                 2014600400036 
 2.9006E+02 2.9100E+01 2.4000E+00                                 2014600400037 
 3.1276E+02 2.9000E-01 1.0000E+01                                 2014600400038 
 3.1646E+02 6.0000E-02 3.5000E+01 1.0000E+00                      2014600400039 
 3.1988E+02 1.4000E+02 2.0000E+00                                 2014600400040 
 3.2179E+02 1.9500E+00 2.2000E+01 1.0000E+00                      2014600400041 
 3.2776E+02 1.1700E+00 6.0000E+00                                 2014600400042 
 3.5413E+02 1.8200E-01 1.4000E+01                                 2014600400043 
 3.6278E+02 6.3000E-01 5.5000E+00                                 2014600400044 
 3.6655E+02 3.3000E+00 4.0000E+00                                 2014600400045 
 3.7428E+02 8.0000E-01 6.5000E+00                                 2014600400046 
 3.7670E+02 2.5000E-01 1.4000E+01 1.0000E+00                      2014600400047 
 3.8894E+02 4.4000E-01 9.0000E+00                                 2014600400048 
 4.0648E+02 1.4900E+01 3.0000E+00                                 2014600400049 
 4.2795E+02 1.8500E-01 1.4000E+01                                 2014600400050 
 4.3308E+02 2.0800E+00 1.3000E+01 1.0000E+00                      2014600400051 
 4.3574E+02 3.0800E+02 2.0000E+00                                 2014600400052 
 4.4427E+02 4.6000E-01 1.6000E+01                                 2014600400053 
 4.4752E+02 2.7000E-01 2.1000E+01                                 2014600400054 
 4.5034E+02 6.2900E+00 7.0000E+00                                 2014600400055 
 4.7315E+02 1.8000E+00 6.0000E+00 2.0000E+00                      2014600400056 
 4.8681E+02 1.9000E+00 5.5000E+00 1.0000E+00                      2014600400057 
 4.8956E+02 3.1000E-01 1.5000E+01                                 2014600400058 
 4.9242E+02 4.5500E+00 4.5000E+00                                 2014600400059 
 5.0515E+02 8.8000E-01 1.0000E+01                                 2014600400060 
 5.2644E+02 1.2300E+00 6.5000E+00                                 2014600400061 
 5.4725E+02 1.7000E-01 3.0000E+01                                 2014600400062 
 5.5579E+02 1.4070E+02 2.3000E+00                                 2014600400063 
 5.8207E+02 4.4500E+00 5.0000E+00                                 2014600400064 
 6.0294E+02 6.0000E-01 1.5000E+01                                 2014600400065 
 6.0520E+02 3.9500E+00 5.0000E+00 1.0000E+00                      2014600400066 
 6.0810E+02 3.1000E-01 2.2000E+01                                 2014600400067 
 6.2112E+02 1.0300E+01 7.0000E+00 2.0000E+00                      2014600400068 
 6.4509E+02 1.6700E+00 2.8000E+01 1.0000E+00                      2014600400069 
 6.4662E+02 9.8500E+01 4.0000E+00                                 2014600400070 
 6.6390E+02 1.0700E+01 6.5000E+00                                 2014600400071 
 6.7693E+02 4.0500E+00 6.0000E+00                                 2014600400072 
 6.8382E+02 5.6500E+00 6.0000E+00                                 2014600400073 
 6.9246E+02 1.2820E+02 4.0000E+00                                 2014600400074 
 6.9915E+02 2.5000E+00 2.0000E+01 1.0000E+00                      2014600400075 
 7.0233E+02 4.3000E+02 2.5000E+00                                 2014600400076 
 7.2773E+02 1.4000E+00 1.5000E+01                                 2014600400077 
 7.4217E+02 3.5700E+00 9.0000E+00                                 2014600400078 
 7.5815E+02 1.4100E+00 2.5000E+01                                 2014600400079 
 7.6015E+02 5.0000E+00 1.2000E+01                                 2014600400080 
 7.8316E+02 3.1000E+01 5.5000E+00                                 2014600400081 
 7.9708E+02 5.8200E+00 2.0000E+01                                 2014600400082 
 8.2810E+02 3.5000E-01 5.0000E+01                                 2014600400083 
 8.3136E+02 4.7600E+00 8.0000E+00                                 2014600400084 
 8.4577E+02 2.3000E+02 3.5000E+00                                 2014600400085 
 8.6871E+02 1.0400E+00 2.0000E+01                                 2014600400086 
 8.8604E+02 9.3300E-01 2.0000E+01                                 2014600400087 
 8.9558E+02 1.3300E+01 1.1000E+01                                 2014600400088 
 9.1449E+02 7.4500E+01 5.0000E+00                                 2014600400089 
 9.3004E+02 8.8200E+01 5.0000E+00                                 2014600400090 
 9.5571E+02 3.9200E+01 6.5000E+00                                 2014600400091 
 9.9077E+02 1.3900E+00 2.0000E+01                                 2014600400092 
 1.0020E+03 2.0400E+00 1.5000E+01                                 2014600400093 
 1.0080E+03 5.0000E-01 7.0000E+01                                 2014600400094 
 1.0250E+03 4.4500E+00 1.0000E+01                                 2014600400095 
 1.0284E+03 3.6600E+00 1.0000E+01                                 2014600400096 
 1.0664E+03 6.0000E-01 6.0000E+01                                 2014600400097 
 1.0719E+03 1.2000E+00 2.4000E+01                                 2014600400098 
 1.0771E+03 1.6900E+01 7.0000E+00                                 2014600400099 
 1.0828E+03 1.2800E+00 2.2000E+01                                 2014600400100 
 1.0934E+03 1.0600E+00 2.7000E+01                                 2014600400101 
 1.1000E+03 1.5400E+00 2.0000E+01                                 2014600400102 
 1.1110E+03 4.3400E+01 5.0000E+00                                 2014600400103 
 1.1226E+03 8.0000E-01 4.0000E+01                                 2014600400104 
 1.1520E+03 1.9300E+00 3.0000E+01                                 2014600400105 
 1.1549E+03 1.5300E+02 5.0000E+00                                 2014600400106 
 1.1904E+03 5.0600E+01 6.5000E+00                                 2014600400107 
 1.1967E+03 3.0000E+02 5.5000E+00                                 2014600400108 
 1.2019E+03 5.4500E+00 2.0000E+01                                 2014600400109 
 1.2054E+03 1.7000E+00 3.3000E+01                                 2014600400110 
 1.2124E+03 4.3700E+00 1.4000E+01                                 2014600400111 
 1.2457E+03 7.5000E+00 8.0000E+00                                 2014600400112 
 1.2615E+03 1.7000E+00 2.0000E+01                                 2014600400113 
 1.2724E+03 6.0000E+02 3.5000E+00                                 2014600400114 
 1.2765E+03 5.0000E+00 7.0000E+01 1.0000E+00                      2014600400115 
 1.2788E+03 9.4000E+00 2.0000E+01 1.0000E+00                      2014600400116 
 1.2870E+03 5.0000E+00 1.5000E+01 1.0000E+00                      2014600400117 
 1.3069E+03 1.4250E+02 5.5000E+00                                 2014600400118 
 1.3260E+03 5.7200E+01 7.0000E+00                                 2014600400119 
 1.3551E+03 3.4000E+00 1.7000E+01                                 2014600400120 
 1.3655E+03 8.4000E+01 6.0000E+00                                 2014600400121 
 1.3808E+03 5.0300E+00 1.4000E+01                                 2014600400122 
 1.3936E+03 6.1700E+00 1.2000E+01                                 2014600400123 
 1.4080E+03 4.6800E+01 8.0000E+00                                 2014600400124 
 1.4109E+03 4.8000E+00 2.1000E+01 1.0000E+00                      2014600400125 
 1.4337E+03 1.6300E+01 1.0000E+01                                 2014600400126 
 1.4537E+03 4.9500E+00 1.4000E+01                                 2014600400127 
 1.4645E+03 1.1700E+00 4.0000E+01                                 2014600400128 
 1.4835E+03 1.6300E+01 1.2000E+01                                 2014600400129 
 1.4871E+03 5.7000E+01 1.9000E+01                                 2014600400130 
 1.5136E+03 1.4000E+00 4.0000E+01                                 2014600400131 
 1.5319E+03 1.5100E+01 9.0000E+00                                 2014600400132 
 1.5440E+03 2.5400E+02 5.5000E+00                                 2014600400133 
 1.5526E+03 9.1000E+00 1.4000E+01                                 2014600400134 
 1.5616E+03 2.2800E+01 1.0000E+01                                 2014600400135 
 1.5677E+03 1.9800E+02 6.5000E+00                                 2014600400136 
 1.6143E+03 3.8000E+00 2.0000E+01                                 2014600400137 
 1.6202E+03 4.1400E+02 4.5000E+00                                 2014600400138 
 1.6502E+03 2.4000E+00 3.0000E+01                                 2014600400139 
 1.6656E+03 5.5000E+00 1.7000E+01                                 2014600400140 
 1.6714E+03 8.6500E+01 7.0000E+00                                 2014600400141 
 1.6976E+03 4.3700E+02 4.5000E+00                                 2014600400142 
 1.7125E+03 2.5000E+00 4.0000E+01                                 2014600400143 
 1.7370E+03 2.7300E+01 1.1000E+01                                 2014600400144 
 1.7515E+03 2.1500E+00 4.0000E+01                                 2014600400145 
 1.7662E+03 3.1100E+01 1.0000E+01                                 2014600400146 
 1.7845E+03 5.3000E+00 1.9000E+01                                 2014600400147 
 1.7963E+03 1.2700E+02 8.0000E+00                                 2014600400148 
 1.8060E+03 2.1000E+00 5.0000E+01                                 2014600400149 
 1.8208E+03 6.6800E+02 5.0000E+00 2.0000E+00                      2014600400150 
 1.8320E+03 1.8000E+00 8.0000E+01                                 2014600400151 
 1.8372E+03 8.7000E+00 2.2000E+01                                 2014600400152 
 1.8434E+03 9.0000E+01 1.0000E+01                                 2014600400153 
 1.8492E+03 4.6000E+00 3.0000E+01                                 2014600400154 
 1.8852E+03 3.5000E+00 3.0000E+01                                 2014600400155 
 1.8924E+03 3.6000E+00 3.0000E+01                                 2014600400156 
 1.9051E+03 3.5000E+01 1.1000E+01                                 2014600400157 
 1.9204E+03 7.0000E+00 1.8000E+01                                 2014600400158 
 1.9418E+03 1.2100E+01 1.4000E+01                                 2014600400159 
 1.9542E+03 8.6000E+00 1.6000E+01                                 2014600400160 
 1.9673E+03 5.2000E+00 2.2000E+01                                 2014600400161 
 1.9829E+03 2.6800E+02 5.5000E+00                                 2014600400162 
 1.9967E+03 4.6000E+00 3.0000E+01                                 2014600400163 
 2.0102E+03 2.9000E+01 1.2000E+01                                 2014600400164 
 2.0219E+03 2.9000E+00 4.7000E+01                                 2014600400165 
 2.0345E+03 2.0000E+00 6.0000E+01                                 2014600400166 
 2.0399E+03 7.1000E+00 1.8000E+01                                 2014600400167 
 2.0602E+03 9.8000E+01 7.5000E+00                                 2014600400168 
 2.0825E+03 8.3000E+00 1.7000E+01                                 2014600400169 
 2.0859E+03 3.5100E+01 1.0000E+01                                 2014600400170 
 2.1024E+03 3.9000E+01 1.2000E+01                                 2014600400171 
 2.1158E+03 2.3200E+02 7.0000E+00                                 2014600400172 
 2.1517E+03 5.1000E+00 3.0000E+01                                 2014600400173 
 2.1619E+03 2.7500E+01 1.2000E+01                                 2014600400174 
 2.1798E+03 5.9500E+01 1.3000E+01                                 2014600400175 
 2.1952E+03 1.8200E+02 8.0000E+00                                 2014600400176 
 2.2445E+03 2.0000E+01 1.5000E+01                                 2014600400177 
 2.2490E+03 1.3400E+01 1.8000E+01                                 2014600400178 
 2.2602E+03 7.6500E+01 1.2000E+01                                 2014600400179 
 2.2785E+03 2.6600E+00 5.4000E+01                                 2014600400180 
 2.2967E+03 5.8000E+02 5.5000E+00                                 2014600400181 
 2.3158E+03 7.5700E+01 1.3000E+01                                 2014600400182 
 2.3331E+03 9.1600E+01 1.0000E+01 2.0000E+00                      2014600400183 
 2.3556E+03 1.0900E+01 2.1000E+01                                 2014600400184 
 2.3659E+03 2.8700E+01 1.5000E+01                                 2014600400185 
 2.3800E+03 9.0000E+01 1.3000E+01                                 2014600400186 
 2.3958E+03 1.6300E+01 2.0000E+01                                 2014600400187 
 2.4101E+03 2.8000E+01 1.8000E+01                                 2014600400188 
 2.4168E+03 1.9100E+02 1.1000E+01                                 2014600400189 
 2.4341E+03 9.0000E+01 1.3000E+01 2.0000E+00                      2014600400190 
 2.4614E+03 3.8500E+02 8.5000E+00                                 2014600400191 
 2.4793E+03 3.2000E+00 7.0000E+01                                 2014600400192 
 2.5109E+03 7.1000E+00 3.4000E+01                                 2014600400193 
 2.5168E+03 1.6700E+01 2.1000E+01                                 2014600400194 
 2.5301E+03 1.1000E+01 2.6000E+01                                 2014600400195 
 2.5363E+03 2.4200E+01 1.9000E+01                                 2014600400196 
 2.5495E+03 2.8400E+01 1.8000E+01                                 2014600400197 
 2.5968E+03 4.9200E+01 1.5000E+01                                 2014600400198 
 2.6060E+03 6.1300E+02 8.0000E+00                                 2014600400199 
 2.6304E+03 3.3000E+02 9.0000E+00                                 2014600400200 
 2.6569E+03 2.2800E+01 2.7000E+01                                 2014600400201 
 2.6614E+03 1.9700E+01 2.9000E+01                                 2014600400202 
 2.6689E+03 8.4000E+01 1.2000E+01 2.0000E+00                      2014600400203 
 2.6956E+03 1.3600E+01 2.9000E+01                                 2014600400204 
 2.7015E+03 4.1000E+01 2.0000E+01                                 2014600400205 
 2.7217E+03 1.3700E+02 1.5000E+01                                 2014600400206 
 2.7311E+03 6.2000E+01 2.2000E+01                                 2014600400207 
 2.7408E+03 3.0000E+01 2.3000E+01                                 2014600400208 
 2.7634E+03 1.7000E+01 2.5000E+01                                 2014600400209 
 2.7870E+03 9.0000E+00 4.0000E+01                                 2014600400210 
 2.7933E+03 2.6000E+02 1.0000E+01                                 2014600400211 
 2.8165E+03 3.0000E+00 6.0000E+01                                 2014600400212 
 2.8431E+03 8.8000E+00 4.0000E+01                                 2014600400213 
 2.8504E+03 2.4000E+01 2.4000E+01                                 2014600400214 
 2.8581E+03 1.7400E+02 1.4000E+01                                 2014600400215 
 2.8718E+03 1.0000E+01 6.0000E+01                                 2014600400216 
 2.8817E+03 1.0000E+02 1.6000E+01                                 2014600400217 
 2.8875E+03 1.1000E+01 4.4000E+01                                 2014600400218 
 2.8915E+03 6.0000E+00 6.0000E+01                                 2014600400219 
 2.9024E+03 1.2000E+01 3.3000E+01                                 2014600400220 
 2.9168E+03 1.9000E+01 2.2000E+01                                 2014600400221 
 2.9528E+03 9.0000E+01 1.1000E+01 2.0000E+00                      2014600400222 
 2.9680E+03 2.5000E+01 3.0000E+01 1.0000E+00                      2014600400223 
 2.9730E+03 4.8000E+01 1.9000E+01 1.0000E+00                      2014600400224 
 2.9839E+03 7.9000E+01 3.2000E+01                                 2014600400225 
 2.9988E+03 1.8500E+02 1.3000E+01                                 2014600400226 
 3.0304E+03 2.5500E+02 1.0000E+01                                 2014600400227 
 3.0496E+03 4.3000E+01 1.9000E+01                                 2014600400228 
 3.0637E+03 8.7000E+01 1.7000E+01                                 2014600400229 
 3.0753E+03 1.0000E+01 4.0000E+01                                 2014600400230 
 3.0843E+03 3.4000E+02 1.0000E+01                                 2014600400231 
 3.1130E+03 5.0000E+00 5.0000E+01                                 2014600400232 
 3.1316E+03 5.7500E+02 8.0000E+00                                 2014600400233 
 3.1405E+03 2.2000E+01 3.0000E+01                                 2014600400234 
 3.1562E+03 3.8000E+01 2.4000E+01                                 2014600400235 
 3.1686E+03 9.9000E+01 2.0000E+01                                 2014600400236 
 3.1917E+03 3.0000E+01 2.5000E+01                                 2014600400237 
 3.1983E+03 1.2000E+01 4.0000E+01                                 2014600400238 
 3.2123E+03 7.0000E+00 4.5000E+01                                 2014600400239 
 3.2275E+03 2.0000E+01 2.8000E+01                                 2014600400240 
 3.2577E+03 9.0000E+00 4.5000E+01                                 2014600400241 
 3.2640E+03 1.0000E+01 4.5000E+01                                 2014600400242 
 3.2729E+03 2.9300E+02 1.0000E+01                                 2014600400243 
 3.2862E+03 7.0000E+00 5.0000E+01                                 2014600400244 
 3.3050E+03 1.4100E+02 1.7000E+01                                 2014600400245 
 3.3232E+03 9.5000E+01 1.8000E+01                                 2014600400246 
 3.3300E+03 5.0000E+00 7.0000E+01                                 2014600400247 
 3.3541E+03 7.5000E+01 1.9000E+01                                 2014600400248 
 3.3610E+03 1.4000E+01 3.7000E+01                                 2014600400249 
 3.3962E+03 7.5400E+02 7.0000E+00                                 2014600400250 
 3.4137E+03 2.5000E+01 4.0000E+01                                 2014600400251 
 3.4397E+03 5.0000E+01 2.0000E+01                                 2014600400252 
 3.4610E+03 1.5000E+01 3.5000E+01                                 2014600400253 
 3.4686E+03 3.4000E+01 2.2000E+01                                 2014600400254 
 3.4920E+03 2.3300E+02 1.3000E+01                                 2014600400255 
 3.5125E+03 5.0000E+02 9.0000E+00                                 2014600400256 
 3.5377E+03 9.0000E+00 4.5000E+01                                 2014600400257 
 3.5537E+03 6.2200E+02 8.0000E+00                                 2014600400258 
 3.5972E+03 2.4500E+02 1.4000E+01                                 2014600400259 
 3.6462E+03 3.7400E+02 1.2000E+01                                 2014600400260 
 3.6645E+03 2.2000E+01 4.0000E+01                                 2014600400261 
 3.6875E+03 5.9000E+02 1.0000E+01                                 2014600400262 
 3.7136E+03 4.9000E+01 3.0000E+01                                 2014600400263 
 3.7273E+03 2.0000E+01 4.0000E+01                                 2014600400264 
 3.7524E+03 8.9000E+01 2.3000E+01                                 2014600400265 
 3.7722E+03 6.5000E+01 3.0000E+01                                 2014600400266 
 3.7790E+03 1.0000E+01 8.0000E+01                                 2014600400267 
 3.7867E+03 1.0000E+02 2.3000E+01                                 2014600400268 
 3.7982E+03 2.0000E+01 4.0000E+01                                 2014600400269 
 3.8370E+03 2.0000E+01 4.0000E+01                                 2014600400270 
 3.8538E+03 2.4000E+02 1.6000E+01                                 2014600400271 
 3.8742E+03 1.1000E+02 2.5000E+01                                 2014600400272 
 3.8843E+03 1.3300E+02 2.2000E+01                                 2014600400273 
 3.9089E+03 1.1500E+02 2.9000E+01                                 2014600400274 
 3.9265E+03 2.0000E+01 6.0000E+01                                 2014600400275 
 3.9370E+03 4.0000E+01 5.0000E+01                                 2014600400276 
 3.9471E+03 3.3000E+02 1.8000E+01                                 2014600400277 
 3.9657E+03 7.3000E+01 3.5000E+01                                 2014600400278 
 3.9827E+03 2.0000E+01 6.0000E+01                                 2014600400279 
 3.9940E+03 8.0000E+01 3.5000E+01                                 2014600400280 
 4.0146E+03 6.4000E+01 3.8000E+01                                 2014600400281 
 4.0403E+03 3.0000E+01 4.5000E+01                                 2014600400282 
 4.0594E+03 4.0000E+02 1.8000E+01                                 2014600400283 
 4.0799E+03 9.5000E+02 1.3000E+01                                 2014600400284 
 4.1052E+03 6.1000E+01 4.7000E+01                                 2014600400285 
 4.1275E+03 3.0000E+01 4.5000E+01                                 2014600400286 
 4.1403E+03 1.2000E+03 1.3000E+01                                 2014600400287 
ENDDATA            275          0                                 2014600400288 
ENDSUBENT          287          0                                 2014600499999 
SUBENT        20146005   19831102                             00002014600500001 
BIB                  3          7                                 2014600500002 
REACTION   (45-RH-103(N,TOT),,WID)                                2014600500003 
FLAG       (1.)       STUDY WAS DIFFICULT OR IMPOSSIBLE BECAUSE   2014600500004 
            OF THE PRESENCE OF A NEAR-BY RESONANCE.               2014600500005 
           (2.)       RESONANCE LEVEL CAN BE DOUBLE BECAUSE THE   2014600500006 
            (GAMMA-WIDTH) IS VERY LARGE.                          2014600500007 
HISTORY    (711027C)                                              2014600500008 
           (730517E)                                              2014600500009 
ENDBIB               7          0                                 2014600500010 
NOCOMMON             0          0                                 2014600500011 
DATA                 4        123                                 2014600500012 
EN-RES     DATA       DATA-ERR   FLAG                             2014600500013 
EV         MILLI-EV   PER-CENT   NO-DIM                           2014600500014 
 3.4410E+01 1.5100E+02 8.0000E+00                                 2014600500015 
 4.6850E+01 1.7500E+02 7.0000E+00                                 2014600500016 
 6.8340E+01 1.6700E+02 5.0000E+00                                 2014600500017 
 8.3540E+01 1.5700E+02 5.0000E+01                                 2014600500018 
 9.5780E+01 1.7300E+02 6.0000E+00                                 2014600500019 
 9.8820E+01 1.7800E+02 1.1000E+01                                 2014600500020 
 1.0888E+02 1.0000E+02 8.0000E+01                                 2014600500021 
 1.1088E+02 1.6900E+02 8.0000E+00 1.0000E+00                      2014600500022 
 1.1408E+02 1.7500E+02 1.1000E+01                                 2014600500023 
 1.2562E+02 1.7500E+02 3.0000E+00                                 2014600500024 
 1.5431E+02 3.8800E+02 2.0000E+00                                 2014600500025 
 1.7943E+02 1.7400E+02 1.2000E+01                                 2014600500026 
 1.8723E+02 2.1000E+02 3.0000E+00                                 2014600500027 
 1.9983E+02 6.0000E+02 5.0000E+01 2.0000E+00                      2014600500028 
 2.0515E+02 1.8000E+02 6.0000E+01                                 2014600500029 
 2.5404E+02 2.1300E+02 5.0000E+00                                 2014600500030 
 2.6328E+02 2.2000E+02 2.5000E+01 1.0000E+00                      2014600500031 
 2.7240E+02 2.3300E+02 5.0000E+00                                 2014600500032 
 2.9006E+02 1.7800E+02 5.0000E+00                                 2014600500033 
 3.1276E+02 2.2000E+02 5.5000E+01                                 2014600500034 
 3.1988E+02 2.7500E+02 3.0000E+00                                 2014600500035 
 3.2776E+02 1.8500E+02 3.5000E+01                                 2014600500036 
 3.6278E+02 1.0500E+02 9.0000E+01                                 2014600500037 
 3.6655E+02 1.3500E+02 2.0000E+01                                 2014600500038 
 3.7428E+02 1.6500E+02 5.0000E+01                                 2014600500039 
 3.8894E+02 1.3000E+02 8.0000E+01                                 2014600500040 
 4.0648E+02 1.9300E+02 6.0000E+00                                 2014600500041 
 4.3574E+02 4.0000E+02 4.0000E+00                                 2014600500042 
 4.5034E+02 1.5100E+02 2.9000E+01                                 2014600500043 
 4.7315E+02 8.0000E+01 9.0000E+01 2.0000E+00                      2014600500044 
 4.8681E+02 3.3000E+01 9.5000E+01 1.0000E+00                      2014600500045 
 4.9242E+02 1.6600E+02 2.9000E+01                                 2014600500046 
 5.0515E+02 9.0000E+01 9.5000E+01                                 2014600500047 
 5.2644E+02 1.1000E+02 8.0000E+01                                 2014600500048 
 5.5579E+02 2.6800E+02 4.0000E+00                                 2014600500049 
 5.8207E+02 1.5500E+02 2.5000E+01                                 2014600500050 
 6.0520E+02 1.0000E+02 8.0000E+01 1.0000E+00                      2014600500051 
 6.2112E+02 3.9000E+02 3.0000E+01 2.0000E+00                      2014600500052 
 6.4662E+02 2.3000E+02 1.2000E+01                                 2014600500053 
 6.6390E+02 1.9500E+02 2.4000E+01                                 2014600500054 
 6.7693E+02 1.3000E+02 6.0000E+01                                 2014600500055 
 6.8382E+02 1.2000E+02 5.5000E+01                                 2014600500056 
 6.9246E+02 2.4600E+02 1.5000E+01                                 2014600500057 
 7.0233E+02 4.7000E+02 4.0000E+00                                 2014600500058 
 7.6015E+02 1.0000E+02 9.5000E+01                                 2014600500059 
 7.8316E+02 2.1800E+02 1.5000E+01                                 2014600500060 
 7.9708E+02 2.6800E+02 3.9000E+01                                 2014600500061 
 8.3136E+02 1.9700E+02 6.0000E+01                                 2014600500062 
 8.4577E+02 3.2300E+02 5.0000E+00                                 2014600500063 
 8.9558E+02 1.4200E+02 5.7000E+01                                 2014600500064 
 9.1449E+02 2.9800E+02 9.0000E+00                                 2014600500065 
 9.3004E+02 2.0700E+02 1.1000E+01                                 2014600500066 
 9.5571E+02 2.8200E+02 1.8000E+01                                 2014600500067 
 1.0250E+03 1.9000E+02 8.0000E+01                                 2014600500068 
 1.0771E+03 1.9000E+02 4.0000E+01                                 2014600500069 
 1.1110E+03 2.0000E+02 2.0000E+01                                 2014600500070 
 1.1549E+03 3.4600E+02 1.2000E+01                                 2014600500071 
 1.1904E+03 2.2800E+02 2.3000E+01                                 2014600500072 
 1.1967E+03 8.2400E+02 7.0000E+00                                 2014600500073 
 1.2457E+03 1.8000E+02 8.0000E+01                                 2014600500074 
 1.2724E+03 6.0000E+02 4.0000E+00                                 2014600500075 
 1.3069E+03 2.4900E+02 1.2000E+01                                 2014600500076 
 1.3260E+03 2.3000E+02 2.4000E+01                                 2014600500077 
 1.3655E+03 2.4000E+02 1.9000E+01                                 2014600500078 
 1.4080E+03 2.8000E+02 3.3000E+01                                 2014600500079 
 1.4337E+03 1.0000E+02 9.5000E+01                                 2014600500080 
 1.4871E+03 2.7000E+02 5.4000E+01                                 2014600500081 
 1.5319E+03 2.0000E+02 9.0000E+01                                 2014600500082 
 1.5440E+03 6.3000E+02 8.0000E+00                                 2014600500083 
 1.5616E+03 1.2500E+02 9.5000E+01                                 2014600500084 
 1.5677E+03 2.7000E+02 1.5000E+01                                 2014600500085 
 1.6202E+03 4.6300E+02 7.0000E+00                                 2014600500086 
 1.6714E+03 2.5300E+02 2.5000E+01                                 2014600500087 
 1.6976E+03 5.7000E+02 6.0000E+00                                 2014600500088 
 1.7370E+03 1.5000E+02 9.0000E+01                                 2014600500089 
 1.7662E+03 2.0400E+02 6.5000E+01                                 2014600500090 
 1.7963E+03 2.8000E+02 2.4000E+01                                 2014600500091 
 1.8208E+03 7.6200E+02 6.0000E+00 2.0000E+00                      2014600500092 
 1.8434E+03 1.2000E+02 7.7000E+01                                 2014600500093 
 1.9051E+03 2.1900E+02 8.0000E+01                                 2014600500094 
 1.9829E+03 8.2100E+02 1.0000E+01                                 2014600500095 
 2.0102E+03 1.2800E+02 9.8000E+01                                 2014600500096 
 2.0602E+03 4.4000E+02 2.1000E+01                                 2014600500097 
 2.1024E+03 2.0300E+02 8.0000E+01                                 2014600500098 
 2.1158E+03 5.7400E+02 1.3000E+01                                 2014600500099 
 2.1798E+03 9.7000E+01 9.5000E+01                                 2014600500100 
 2.1952E+03 2.6000E+02 2.6000E+01                                 2014600500101 
 2.2602E+03 3.3800E+02 4.4000E+01                                 2014600500102 
 2.2967E+03 6.6000E+02 8.0000E+00                                 2014600500103 
 2.3158E+03 3.2200E+02 5.6000E+01                                 2014600500104 
 2.3331E+03 1.2700E+03 2.5000E+01 2.0000E+00                      2014600500105 
 2.3800E+03 2.8000E+02 6.5000E+01                                 2014600500106 
 2.4101E+03 5.3500E+02 9.0000E+01                                 2014600500107 
 2.4168E+03 4.8000E+02 3.5000E+01                                 2014600500108 
 2.4341E+03 9.0000E+02 3.0000E+01 2.0000E+00                      2014600500109 
 2.4614E+03 5.3000E+02 1.5000E+01                                 2014600500110 
 2.5968E+03 5.0400E+02 9.5000E+01                                 2014600500111 
 2.6060E+03 5.6500E+02 1.5000E+01                                 2014600500112 
 2.6304E+03 4.1400E+02 2.5000E+01                                 2014600500113 
 2.6689E+03 1.9000E+03 4.5000E+01 2.0000E+00                      2014600500114 
 2.7217E+03 3.0600E+02 5.7000E+01                                 2014600500115 
 2.7933E+03 2.1600E+02 4.5000E+01                                 2014600500116 
 2.8581E+03 6.3000E+02 4.0000E+01                                 2014600500117 
 2.8817E+03 5.1000E+02 6.0000E+01                                 2014600500118 
 2.9528E+03 2.3000E+03 3.5000E+01 2.0000E+00                      2014600500119 
 2.9988E+03 5.3000E+02 3.6000E+01                                 2014600500120 
 3.0304E+03 4.5500E+02 3.0000E+01                                 2014600500121 
 3.0843E+03 3.3000E+02 3.1000E+01                                 2014600500122 
 3.1316E+03 6.4000E+02 1.5000E+01                                 2014600500123 
 3.1686E+03 2.6000E+02 9.0000E+01                                 2014600500124 
 3.2729E+03 8.8500E+02 2.2000E+01                                 2014600500125 
 3.3050E+03 5.3500E+02 5.7000E+01                                 2014600500126 
 3.3962E+03 1.7300E+03 1.0000E+01                                 2014600500127 
 3.4920E+03 7.0000E+02 3.2000E+01                                 2014600500128 
 3.5125E+03 5.7000E+02 2.0000E+01                                 2014600500129 
 3.5537E+03 6.2000E+02 1.8000E+01                                 2014600500130 
 3.5972E+03 5.5000E+02 4.0000E+01                                 2014600500131 
 3.6462E+03 8.0000E+02 2.7000E+01                                 2014600500132 
 3.6875E+03 1.2600E+03 1.9000E+01                                 2014600500133 
 3.8538E+03 1.2000E+03 5.0000E+01                                 2014600500134 
 4.0594E+03 1.9400E+03 3.3000E+01                                 2014600500135 
 4.0799E+03 6.7000E+02 2.7000E+01                                 2014600500136 
 4.1403E+03 8.3000E+02 2.3000E+01                                 2014600500137 
ENDDATA            125          0                                 2014600500138 
ENDSUBENT          137          0                                 2014600599999 
SUBENT        20146006   19831102                             00002014600600001 
BIB                  3         42                                 2014600600002 
REACTION   (45-RH-103(N,0),,J)                                    2014600600003 
FLAG       (1.)       ASSIGNED BY THE POSSIBLE VALUES OF (GAMMA-  2014600600004 
            WIDTH) IN THE ANALYSIS OF TRANSMISSION DATA.          2014600600005 
           (2.)       PROBABLE. ASSIGNED BY THE POSSIBLE VALUES   2014600600006 
            OF (GAMMA-WIDTH) IN THE ANALYSIS OF TRANSMISSION DATA.2014600600007 
           (3.)       UNCERTAIN. ASSIGNED BY THE POSSIBLE VALUES  2014600600008 
            OF (GAMMA-WIDTH) IN THE ANALYSIS OF TRANSMISSION DATA.2014600600009 
           (4.)       PROBABLE. ASSIGNED BY THE POSSIBLE VALUES   2014600600010 
            OF (GAMMA-WIDTH) IN THE ANALYSIS OF TRANSMISSION DATA 2014600600011 
            AND THE VALUE OF CHI-SQUARE, DEPENDENT ON SUPPOSED    2014600600012 
            INTERFERENCE.                                         2014600600013 
           (5.)       UNCERTAIN. ASSIGNED BY THE POSSIBLE VALUES  2014600600014 
            OF (GAMMA-WIDTH) IN THE ANALYSIS OF TRANSMISSION DATA 2014600600015 
            AND THE VALUE OF CHI-SQUARE, DEPENDENT ON SUPPOSED    2014600600016 
            INTERFERENCE.                                         2014600600017 
           (6.)       ASSIGNED BY THE POSSIBLE VALUES OF (GAMMA-  2014600600018 
            WIDTH) IN THE ANALYSIS OF TRANSMISSION DATA           2014600600019 
            AND BY THE SCATTERING DATA ANALYSIS.                  2014600600020 
           (7.)       PROBABLE. ASSIGNED BY THE POSSIBLE VALUES   2014600600021 
            OF (GAMMA-WIDTH) IN THE ANALYSIS OF TRANSMISSION DATA 2014600600022 
            AND BY THE SCATTERING DATA ANALYSIS.                  2014600600023 
           (8.)       ASSIGNED BY THE POSSIBLE VALUES OF (GAMMA-  2014600600024 
            WIDTH) IN THE ANALYSIS OF TRANSMISSION DATA, BY THE   2014600600025 
            VALUE OF CHI-SQUARE,DEPENDENT ON SUPPOSED INTERFERENCE2014600600026 
            AND BY THE SCATTERING DATA ANALYSIS.                  2014600600027 
           (9.)       ASSIGNED BY THE VALUE OF CHI-SQUARE,        2014600600028 
            DEPENDENT ON SUPPOSED INTERFERENCE                    2014600600029 
            AND BY THE SCATTERING DATA ANALYSIS.                  2014600600030 
           (10.)      PROBABLE.ASSIGNED BY THE VALUE OF CHI-SQUARE2014600600031 
            DEPENDENT ON SUPPOSED INTERFERENCE.                   2014600600032 
           (11.)      ASSIGNED BY ANALYSIS OF SCATTERING DATA.    2014600600033 
           (12.)      PROBABLE. ASSIGNED BY ANALYSIS OF SCATTERING2014600600034 
            DATA.                                                 2014600600035 
           (13.)      UNCERTAIN.ASSIGNED BY ANALYSIS OF SCATTERING2014600600036 
            DATA.                                                 2014600600037 
           (14.).     ASSIGNED BY THE POSSIBLE VALUES OF (GAMMA-  2014600600038 
            WIDTH) IN THE ANALYSIS OF TRANSMISSION DATA AND BY THE2014600600039 
            SCATTERING DATA ANALYSIS.                             2014600600040 
            RESONANCE LEVEL CAN BE DOUBLE BECAUSE THE (GAMMA-     2014600600041 
            WIDTH) IS VERY LARGE.                                 2014600600042 
HISTORY    (711027C)                                              2014600600043 
           (730517E)                                              2014600600044 
ENDBIB              42          0                                 2014600600045 
NOCOMMON             0          0                                 2014600600046 
DATA                 3         64                                 2014600600047 
EN-RES     DATA       FLAG                                        2014600600048 
EV         NO-DIM     NO-DIM                                      2014600600049 
 4.6850E+01 0.0000E+00 1.2000E+01                                 2014600600050 
 9.5780E+01 0.0000E+00 1.1000E+01                                 2014600600051 
 1.2562E+02 1.0000E+00 1.1000E+01                                 2014600600052 
 1.5431E+02 0.0000E+00 6.0000E+00                                 2014600600053 
 1.8723E+02 1.0000E+00 8.0000E+00                                 2014600600054 
 2.5404E+02 1.0000E+00 8.0000E+00                                 2014600600055 
 2.7240E+02 1.0000E+00 8.0000E+00                                 2014600600056 
 2.9006E+02 1.0000E+00 8.0000E+00                                 2014600600057 
 3.1988E+02 1.0000E+00 6.0000E+00                                 2014600600058 
 4.0648E+02 1.0000E+00 9.0000E+00                                 2014600600059 
 4.3574E+02 1.0000E+00 6.0000E+00                                 2014600600060 
 5.5579E+02 1.0000E+00 6.0000E+00                                 2014600600061 
 6.4662E+02 1.0000E+00 8.0000E+00                                 2014600600062 
 6.7693E+02 1.0000E+00 1.0000E+01                                 2014600600063 
 6.8382E+02 0.0000E+00 1.0000E+01                                 2014600600064 
 6.9246E+02 1.0000E+00 8.0000E+00                                 2014600600065 
 7.0233E+02 1.0000E+00 6.0000E+00                                 2014600600066 
 8.4577E+02 1.0000E+00 6.0000E+00                                 2014600600067 
 9.1449E+02 0.0000E+00 6.0000E+00                                 2014600600068 
 9.3004E+02 1.0000E+00 6.0000E+00                                 2014600600069 
 9.5571E+02 0.0000E+00 4.0000E+00                                 2014600600070 
 1.1549E+03 1.0000E+00 8.0000E+00                                 2014600600071 
 1.1967E+03 0.0000E+00 2.0000E+00                                 2014600600072 
 1.2724E+03 1.0000E+00 6.0000E+00                                 2014600600073 
 1.3069E+03 1.0000E+00 1.0000E+00                                 2014600600074 
 1.3655E+03 1.0000E+00 1.1000E+01                                 2014600600075 
 1.4871E+03 0.0000E+00 4.0000E+00                                 2014600600076 
 1.5440E+03 0.0000E+00 8.0000E+00                                 2014600600077 
 1.5616E+03 1.0000E+00 1.0000E+01                                 2014600600078 
 1.5677E+03 1.0000E+00 6.0000E+00                                 2014600600079 
 1.6202E+03 1.0000E+00 6.0000E+00                                 2014600600080 
 1.6714E+03 0.0000E+00 1.2000E+01                                 2014600600081 
 1.6976E+03 1.0000E+00 1.0000E+00                                 2014600600082 
 1.7963E+03 1.0000E+00 8.0000E+00                                 2014600600083 
 1.8208E+03 1.0000E+00 1.4000E+01                                 2014600600084 
 1.8434E+03 1.0000E+00 8.0000E+00                                 2014600600085 
 1.9051E+03 0.0000E+00 1.3000E+01                                 2014600600086 
 1.9829E+03 0.0000E+00 7.0000E+00                                 2014600600087 
 2.0602E+03 0.0000E+00 7.0000E+00                                 2014600600088 
 2.1158E+03 0.0000E+00 7.0000E+00                                 2014600600089 
 2.1798E+03 1.0000E+00 5.0000E+00                                 2014600600090 
 2.1952E+03 1.0000E+00 1.0000E+00                                 2014600600091 
 2.2967E+03 1.0000E+00 6.0000E+00                                 2014600600092 
 2.3158E+03 0.0000E+00 3.0000E+00                                 2014600600093 
 2.4168E+03 0.0000E+00 3.0000E+00                                 2014600600094 
 2.4614E+03 1.0000E+00 1.0000E+00                                 2014600600095 
 2.6060E+03 1.0000E+00 1.0000E+00                                 2014600600096 
 2.6304E+03 1.0000E+00 1.0000E+00                                 2014600600097 
 2.7933E+03 1.0000E+00 1.0000E+00                                 2014600600098 
 2.8581E+03 0.0000E+00 3.0000E+00                                 2014600600099 
 2.8817E+03 0.0000E+00 3.0000E+00                                 2014600600100 
 2.9988E+03 0.0000E+00 3.0000E+00                                 2014600600101 
 3.0304E+03 1.0000E+00 2.0000E+00                                 2014600600102 
 3.0843E+03 1.0000E+00                                            2014600600103 
 3.1316E+03 1.0000E+00                                            2014600600104 
 3.2729E+03 0.0000E+00 3.0000E+00                                 2014600600105 
 3.3962E+03 0.0000E+00 2.0000E+00                                 2014600600106 
 3.4920E+03 0.0000E+00 3.0000E+00                                 2014600600107 
 3.5125E+03 1.0000E+00 1.0000E+00                                 2014600600108 
 3.5537E+03 1.0000E+00 1.0000E+00                                 2014600600109 
 3.6462E+03 0.0000E+00 3.0000E+00                                 2014600600110 
 3.6875E+03 0.0000E+00 3.0000E+00                                 2014600600111 
 4.0799E+03 1.0000E+00 1.0000E+00                                 2014600600112 
 4.1403E+03 1.0000E+00 1.0000E+00                                 2014600600113 
ENDDATA             66          0                                 2014600600114 
ENDSUBENT          113          0                                 2014600699999 
SUBENT        20146007   19831102                             00002014600700001 
BIB                  3         23                                 2014600700002 
REACTION   (45-RH-103(N,0),,L)                                    2014600700003 
FLAG       (1.)       L=0 BECAUSE (2G * N-WIDTH) IS VERY LARGE.   2014600700004 
           (2.)        L  WAS ASSIGNED BY CHI SQUARE METHOD.      2014600700005 
           (3.)       PROBABLE. ASSIGNED BY CHI SQUARE METHOD.    2014600700006 
           (4.)       UNCERTAIN. ASSIGNED BY CHI SQUARE METHOD.   2014600700007 
           (5.)       ASSIGNED BY CHI SQUARE AND RESONANCE SHAPE. 2014600700008 
           (6.)       PROBABLE. BY CHI SQUARE AND RESONANCE SHAPE.2014600700009 
            RESONANCE LEVEL CAN BE DOUBLE BECAUSE THE (GAMMA-     2014600700010 
            WIDTH) IS VERY LARGE.                                 2014600700011 
           (7.)       ASSIGNED BY THE RESONANCE SHAPE.            2014600700012 
           (8.)       UNCERTAIN. ASSIGNED BY THE RESONANCE SHAPE. 2014600700013 
           (9.)       L=1 PROBABLE BECAUSE RESONANCE IS VERY SMALL2014600700014 
           (10.)      L=1 PROBABLE BECAUSE RESONANCE IS VERY SMALL2014600700015 
            RESONANCE LEVEL CAN BE DOUBLE BECAUSE THE (GAMMA-     2014600700016 
            WIDTH) IS VERY LARGE.                                 2014600700017 
           (11.)       L  WAS ASSIGNED BY CHI-SQUARE METHOD.      2014600700018 
            RESONANCE LEVEL CAN BE DOUBLE BECAUSE THE (GAMMA-     2014600700019 
            WIDTH) IS VERY LARGE.                                 2014600700020 
           (12.)       L  WAS ASSIGNED BY CHI-SQUARE METHOD.      2014600700021 
            STUDY WAS DIFFICULT OR IMPOSSIBLE BECAUSE OF THE      2014600700022 
            PRESENCE OF A NEAR-BY RESONANCE.                      2014600700023 
HISTORY    (711027C)                                              2014600700024 
           (730517E)                                              2014600700025 
ENDBIB              23          0                                 2014600700026 
NOCOMMON             0          0                                 2014600700027 
DATA                 3        118                                 2014600700028 
EN-RES     DATA       FLAG                                        2014600700029 
EV         NO-DIM     NO-DIM                                      2014600700030 
 3.4410E+01 1.0000E+00 2.0000E+00                                 2014600700031 
 4.4490E+01 1.0000E+00 9.0000E+00                                 2014600700032 
 4.6850E+01 0.0000E+00                                            2014600700033 
 5.1850E+01 1.0000E+00 9.0000E+00                                 2014600700034 
 6.8340E+01 0.0000E+00 2.0000E+00                                 2014600700035 
 8.3540E+01 1.0000E+00 3.0000E+00                                 2014600700036 
 9.5780E+01 0.0000E+00                                            2014600700037 
 9.8820E+01 1.0000E+00 2.0000E+00                                 2014600700038 
 1.0888E+02 1.0000E+00 9.0000E+00                                 2014600700039 
 1.1408E+02 1.0000E+00 2.0000E+00                                 2014600700040 
 1.2562E+02 0.0000E+00                                            2014600700041 
 1.5431E+02 0.0000E+00                                            2014600700042 
 1.7943E+02 1.0000E+00 2.0000E+00                                 2014600700043 
 1.8723E+02 0.0000E+00                                            2014600700044 
 1.9983E+02 1.0000E+00 1.0000E+01                                 2014600700045 
 2.0515E+02 1.0000E+00 3.0000E+00                                 2014600700046 
 2.5404E+02 0.0000E+00                                            2014600700047 
 2.7240E+02 0.0000E+00                                            2014600700048 
 2.9006E+02 0.0000E+00                                            2014600700049 
 3.1276E+02 1.0000E+00 4.0000E+00                                 2014600700050 
 3.1988E+02 0.0000E+00                                            2014600700051 
 3.2776E+02 0.0000E+00 2.0000E+00                                 2014600700052 
 3.5413E+02 1.0000E+00 9.0000E+00                                 2014600700053 
 3.6278E+02 0.0000E+00 2.0000E+00                                 2014600700054 
 3.6655E+02 1.0000E+00 2.0000E+00                                 2014600700055 
 3.7428E+02 1.0000E+00 3.0000E+00                                 2014600700056 
 3.8894E+02 1.0000E+00 2.0000E+00                                 2014600700057 
 4.0648E+02 0.0000E+00                                            2014600700058 
 4.2795E+02 1.0000E+00 9.0000E+00                                 2014600700059 
 4.3574E+02 0.0000E+00                                            2014600700060 
 4.4427E+02 1.0000E+00 9.0000E+00                                 2014600700061 
 4.4752E+02 1.0000E+00 9.0000E+00                                 2014600700062 
 4.7315E+02 1.0000E+00 1.1000E+01                                 2014600700063 
 4.8681E+02 0.0000E+00 1.2000E+01                                 2014600700064 
 4.8956E+02 1.0000E+00 9.0000E+00                                 2014600700065 
 4.9242E+02 1.0000E+00 2.0000E+00                                 2014600700066 
 5.0515E+02 1.0000E+00 2.0000E+00                                 2014600700067 
 5.2644E+02 1.0000E+00 2.0000E+00                                 2014600700068 
 5.4725E+02 1.0000E+00 9.0000E+00                                 2014600700069 
 5.5579E+02 0.0000E+00                                            2014600700070 
 5.8207E+02 1.0000E+00 2.0000E+00                                 2014600700071 
 6.0294E+02 1.0000E+00 9.0000E+00                                 2014600700072 
 6.0810E+02 1.0000E+00 9.0000E+00                                 2014600700073 
 6.2112E+02 1.0000E+00 6.0000E+00                                 2014600700074 
 6.4662E+02 0.0000E+00                                            2014600700075 
 6.7693E+02 0.0000E+00                                            2014600700076 
 6.8382E+02 0.0000E+00                                            2014600700077 
 6.9246E+02 0.0000E+00                                            2014600700078 
 7.0233E+02 0.0000E+00                                            2014600700079 
 7.8316E+02 0.0000E+00 1.0000E+00                                 2014600700080 
 7.9708E+02 0.0000E+00 7.0000E+00                                 2014600700081 
 8.2810E+02 1.0000E+00 9.0000E+00                                 2014600700082 
 8.4577E+02 0.0000E+00                                            2014600700083 
 8.9558E+02 1.0000E+00 2.0000E+00                                 2014600700084 
 9.1449E+02 0.0000E+00                                            2014600700085 
 9.3004E+02 0.0000E+00                                            2014600700086 
 9.5571E+02 0.0000E+00                                            2014600700087 
 1.0080E+03 1.0000E+00 9.0000E+00                                 2014600700088 
 1.0664E+03 1.0000E+00 9.0000E+00                                 2014600700089 
 1.1110E+03 0.0000E+00                                            2014600700090 
 1.1549E+03 0.0000E+00                                            2014600700091 
 1.1904E+03 0.0000E+00                                            2014600700092 
 1.1967E+03 0.0000E+00                                            2014600700093 
 1.2457E+03 0.0000E+00 7.0000E+00                                 2014600700094 
 1.2724E+03 0.0000E+00                                            2014600700095 
 1.3069E+03 0.0000E+00                                            2014600700096 
 1.3260E+03 0.0000E+00                                            2014600700097 
 1.3655E+03 0.0000E+00                                            2014600700098 
 1.3936E+03 0.0000E+00 8.0000E+00                                 2014600700099 
 1.4080E+03 0.0000E+00 7.0000E+00                                 2014600700100 
 1.4337E+03 0.0000E+00 7.0000E+00                                 2014600700101 
 1.4835E+03 1.0000E+00 5.0000E+00                                 2014600700102 
 1.4871E+03 0.0000E+00                                            2014600700103 
 1.5319E+03 0.0000E+00 7.0000E+00                                 2014600700104 
 1.5440E+03 0.0000E+00                                            2014600700105 
 1.5616E+03 0.0000E+00                                            2014600700106 
 1.5677E+03 0.0000E+00                                            2014600700107 
 1.6202E+03 0.0000E+00                                            2014600700108 
 1.6714E+03 0.0000E+00                                            2014600700109 
 1.6976E+03 0.0000E+00                                            2014600700110 
 1.7370E+03 0.0000E+00 7.0000E+00                                 2014600700111 
 1.7662E+03 0.0000E+00 7.0000E+00                                 2014600700112 
 1.7963E+03 0.0000E+00                                            2014600700113 
 1.8208E+03 0.0000E+00                                            2014600700114 
 1.8434E+03 0.0000E+00                                            2014600700115 
 1.9051E+03 0.0000E+00                                            2014600700116 
 1.9829E+03 0.0000E+00                                            2014600700117 
 2.0102E+03 0.0000E+00 7.0000E+00                                 2014600700118 
 2.0602E+03 0.0000E+00                                            2014600700119 
 2.1158E+03 0.0000E+00                                            2014600700120 
 2.1798E+03 0.0000E+00                                            2014600700121 
 2.1952E+03 0.0000E+00                                            2014600700122 
 2.2602E+03 0.0000E+00                                            2014600700123 
 2.2967E+03 0.0000E+00                                            2014600700124 
 2.3158E+03 0.0000E+00                                            2014600700125 
 2.4168E+03 0.0000E+00                                            2014600700126 
 2.4614E+03 0.0000E+00                                            2014600700127 
 2.6060E+03 0.0000E+00                                            2014600700128 
 2.6304E+03 0.0000E+00                                            2014600700129 
 2.7933E+03 0.0000E+00                                            2014600700130 
 2.8581E+03 0.0000E+00                                            2014600700131 
 2.8817E+03 0.0000E+00                                            2014600700132 
 2.9988E+03 0.0000E+00                                            2014600700133 
 3.0304E+03 0.0000E+00                                            2014600700134 
 3.0843E+03 0.0000E+00                                            2014600700135 
 3.1316E+03 0.0000E+00                                            2014600700136 
 3.2729E+03 0.0000E+00                                            2014600700137 
 3.3050E+03 0.0000E+00                                            2014600700138 
 3.3962E+03 0.0000E+00                                            2014600700139 
 3.4920E+03 0.0000E+00                                            2014600700140 
 3.5125E+03 0.0000E+00                                            2014600700141 
 3.5537E+03 0.0000E+00                                            2014600700142 
 3.5972E+03 0.0000E+00                                            2014600700143 
 3.6462E+03 0.0000E+00                                            2014600700144 
 3.6875E+03 0.0000E+00                                            2014600700145 
 4.0594E+03 0.0000E+00                                            2014600700146 
 4.0799E+03 0.0000E+00                                            2014600700147 
 4.1403E+03 0.0000E+00                                            2014600700148 
ENDDATA            120          0                                 2014600700149 
ENDSUBENT          148          0                                 2014600799999 
SUBENT        20146008   19831102                             00002014600800001 
BIB                  3          5                                 2014600800002 
REACTION   (45-RH-103(N,EL)45-RH-103,,RAD)                        2014600800003 
            EFFECTIVE NUCLEAR RADIUS.                             2014600800004 
ANALYSIS   .FROM THE CONTRIBUTION OF REMOTE RESONANCES.           2014600800005 
HISTORY    (711027C)                                              2014600800006 
           (730517E)                                              2014600800007 
ENDBIB               5          0                                 2014600800008 
NOCOMMON             0          0                                 2014600800009 
DATA                 4          1                                 2014600800010 
EN-MAX     EN-MIN     DATA       DATA-ERR                         2014600800011 
MEV        MEV        FERMI      FERMI                            2014600800012 
 4.0000E-03 0.0000E+00 6.5600E+00 6.0000E-02                      2014600800013 
ENDDATA              3          0                                 2014600800014 
ENDSUBENT           13          0                                 2014600899999 
SUBENT        20146009   19831102                             00002014600900001 
BIB                  3          6                                 2014600900002 
REACTION   (45-RH-103(N,EL),,STF)                                 2014600900003 
ANALYSIS   .OBTAINED BY THE DISTRIBUTION AND BY A HISTOGRAM OF THE2014600900004 
            SUM OF THE REDUCED NEUTRON-WIDTHS.                    2014600900005 
           .FROM 159 RESONANCES.                                  2014600900006 
HISTORY    (711027C)                                              2014600900007 
           (730517E)                                              2014600900008 
ENDBIB               6          0                                 2014600900009 
COMMON               1          3                                 2014600900010 
MOMENTUM L                                                        2014600900011 
NO-DIM                                                            2014600900012 
 0.0000E+00                                                       2014600900013 
ENDCOMMON            3          0                                 2014600900014 
DATA                 5          1                                 2014600900015 
EN-MAX     EN-MIN     DATA       +DATA-ERR  -DATA-ERR             2014600900016 
MEV        MEV        NO-DIM     NO-DIM     NO-DIM                2014600900017 
 4.1400E-03 1.2000E-06 5.4000E-05 7.0000E-06 6.0000E-06           2014600900018 
ENDDATA              3          0                                 2014600900019 
ENDSUBENT           18          0                                 2014600999999 
SUBENT        20146010   19831102                             00002014601000001 
BIB                  3          6                                 2014601000002 
REACTION   (45-RH-103(N,EL),,STF)                                 2014601000003 
            SPIN-DEPENDENT S-WAVE FUNCTION.                       2014601000004 
ANALYSIS   .STRENGTH FUNCTION WAS OBTAINED BY THE DISTRIBUTION OF 2014601000005 
            THE REDUCED NEUTRON-WIDTHS.                           2014601000006 
HISTORY    (711027C)                                              2014601000007 
           (730517E)                                              2014601000008 
ENDBIB               6          0                                 2014601000009 
COMMON               1          3                                 2014601000010 
MOMENTUM L                                                        2014601000011 
NO-DIM                                                            2014601000012 
 0.0000E+00                                                       2014601000013 
ENDCOMMON            3          0                                 2014601000014 
DATA                 6          2                                 2014601000015 
EN-MAX     EN-MIN     SPIN J     DATA       +DATA-ERR  -DATA-ERR  2014601000016 
MEV        MEV        NO-DIM     NO-DIM     NO-DIM     NO-DIM     2014601000017 
 4.1400E-03 1.2000E-06 0.0000E+00 4.2000E-05 1.1000E-05 1.0000E-052014601000018 
 4.1400E-03 1.2000E-06 1.0000E+00 6.3000E-05 1.2000E-05 1.0000E-052014601000019 
ENDDATA              4          0                                 2014601000020 
ENDSUBENT           19          0                                 2014601099999 
SUBENT        20146011   19831102                             00002014601100001 
BIB                  3          6                                 2014601100002 
REACTION   (45-RH-103(N,EL),,STF)                                 2014601100003 
            SPIN-DEPENDENT S-WAVE FUNCTION.                       2014601100004 
ANALYSIS   .STRENGTH FUNCTION WAS OBTAINED BY A HISTOGRAM OF      2014601100005 
            THE SUM OF THE REDUCED NEUTRON WIDTHS.                2014601100006 
HISTORY    (711027C)                                              2014601100007 
           (730517E)                                              2014601100008 
ENDBIB               6          0                                 2014601100009 
COMMON               1          3                                 2014601100010 
MOMENTUM L                                                        2014601100011 
NO-DIM                                                            2014601100012 
 0.0000E+00                                                       2014601100013 
ENDCOMMON            3          0                                 2014601100014 
DATA                 6          2                                 2014601100015 
EN-MAX     EN-MIN     SPIN J     DATA       +DATA-ERR  -DATA-ERR  2014601100016 
MEV        MEV        NO-DIM     NO-DIM     NO-DIM     NO-DIM     2014601100017 
 4.1400E-03 1.2000E-06 0.0000E+00 4.4000E-05 1.2000E-05 1.0000E-052014601100018 
 4.1400E-03 1.2000E-06 1.0000E+00 5.8000E-05 1.0000E-05 1.0000E-052014601100019 
ENDDATA              4          0                                 2014601100020 
ENDSUBENT           19          0                                 2014601199999 
SUBENT        20146012   19831102                             00002014601200001 
BIB                  4          9                                 2014601200002 
REACTION   (45-RH-103(N,EL),,STF)                                 2014601200003 
            P-WAVE STRENGTH FUNCTION FROM ABOUT 65 RESONANCES FOR 2014601200004 
            EACH REGION OF 700 EV.                                2014601200005 
ANALYSIS   .STRENGTH FUNCTION WAS OBTAINED BY A HISTOGRAM OF      2014601200006 
            THE SUM OF THE REDUCED NEUTRON WIDTHS.                2014601200007 
HISTORY    (711027C)                                              2014601200008 
           (730517E)                                              2014601200009 
CORRECTION .CORRECTED FOR MISSING P-WAVE RESONANCES AND FOR       2014601200010 
            POSSIBLY INCLUDED S-WAVE RESONANCES.                  2014601200011 
ENDBIB               9          0                                 2014601200012 
COMMON               1          3                                 2014601200013 
MOMENTUM L                                                        2014601200014 
NO-DIM                                                            2014601200015 
 1.0000E+00                                                       2014601200016 
ENDCOMMON            3          0                                 2014601200017 
DATA                 5          3                                 2014601200018 
EN-MAX     EN-MIN     DATA       +DATA-ERR  -DATA-ERR             2014601200019 
MEV        MEV        NO-DIM     NO-DIM     NO-DIM                2014601200020 
 7.0000E-04 3.4000E-05 6.2000E-04                                 2014601200021 
 1.3500E-03 3.4000E-05 6.0000E-04 1.5000E-04 1.8000E-04           2014601200022 
 1.3500E-03 7.0000E-04 4.2000E-04                                 2014601200023 
ENDDATA              5          0                                 2014601200024 
ENDSUBENT           23          0                                 2014601299999 
SUBENT        20146013   19831102                             00002014601300001 
BIB                  3          6                                 2014601300002 
REACTION   (45-RH-103(N,0),,D)                                    2014601300003 
ANALYSIS   .OBTAINED FROM THE DISTRIBUTION OF (G*REDUCED N-WIDTH) 2014601300004 
            WITH NU = 1 AND WITH NU ADJUSTED. (NU = DEG.OF FREED.)2014601300005 
           .FROM 159 RESONANCES.                                  2014601300006 
HISTORY    (711027C)                                              2014601300007 
           (730517E)                                              2014601300008 
ENDBIB               6          0                                 2014601300009 
COMMON               1          3                                 2014601300010 
MOMENTUM L                                                        2014601300011 
NO-DIM                                                            2014601300012 
 0.0000E+00                                                       2014601300013 
ENDCOMMON            3          0                                 2014601300014 
DATA                 4          1                                 2014601300015 
EN-MAX     EN-MIN     DATA       DATA-ERR                         2014601300016 
MEV        MEV        EV         EV                               2014601300017 
 4.1400E-03 1.2000E-06 2.7000E+01 2.0000E+00                      2014601300018 
ENDDATA              3          0                                 2014601300019 
ENDSUBENT           18          0                                 2014601399999 
ENDENTRY            13          0                                 2014699999999 
