ENTRY            20428   19840112                             00002042800000001 
SUBENT        20428001   19840112                             00002042800100001 
BIB                 11         24                                 2042800100002 
INSTITUTE  (2UK HAR)                                              2042800100003 
REFERENCE  (C,75WASH,2,564,7503) PLOTS, AVERAGED C/S TABULATED.   2042800100004 
           (C,72VIENNA,201,7211) SIMILAR EXPERIMENT FOR U-235     2042800100005 
            FISSION X-SECT.                                       2042800100006 
           (W,GAYTHER,7507) TABULATED 94-PU-239 FISSION DATA.     2042800100007 
AUTHOR     (D.B.GAYTHER)                                          2042800100008 
TITLE      -MEASUREMENT OF THE PU-239 FISSION CROSS-SECTION AND   2042800100009 
            ITS RATIO TO THE U-235 FISSION CROSS-SECTION IN THE   2042800100010 
            ENERGY RANGE FROM 1-KEV TO 1-MEV.-                    2042800100011 
FACILITY   (LINAC)    45 MEV LINAC                                2042800100012 
SAMPLE     .7.9 CM DIAMETER SAMPLES OF U-235, 1.08*10**(-3) AND   2042800100013 
            3.8*10**(-3) ATOMS/B, AND 5.1 CM DIAM. PU-239,        2042800100014 
            1.2*10**(-3) ATOMS/B.                                 2042800100015 
METHOD     (TOF  )    100 M FLIGHT PATH OF LINAC, NOMINAL OVERALL 2042800100016 
            RESOLUTION ABOUT 1.7 NANOS./M.                        2042800100017 
DETECTOR   .N-213 PROTON RECOIL DETECTORS FOR DETECTION           2042800100018 
            OF FISSION NEUTRONS. GAMMA RAYS FROM CAPTURE OR       2042800100019 
            SCATTERING REJECTED BY PULSE-SHAPE DISCRIMINATION.    2042800100020 
PART-DET   (N    )    FISSION NEUTRONS.                           2042800100021 
HISTORY    (750724C)                                              2042800100022 
           (750925E)                                              2042800100023 
CORRECTION .FOR BACKGROUND, ENERGY DEPENDENCE OF FISSION DETECTOR 2042800100024 
            EFFICIENCY, SAMPLE THICKNESS EFFECTS, ENERGY          2042800100025 
            DEPENDENCE OF NU-PROMPT. DETAILS IN 75WASH, PAPER GB6.2042800100026 
ENDBIB              24          0                                 2042800100027 
NOCOMMON             0          0                                 2042800100028 
ENDSUBENT           27          0                                 2042800199999 
SUBENT        20428002   19840112                             00002042800200001 
BIB                  3          8                                 2042800200002 
REACTION   (94-PU-239(N,F),,SIG)                                  2042800200003 
MONITOR    (94-PU-239(N,F),,SIG,,AV)                              2042800200004 
            = 1.6775 B, AVERAGE VALUE 10 TO                       2042800200005 
            30 KEV. INCIDENT N-FLUX MEASURED WITH B-10(N,ALPHA-   2042800200006 
            GAMMA(478 KEV)), DETAILS IN 75WASH,PAPER GB-6.        2042800200007 
ERR-ANALYS .TOTAL SYSTEMATIC ERROR 3.5 TO 4 PERC.. ERROR FOR      2042800200008 
            NORMALIZATION (ABOUT 4 PERC.) NOT INCLUDED.           2042800200009 
           .STATISTICAL ERROR SMALL.                              2042800200010 
ENDBIB               8          0                                 2042800200011 
NOCOMMON             0          0                                 2042800200012 
DATA                 2        294                                 2042800200013 
EN         DATA                                                   2042800200014 
EV         B                                                      2042800200015 
 1.0048E+03 7.9523E+00                                            2042800200016 
 1.0225E+03 8.3918E+00                                            2042800200017 
 1.0407E+03 7.7522E+00                                            2042800200018 
 1.0593E+03 5.2018E+00                                            2042800200019 
 1.0785E+03 2.5471E+00                                            2042800200020 
 1.0982E+03 8.5513E+00                                            2042800200021 
 1.1185E+03 3.1246E+00                                            2042800200022 
 1.1393E+03 9.8640E+00                                            2042800200023 
 1.1607E+03 3.1503E+00                                            2042800200024 
 1.1827E+03 7.1971E+00                                            2042800200025 
 1.2053E+03 4.9277E+00                                            2042800200026 
 1.2286E+03 3.4577E+00                                            2042800200027 
 1.2526E+03 5.0791E+00                                            2042800200028 
 1.2773E+03 4.8267E+00                                            2042800200029 
 1.3027E+03 5.6009E+00                                            2042800200030 
 1.3289E+03 1.0161E+01                                            2042800200031 
 1.3559E+03 7.9155E+00                                            2042800200032 
 1.3838E+03 5.8973E+00                                            2042800200033 
 1.4125E+03 3.9100E+00                                            2042800200034 
 1.4420E+03 4.6606E+00                                            2042800200035 
 1.4726E+03 4.5518E+00                                            2042800200036 
 1.5041E+03 3.0302E+00                                            2042800200037 
 1.5366E+03 2.5429E+00                                            2042800200038 
 1.5702E+03 2.5642E+00                                            2042800200039 
 1.6049E+03 4.3250E+00                                            2042800200040 
 1.6408E+03 3.4158E+00                                            2042800200041 
 1.6779E+03 3.5086E+00                                            2042800200042 
 1.7163E+03 3.1898E+00                                            2042800200043 
 1.7560E+03 1.9410E+00                                            2042800200044 
 1.7971E+03 6.4684E+00                                            2042800200045 
 1.8396E+03 6.0920E+00                                            2042800200046 
 1.8837E+03 3.4794E+00                                            2042800200047 
 1.9294E+03 1.9632E+00                                            2042800200048 
 1.9768E+03 1.6847E+00                                            2042800200049 
 2.0259E+03 2.5279E+00                                            2042800200050 
 2.0769E+03 1.2880E+00                                            2042800200051 
 2.1298E+03 3.3224E+00                                            2042800200052 
 2.1848E+03 2.4501E+00                                            2042800200053 
 2.2420E+03 2.5307E+00                                            2042800200054 
 2.3014E+03 4.7077E+00                                            2042800200055 
 2.3632E+03 2.3172E+00                                            2042800200056 
 2.4275E+03 4.0844E+00                                            2042800200057 
 2.4945E+03 4.9545E+00                                            2042800200058 
 2.5643E+03 1.7190E+00                                            2042800200059 
 2.6371E+03 2.7990E+00                                            2042800200060 
 2.7131E+03 3.5305E+00                                            2042800200061 
 2.7923E+03 5.0037E+00                                            2042800200062 
 2.8751E+03 4.1215E+00                                            2042800200063 
 2.9616E+03 3.1692E+00                                            2042800200064 
 3.0521E+03 3.0857E+00                                            2042800200065 
 3.1468E+03 4.8090E+00                                            2042800200066 
 3.2205E+03 2.9105E+00                                            2042800200067 
 3.2712E+03 5.7348E+00                                            2042800200068 
 3.3232E+03 2.0027E+00                                            2042800200069 
 3.3763E+03 1.4877E+00                                            2042800200070 
 3.4308E+03 2.3431E+00                                            2042800200071 
 3.4867E+03 2.0100E+00                                            2042800200072 
 3.5438E+03 2.3474E+00                                            2042800200073 
 3.6025E+03 2.0949E+00                                            2042800200074 
 3.6625E+03 2.9909E+00                                            2042800200075 
 3.7241E+03 2.9750E+00                                            2042800200076 
 3.7873E+03 3.6852E+00                                            2042800200077 
 3.8521E+03 4.2589E+00                                            2042800200078 
 3.9185E+03 3.0727E+00                                            2042800200079 
 3.9867E+03 2.2215E+00                                            2042800200080 
 4.0567E+03 1.9819E+00                                            2042800200081 
 4.1285E+03 1.6859E+00                                            2042800200082 
 4.2023E+03 3.0089E+00                                            2042800200083 
 4.2781E+03 2.0933E+00                                            2042800200084 
 4.3559E+03 2.4273E+00                                            2042800200085 
 4.4359E+03 3.1864E+00                                            2042800200086 
 4.5181E+03 3.0217E+00                                            2042800200087 
 4.6026E+03 2.6901E+00                                            2042800200088 
 4.6895E+03 2.6439E+00                                            2042800200089 
 4.7789E+03 2.1816E+00                                            2042800200090 
 4.8708E+03 1.9655E+00                                            2042800200091 
 4.9655E+03 1.8735E+00                                            2042800200092 
 5.0629E+03 1.7548E+00                                            2042800200093 
 5.1632E+03 2.5474E+00                                            2042800200094 
 5.2666E+03 3.3314E+00                                            2042800200095 
 5.3730E+03 1.4262E+00                                            2042800200096 
 5.4828E+03 2.1126E+00                                            2042800200097 
 5.5959E+03 2.4970E+00                                            2042800200098 
 5.7126E+03 2.2474E+00                                            2042800200099 
 5.8329E+03 2.2104E+00                                            2042800200100 
 5.9571E+03 2.3778E+00                                            2042800200101 
 6.0853E+03 2.5482E+00                                            2042800200102 
 6.2177E+03 2.4624E+00                                            2042800200103 
 6.3545E+03 2.0521E+00                                            2042800200104 
 6.4958E+03 1.5907E+00                                            2042800200105 
 6.6419E+03 1.8275E+00                                            2042800200106 
 6.7930E+03 2.3401E+00                                            2042800200107 
 6.9492E+03 1.5536E+00                                            2042800200108 
 7.1110E+03 1.8035E+00                                            2042800200109 
 7.2784E+03 1.9681E+00                                            2042800200110 
 7.4519E+03 2.7826E+00                                            2042800200111 
 7.6316E+03 2.4419E+00                                            2042800200112 
 7.8179E+03 1.7869E+00                                            2042800200113 
 8.0111E+03 2.1692E+00                                            2042800200114 
 8.2115E+03 2.1239E+00                                            2042800200115 
 8.4196E+03 2.4788E+00                                            2042800200116 
 8.6357E+03 2.1056E+00                                            2042800200117 
 8.8602E+03 2.1668E+00                                            2042800200118 
 9.0936E+03 1.8577E+00                                            2042800200119 
 9.3363E+03 1.5776E+00                                            2042800200120 
 9.5889E+03 2.1028E+00                                            2042800200121 
 9.8518E+03 1.7785E+00                                            2042800200122 
 1.0126E+04 1.6386E+00                                            2042800200123 
 1.0411E+04 1.7794E+00                                            2042800200124 
 1.0633E+04 2.0305E+00                                            2042800200125 
 1.0785E+04 2.1444E+00                                            2042800200126 
 1.0940E+04 1.9801E+00                                            2042800200127 
 1.1099E+04 1.6342E+00                                            2042800200128 
 1.1261E+04 1.7677E+00                                            2042800200129 
 1.1427E+04 2.0642E+00                                            2042800200130 
 1.1597E+04 1.7988E+00                                            2042800200131 
 1.1770E+04 1.7411E+00                                            2042800200132 
 1.1947E+04 1.6405E+00                                            2042800200133 
 1.2128E+04 1.6822E+00                                            2042800200134 
 1.2314E+04 1.9325E+00                                            2042800200135 
 1.2503E+04 1.9174E+00                                            2042800200136 
 1.2697E+04 1.8272E+00                                            2042800200137 
 1.2896E+04 1.9278E+00                                            2042800200138 
 1.3099E+04 2.0102E+00                                            2042800200139 
 1.3307E+04 1.9139E+00                                            2042800200140 
 1.3521E+04 1.6099E+00                                            2042800200141 
 1.3739E+04 1.6768E+00                                            2042800200142 
 1.3963E+04 1.6286E+00                                            2042800200143 
 1.4192E+04 1.4958E+00                                            2042800200144 
 1.4427E+04 1.5426E+00                                            2042800200145 
 1.4667E+04 1.5801E+00                                            2042800200146 
 1.4914E+04 1.7430E+00                                            2042800200147 
 1.5167E+04 1.7773E+00                                            2042800200148 
 1.5427E+04 1.8711E+00                                            2042800200149 
 1.5693E+04 1.6716E+00                                            2042800200150 
 1.5966E+04 1.6044E+00                                            2042800200151 
 1.6247E+04 1.8291E+00                                            2042800200152 
 1.6535E+04 1.7435E+00                                            2042800200153 
 1.6830E+04 1.5575E+00                                            2042800200154 
 1.7134E+04 1.4952E+00                                            2042800200155 
 1.7446E+04 1.7918E+00                                            2042800200156 
 1.7766E+04 1.9061E+00                                            2042800200157 
 1.8096E+04 1.7399E+00                                            2042800200158 
 1.8434E+04 1.7710E+00                                            2042800200159 
 1.8783E+04 1.5370E+00                                            2042800200160 
 1.9141E+04 1.7276E+00                                            2042800200161 
 1.9510E+04 1.7842E+00                                            2042800200162 
 1.9889E+04 1.5325E+00                                            2042800200163 
 2.0279E+04 1.6547E+00                                            2042800200164 
 2.0682E+04 1.6679E+00                                            2042800200165 
 2.1096E+04 1.7116E+00                                            2042800200166 
 2.1523E+04 1.7358E+00                                            2042800200167 
 2.1962E+04 1.7475E+00                                            2042800200168 
 2.2416E+04 1.5631E+00                                            2042800200169 
 2.2884E+04 1.4448E+00                                            2042800200170 
 2.3366E+04 1.5296E+00                                            2042800200171 
 2.3864E+04 1.7752E+00                                            2042800200172 
 2.4378E+04 1.6518E+00                                            2042800200173 
 2.4909E+04 1.7194E+00                                            2042800200174 
 2.5457E+04 1.5671E+00                                            2042800200175 
 2.6024E+04 1.6196E+00                                            2042800200176 
 2.6609E+04 1.6970E+00                                            2042800200177 
 2.7215E+04 1.5620E+00                                            2042800200178 
 2.7842E+04 1.4634E+00                                            2042800200179 
 2.8490E+04 1.5652E+00                                            2042800200180 
 2.9162E+04 1.5909E+00                                            2042800200181 
 2.9857E+04 1.5252E+00                                            2042800200182 
 3.0578E+04 1.3604E+00                                            2042800200183 
 3.1325E+04 1.6271E+00                                            2042800200184 
 3.2100E+04 1.5571E+00                                            2042800200185 
 3.2904E+04 1.6983E+00                                            2042800200186 
 3.3738E+04 1.6654E+00                                            2042800200187 
 3.4605E+04 1.7167E+00                                            2042800200188 
 3.5505E+04 1.7176E+00                                            2042800200189 
 3.6442E+04 1.7128E+00                                            2042800200190 
 3.7415E+04 1.6147E+00                                            2042800200191 
 3.8428E+04 1.6376E+00                                            2042800200192 
 3.9483E+04 1.6157E+00                                            2042800200193 
 4.0582E+04 1.5173E+00                                            2042800200194 
 4.1727E+04 1.6082E+00                                            2042800200195 
 4.2922E+04 1.5516E+00                                            2042800200196 
 4.4169E+04 1.5611E+00                                            2042800200197 
 4.5471E+04 1.4996E+00                                            2042800200198 
 4.6831E+04 1.4735E+00                                            2042800200199 
 4.8253E+04 1.6179E+00                                            2042800200200 
 4.9741E+04 1.5926E+00                                            2042800200201 
 5.1299E+04 1.5396E+00                                            2042800200202 
 5.2931E+04 1.5664E+00                                            2042800200203 
 5.4642E+04 1.5020E+00                                            2042800200204 
 5.6438E+04 1.6216E+00                                            2042800200205 
 5.8324E+04 1.5737E+00                                            2042800200206 
 6.0306E+04 1.6584E+00                                            2042800200207 
 6.2390E+04 1.6425E+00                                            2042800200208 
 6.4585E+04 1.5212E+00                                            2042800200209 
 6.6897E+04 1.5413E+00                                            2042800200210 
 6.9336E+04 1.6542E+00                                            2042800200211 
 7.1911E+04 1.6414E+00                                            2042800200212 
 7.4632E+04 1.5209E+00                                            2042800200213 
 7.7510E+04 1.5393E+00                                            2042800200214 
 8.0558E+04 1.5788E+00                                            2042800200215 
 8.3790E+04 1.5859E+00                                            2042800200216 
 8.7219E+04 1.6038E+00                                            2042800200217 
 9.0585E+04 1.5445E+00                                            2042800200218 
 9.2485E+04 1.6015E+00                                            2042800200219 
 9.4445E+04 1.5542E+00                                            2042800200220 
 9.6468E+04 1.4857E+00                                            2042800200221 
 9.8558E+04 1.5367E+00                                            2042800200222 
 1.0072E+05 1.6095E+00                                            2042800200223 
 1.0294E+05 1.5721E+00                                            2042800200224 
 1.0525E+05 1.5347E+00                                            2042800200225 
 1.0763E+05 1.5012E+00                                            2042800200226 
 1.1010E+05 1.4787E+00                                            2042800200227 
 1.1265E+05 1.5325E+00                                            2042800200228 
 1.1528E+05 1.4479E+00                                            2042800200229 
 1.1802E+05 1.4755E+00                                            2042800200230 
 1.2085E+05 1.3925E+00                                            2042800200231 
 1.2378E+05 1.5064E+00                                            2042800200232 
 1.2683E+05 1.5332E+00                                            2042800200233 
 1.2998E+05 1.4515E+00                                            2042800200234 
 1.3326E+05 1.4128E+00                                            2042800200235 
 1.3666E+05 1.5610E+00                                            2042800200236 
 1.4020E+05 1.4394E+00                                            2042800200237 
 1.4387E+05 1.5021E+00                                            2042800200238 
 1.4769E+05 1.5189E+00                                            2042800200239 
 1.5166E+05 1.5834E+00                                            2042800200240 
 1.5579E+05 1.4718E+00                                            2042800200241 
 1.6010E+05 1.5576E+00                                            2042800200242 
 1.6459E+05 1.4902E+00                                            2042800200243 
 1.6927E+05 1.4426E+00                                            2042800200244 
 1.7415E+05 1.4211E+00                                            2042800200245 
 1.7924E+05 1.4795E+00                                            2042800200246 
 1.8457E+05 1.4748E+00                                            2042800200247 
 1.9013E+05 1.4136E+00                                            2042800200248 
 1.9595E+05 1.4885E+00                                            2042800200249 
 2.0204E+05 1.5055E+00                                            2042800200250 
 2.0842E+05 1.5259E+00                                            2042800200251 
 2.1510E+05 1.5368E+00                                            2042800200252 
 2.2212E+05 1.5304E+00                                            2042800200253 
 2.2948E+05 1.5057E+00                                            2042800200254 
 2.3721E+05 1.4987E+00                                            2042800200255 
 2.4534E+05 1.4974E+00                                            2042800200256 
 2.5390E+05 1.4618E+00                                            2042800200257 
 2.6291E+05 1.4799E+00                                            2042800200258 
 2.7241E+05 1.5143E+00                                            2042800200259 
 2.8243E+05 1.5116E+00                                            2042800200260 
 2.9302E+05 1.5103E+00                                            2042800200261 
 3.0422E+05 1.4877E+00                                            2042800200262 
 3.1302E+05 1.4697E+00                                            2042800200263 
 3.1912E+05 1.4791E+00                                            2042800200264 
 3.2539E+05 1.5074E+00                                            2042800200265 
 3.3186E+05 1.4919E+00                                            2042800200266 
 3.3851E+05 1.5100E+00                                            2042800200267 
 3.4537E+05 1.5302E+00                                            2042800200268 
 3.5244E+05 1.5517E+00                                            2042800200269 
 3.5973E+05 1.5157E+00                                            2042800200270 
 3.6725E+05 1.4982E+00                                            2042800200271 
 3.7501E+05 1.5096E+00                                            2042800200272 
 3.8302E+05 1.5296E+00                                            2042800200273 
 3.9128E+05 1.5188E+00                                            2042800200274 
 3.9982E+05 1.5693E+00                                            2042800200275 
 4.0863E+05 1.4869E+00                                            2042800200276 
 4.1775E+05 1.5614E+00                                            2042800200277 
 4.2717E+05 1.5318E+00                                            2042800200278 
 4.3691E+05 1.5215E+00                                            2042800200279 
 4.4699E+05 1.5431E+00                                            2042800200280 
 4.5743E+05 1.5688E+00                                            2042800200281 
 4.6823E+05 1.5977E+00                                            2042800200282 
 4.7942E+05 1.6187E+00                                            2042800200283 
 4.9102E+05 1.5537E+00                                            2042800200284 
 5.0304E+05 1.5882E+00                                            2042800200285 
 5.1551E+05 1.5822E+00                                            2042800200286 
 5.2845E+05 1.6139E+00                                            2042800200287 
 5.4189E+05 1.6037E+00                                            2042800200288 
 5.5584E+05 1.6470E+00                                            2042800200289 
 5.7034E+05 1.6465E+00                                            2042800200290 
 5.8541E+05 1.6234E+00                                            2042800200291 
 6.0109E+05 1.6360E+00                                            2042800200292 
 6.1741E+05 1.7310E+00                                            2042800200293 
 6.3440E+05 1.6389E+00                                            2042800200294 
 6.5211E+05 1.6439E+00                                            2042800200295 
 6.7056E+05 1.5997E+00                                            2042800200296 
 6.8981E+05 1.6416E+00                                            2042800200297 
 7.0991E+05 1.6526E+00                                            2042800200298 
 7.3089E+05 1.6881E+00                                            2042800200299 
 7.5282E+05 1.6634E+00                                            2042800200300 
 7.7575E+05 1.7098E+00                                            2042800200301 
 7.9974E+05 1.6949E+00                                            2042800200302 
 8.2487E+05 1.7521E+00                                            2042800200303 
 8.5119E+05 1.7183E+00                                            2042800200304 
 8.7881E+05 1.7855E+00                                            2042800200305 
 9.0778E+05 1.7361E+00                                            2042800200306 
 9.3822E+05 1.7856E+00                                            2042800200307 
 9.7021E+05 1.7815E+00                                            2042800200308 
 1.0039E+06 1.8646E+00                                            2042800200309 
ENDDATA            296          0                                 2042800200310 
ENDSUBENT          309          0                                 2042800299999 
SUBENT        20428003   19840112                             00002042800300001 
BIB                  3          8                                 2042800300002 
REACTION   (94-PU-239(N,F),,SIG,,AV)                              2042800300003 
MONITOR    (94-PU-239(N,F),,SIG,,AV)                              2042800300004 
            = 1.6775 B, AVERAGE VALUE 10 TO                       2042800300005 
            30 KEV. INCIDENT N-FLUX MEASURED WITH B-10(N,ALPHA-   2042800300006 
            GAMMA(478 KEV)), DETAILS IN 75WASH,PAPER GB-6.        2042800300007 
ERR-ANALYS .TOTAL SYSTEMATIC ERROR 3.5 TO 4 PERC.. ERROR FOR      2042800300008 
            NORMALIZATION (ABOUT 4 PERC.) NOT INCLUDED.           2042800300009 
           .STATISTICAL ERROR SMALL.                              2042800300010 
ENDBIB               8          0                                 2042800300011 
NOCOMMON             0          0                                 2042800300012 
DATA                 4         33                                 2042800300013 
EN-MAX     EN-MIN     DATA       DATA-ERR                         2042800300014 
KEV        KEV        B          B                                2042800300015 
 1.5000E+00 1.0000E+00 5.6720E+00 2.3300E-01                      2042800300016 
 2.0000E+00 1.5000E+00 3.4170E+00 1.3700E-01                      2042800300017 
 2.5000E+00 2.0000E+00 3.1090E+00 1.2400E-01                      2042800300018 
 3.0000E+00 2.5000E+00 3.5410E+00 1.4200E-01                      2042800300019 
 4.0000E+00 3.0000E+00 3.0970E+00 1.1800E-01                      2042800300020 
 5.0000E+00 4.0000E+00 2.3910E+00 9.1000E-02                      2042800300021 
 6.0000E+00 5.0000E+00 2.2780E+00 8.4000E-02                      2042800300022 
 7.0000E+00 6.0000E+00 2.0470E+00 7.6000E-02                      2042800300023 
 8.0000E+00 7.0000E+00 2.1300E+00 7.9000E-02                      2042800300024 
 9.0000E+00 8.0000E+00 2.2220E+00 8.2000E-02                      2042800300025 
 1.0000E+01 9.0000E+00 1.8200E+00 6.7000E-02                      2042800300026 
 1.5000E+01 1.0000E+01 1.7730E+00 6.2000E-02                      2042800300027 
 2.0000E+01 1.5000E+01 1.7090E+00 6.0000E-02                      2042800300028 
 2.5000E+01 2.0000E+01 1.6500E+00 5.8000E-02                      2042800300029 
 3.0000E+01 2.5000E+01 1.5790E+00 5.5000E-02                      2042800300030 
 4.0000E+01 3.0000E+01 1.6320E+00 5.7000E-02                      2042800300031 
 5.0000E+01 4.0000E+01 1.5520E+00 5.4000E-02                      2042800300032 
 6.0000E+01 5.0000E+01 1.5700E+00 5.5000E-02                      2042800300033 
 7.0000E+01 6.0000E+01 1.5960E+00 5.6000E-02                      2042800300034 
 8.0000E+01 7.0000E+01 1.5720E+00 5.5000E-02                      2042800300035 
 9.0000E+01 8.0000E+01 1.5930E+00 5.7000E-02                      2042800300036 
 1.0000E+02 9.0000E+01 1.5450E+00 5.7000E-02                      2042800300037 
 1.5000E+02 1.0000E+02 1.4960E+00 5.4000E-02                      2042800300038 
 2.0000E+02 1.5000E+02 1.4800E+00 5.5000E-02                      2042800300039 
 2.5000E+02 2.0000E+02 1.5130E+00 5.6000E-02                      2042800300040 
 3.0000E+02 2.5000E+02 1.4970E+00 5.7000E-02                      2042800300041 
 4.0000E+02 3.0000E+02 1.5110E+00 5.6000E-02                      2042800300042 
 5.0000E+02 4.0000E+02 1.5580E+00 5.9000E-02                      2042800300043 
 6.0000E+02 5.0000E+02 1.6190E+00 6.3000E-02                      2042800300044 
 7.0000E+02 6.0000E+02 1.6480E+00 6.4000E-02                      2042800300045 
 8.0000E+02 7.0000E+02 1.6810E+00 6.6000E-02                      2042800300046 
 9.0000E+02 8.0000E+02 1.7440E+00 6.8000E-02                      2042800300047 
 1.0000E+03 9.0000E+02 1.7830E+00 7.0000E-02                      2042800300048 
ENDDATA             35          0                                 2042800300049 
ENDSUBENT           48          0                                 2042800399999 
SUBENT        20428004   19840112                             00002042800400001 
BIB                  2          3                                 2042800400002 
REACTION   ((94-PU-239(N,F),,SIG)/                                2042800400003 
           (92-U-235(N,F),,SIG))                                  2042800400004 
ERR-ANALYS .TOTAL SYSTEMATIC ERROR 2.5 TO 3 PERC..                2042800400005 
ENDBIB               3          0                                 2042800400006 
NOCOMMON             0          0                                 2042800400007 
DATA                 4         33                                 2042800400008 
EN-MAX     EN-MIN     DATA       DATA-ERR                         2042800400009 
KEV        KEV        NO-DIM     NO-DIM                           2042800400010 
 1.5000E+00 1.0000E+00 6.5400E-01 1.4000E-02                      2042800400011 
 2.0000E+00 1.5000E+00 4.8200E-01 1.1000E-02                      2042800400012 
 2.5000E+00 2.0000E+00 5.2200E-01 1.3000E-02                      2042800400013 
 3.0000E+00 2.5000E+00 6.4600E-01 1.6000E-02                      2042800400014 
 4.0000E+00 3.0000E+00 6.1400E-01 1.5000E-02                      2042800400015 
 5.0000E+00 4.0000E+00 5.3400E-01 1.3000E-02                      2042800400016 
 6.0000E+00 5.0000E+00 5.6300E-01 1.4000E-02                      2042800400017 
 7.0000E+00 6.0000E+00 6.0600E-01 1.6000E-02                      2042800400018 
 8.0000E+00 7.0000E+00 6.4900E-01 1.8000E-02                      2042800400019 
 9.0000E+00 8.0000E+00 7.2400E-01 2.0000E-02                      2042800400020 
 1.0000E+01 9.0000E+00 5.7700E-01 1.8000E-02                      2042800400021 
 1.5000E+01 1.0000E+01 6.5600E-01 1.5000E-02                      2042800400022 
 2.0000E+01 1.5000E+01 7.2400E-01 1.7000E-02                      2042800400023 
 2.5000E+01 2.0000E+01 7.3800E-01 1.8000E-02                      2042800400024 
 3.0000E+01 2.5000E+01 7.5400E-01 1.8000E-02                      2042800400025 
 4.0000E+01 3.0000E+01 8.2500E-01 2.0000E-02                      2042800400026 
 5.0000E+01 4.0000E+01 8.2000E-01 2.0000E-02                      2042800400027 
 6.0000E+01 5.0000E+01 8.4100E-01 2.0000E-02                      2042800400028 
 7.0000E+01 6.0000E+01 8.7900E-01 2.1000E-02                      2042800400029 
 8.0000E+01 7.0000E+01 9.0700E-01 2.2000E-02                      2042800400030 
 9.0000E+01 8.0000E+01 9.8800E-01 2.5000E-02                      2042800400031 
 1.0000E+02 9.0000E+01 9.7300E-01 2.6000E-02                      2042800400032 
 1.5000E+02 1.0000E+02 9.9400E-01 2.4000E-02                      2042800400033 
 2.0000E+02 1.5000E+02 1.0700E+00 2.6000E-02                      2042800400034 
 2.5000E+02 2.0000E+02 1.1580E+00 2.8000E-02                      2042800400035 
 3.0000E+02 2.5000E+02 1.2200E+00 3.1000E-02                      2042800400036 
 4.0000E+02 3.0000E+02 1.2650E+00 3.3000E-02                      2042800400037 
 5.0000E+02 4.0000E+02 1.3510E+00 3.5000E-02                      2042800400038 
 6.0000E+02 5.0000E+02 1.4280E+00 3.9000E-02                      2042800400039 
 7.0000E+02 6.0000E+02 1.4690E+00 4.1000E-02                      2042800400040 
 8.0000E+02 7.0000E+02 1.4980E+00 4.2000E-02                      2042800400041 
 9.0000E+02 8.0000E+02 1.5090E+00 4.4000E-02                      2042800400042 
 1.0000E+03 9.0000E+02 1.4640E+00 4.2000E-02                      2042800400043 
ENDDATA             35          0                                 2042800400044 
ENDSUBENT           43          0                                 2042800499999 
ENDENTRY             4          0                                 2042899999999 
