ENTRY            20464   19840120                             00002046400000001 
SUBENT        20464001   19840120                             00002046400100001 
BIB                 13         29                                 2046400100002 
INSTITUTE  (2UK GLS)                                              2046400100003 
REFERENCE  (J,JP/A,5,1090,7207)  PLOT ONLY GIVEN.                 2046400100004 
           (W,KELLIE,7310)  PRINTOUT OF THE NUMERICAL DATA.       2046400100005 
AUTHOR     (J.D.KELLIE, M.N.ISLAM, D.B.C.B.SYME, G.I.CRAWFORD)    2046400100006 
TITLE      -NEUTRON TOTAL CROSS SECTION OF P-31 BETWEEN 0.75 MEV  2046400100007 
            AND 9.00 MEV.-                                        2046400100008 
FACILITY   (LINAC)    ELECTRON LINEAR ACCELERATOR IN THE KELVIN   2046400100009 
            LABORATORY.                                           2046400100010 
            THE TARGET WAS A 2.5 CM DIAMETER SPHERE OF NATURAL    2046400100011 
            LEAD                                                  2046400100012 
INC-SOURCE  MAINLY (GAMMA,N) FROM BREMSSTRAHLUNG.                 2046400100013 
INC-SPECT   TYPICAL EVAPORATION SPECTRUM PEAKING AT ABOUT 2 MEV   2046400100014 
SAMPLE      P-31 IN RED POWDER FORM, THICKNESS 2.47 CM CHOSEN TO  2046400100015 
            GIVE 20 PERC. ABSORPTION.  CHEMICAL PURITY OF 97 PERC.2046400100016 
METHOD     (TOF  )    TIME OF FLIGHT, PATH = 19.95M, PULSE WIDTH  2046400100017 
            3.5 NSEC FWHM.                                        2046400100018 
DETECTOR   (SCIN )    2.54 * 2.54 CM2 CYLINDER NE 102A.           2046400100019 
           .ANOTHER (2.54 * 0.64) CM2 PLASTIC SCINTILLATOR NE 102A2046400100020 
            FOR NEUTRON BEAM MONITOR.  IT WAS CONFIRMED THAT COUNT2046400100021 
            RATE IN THE MONITOR WAS THE SAME FOR SAMPLE IN AND OUT2046400100022 
STATUS      DATA FROM PRIV.COMM. BY KELLIE (08/10/73).            2046400100023 
HISTORY    (731026C)                                              2046400100024 
           (760112E)                                              2046400100025 
ERR-ANALYS  STATISTICAL ERRORS IN TOTAL CROSS-SECTIONS ARE +- 5   2046400100026 
            PERC. AT 1 MEV, +- 9 PERC. AT 5 MEV AND +- 12 PERC. AT2046400100027 
            8 MEV.                                                2046400100028 
            THE IN-SCATTERING WAS LESS THAN 1 IN 10**6.           2046400100029 
            THE ENERGY RESOLUTION WAS 5 KEV AT 1 MEV AND 135 KEV  2046400100030 
            AT 9 MEV.                                             2046400100031 
ENDBIB              29          0                                 2046400100032 
NOCOMMON             0          0                                 2046400100033 
ENDSUBENT           32          0                                 2046400199999 
SUBENT        20464002   19840120                             00002046400200001 
BIB                  4          5                                 2046400200002 
REACTION   (15-P-31(N,TOT),,SIG)                                  2046400200003 
MONITOR    .ABSOLUTE, TRANSMISSION EXPERIMENT.                    2046400200004 
PART-DET   (N    )    NEUTRONS.                                   2046400200005 
HISTORY    (731026C)                                              2046400200006 
           (760112E)                                              2046400200007 
ENDBIB               5          0                                 2046400200008 
NOCOMMON             0          0                                 2046400200009 
DATA                 2        558                                 2046400200010 
EN         DATA                                                   2046400200011 
MEV        B                                                      2046400200012 
 7.0000E-01 2.1100E+00                                            2046400200013 
 7.0400E-01 2.7200E+00                                            2046400200014 
 7.0800E-01 2.1500E+00                                            2046400200015 
 7.1200E-01 1.9800E+00                                            2046400200016 
 7.1600E-01 1.4800E+00                                            2046400200017 
 7.2000E-01 1.9100E+00                                            2046400200018 
 7.2400E-01 2.1600E+00                                            2046400200019 
 7.2800E-01 2.0200E+00                                            2046400200020 
 7.3200E-01 2.7800E+00                                            2046400200021 
 7.3600E-01 3.4700E+00                                            2046400200022 
 7.4000E-01 3.0100E+00                                            2046400200023 
 7.4400E-01 2.4400E+00                                            2046400200024 
 7.4800E-01 2.0800E+00                                            2046400200025 
 7.5200E-01 2.6700E+00                                            2046400200026 
 7.5600E-01 3.3500E+00                                            2046400200027 
 7.6000E-01 3.6400E+00                                            2046400200028 
 7.6400E-01 3.3800E+00                                            2046400200029 
 7.6800E-01 2.8900E+00                                            2046400200030 
 7.7200E-01 2.6100E+00                                            2046400200031 
 7.7600E-01 2.2300E+00                                            2046400200032 
 7.8000E-01 2.0000E+00                                            2046400200033 
 7.8400E-01 2.4100E+00                                            2046400200034 
 7.8800E-01 2.1800E+00                                            2046400200035 
 7.9200E-01 1.9700E+00                                            2046400200036 
 7.9600E-01 1.8300E+00                                            2046400200037 
 8.0000E-01 1.6800E+00                                            2046400200038 
 8.0400E-01 1.3100E+00                                            2046400200039 
 8.0800E-01 1.3600E+00                                            2046400200040 
 8.1200E-01 1.6200E+00                                            2046400200041 
 8.1600E-01 1.8800E+00                                            2046400200042 
 8.2000E-01 2.1700E+00                                            2046400200043 
 8.2400E-01 2.3000E+00                                            2046400200044 
 8.2800E-01 2.5900E+00                                            2046400200045 
 8.3200E-01 2.1500E+00                                            2046400200046 
 8.3600E-01 2.0900E+00                                            2046400200047 
 8.4000E-01 1.8100E+00                                            2046400200048 
 8.4400E-01 1.8500E+00                                            2046400200049 
 8.4800E-01 1.9000E+00                                            2046400200050 
 8.5200E-01 1.7500E+00                                            2046400200051 
 8.5600E-01 2.5100E+00                                            2046400200052 
 8.6000E-01 3.5400E+00                                            2046400200053 
 8.6400E-01 4.6600E+00                                            2046400200054 
 8.6800E-01 4.3500E+00                                            2046400200055 
 8.7200E-01 3.7400E+00                                            2046400200056 
 8.7600E-01 2.8600E+00                                            2046400200057 
 8.8000E-01 3.1500E+00                                            2046400200058 
 8.8400E-01 1.7100E+00                                            2046400200059 
 8.8800E-01 1.8100E+00                                            2046400200060 
 8.9200E-01 2.4000E+00                                            2046400200061 
 8.9600E-01 2.5600E+00                                            2046400200062 
 9.0000E-01 2.6000E+00                                            2046400200063 
 9.0400E-01 2.7000E+00                                            2046400200064 
 9.0800E-01 4.6100E+00                                            2046400200065 
 9.1200E-01 6.3000E+00                                            2046400200066 
 9.1600E-01 4.7000E+00                                            2046400200067 
 9.2000E-01 3.1100E+00                                            2046400200068 
 9.2400E-01 3.1200E+00                                            2046400200069 
 9.2800E-01 3.3100E+00                                            2046400200070 
 9.3200E-01 4.2300E+00                                            2046400200071 
 9.3600E-01 4.0500E+00                                            2046400200072 
 9.4000E-01 4.0200E+00                                            2046400200073 
 9.4400E-01 4.9600E+00                                            2046400200074 
 9.4800E-01 5.7500E+00                                            2046400200075 
 9.5200E-01 6.5000E+00                                            2046400200076 
 9.5600E-01 5.7400E+00                                            2046400200077 
 9.6000E-01 5.5000E+00                                            2046400200078 
 9.6400E-01 4.0000E+00                                            2046400200079 
 9.6800E-01 3.4800E+00                                            2046400200080 
 9.7200E-01 3.5200E+00                                            2046400200081 
 9.7600E-01 3.3800E+00                                            2046400200082 
 9.8000E-01 3.0200E+00                                            2046400200083 
 9.8400E-01 3.4500E+00                                            2046400200084 
 9.8800E-01 3.2200E+00                                            2046400200085 
 9.9200E-01 2.4800E+00                                            2046400200086 
 9.9600E-01 2.5600E+00                                            2046400200087 
 1.0000E+00 2.5100E+00                                            2046400200088 
 1.0040E+00 2.5800E+00                                            2046400200089 
 1.0080E+00 2.3600E+00                                            2046400200090 
 1.0120E+00 2.1800E+00                                            2046400200091 
 1.0160E+00 2.4900E+00                                            2046400200092 
 1.0200E+00 2.7800E+00                                            2046400200093 
 1.0240E+00 3.0400E+00                                            2046400200094 
 1.0280E+00 3.4100E+00                                            2046400200095 
 1.0320E+00 3.4900E+00                                            2046400200096 
 1.0360E+00 3.2100E+00                                            2046400200097 
 1.0400E+00 3.2300E+00                                            2046400200098 
 1.0440E+00 2.9800E+00                                            2046400200099 
 1.0480E+00 2.9400E+00                                            2046400200100 
 1.0520E+00 2.8100E+00                                            2046400200101 
 1.0560E+00 2.6300E+00                                            2046400200102 
 1.0600E+00 2.4200E+00                                            2046400200103 
 1.0640E+00 2.5100E+00                                            2046400200104 
 1.0680E+00 2.7400E+00                                            2046400200105 
 1.0720E+00 2.5200E+00                                            2046400200106 
 1.0760E+00 2.8300E+00                                            2046400200107 
 1.0800E+00 3.4300E+00                                            2046400200108 
 1.0840E+00 3.5200E+00                                            2046400200109 
 1.0880E+00 3.3800E+00                                            2046400200110 
 1.0920E+00 3.2300E+00                                            2046400200111 
 1.0960E+00 3.5500E+00                                            2046400200112 
 1.1000E+00 3.2100E+00                                            2046400200113 
 1.1040E+00 2.4700E+00                                            2046400200114 
 1.1080E+00 2.2300E+00                                            2046400200115 
 1.1120E+00 2.1100E+00                                            2046400200116 
 1.1160E+00 1.9200E+00                                            2046400200117 
 1.1200E+00 2.2200E+00                                            2046400200118 
 1.1240E+00 2.5400E+00                                            2046400200119 
 1.1280E+00 3.1600E+00                                            2046400200120 
 1.1320E+00 4.2300E+00                                            2046400200121 
 1.1360E+00 4.9800E+00                                            2046400200122 
 1.1400E+00 4.9700E+00                                            2046400200123 
 1.1440E+00 5.5100E+00                                            2046400200124 
 1.1480E+00 5.2600E+00                                            2046400200125 
 1.1520E+00 4.4900E+00                                            2046400200126 
 1.1560E+00 4.3800E+00                                            2046400200127 
 1.1600E+00 4.1000E+00                                            2046400200128 
 1.1640E+00 4.0700E+00                                            2046400200129 
 1.1680E+00 4.2300E+00                                            2046400200130 
 1.1720E+00 4.1000E+00                                            2046400200131 
 1.1760E+00 4.0600E+00                                            2046400200132 
 1.1800E+00 3.7800E+00                                            2046400200133 
 1.1840E+00 3.0800E+00                                            2046400200134 
 1.1880E+00 3.0200E+00                                            2046400200135 
 1.1920E+00 3.2000E+00                                            2046400200136 
 1.1960E+00 3.4600E+00                                            2046400200137 
 1.2000E+00 3.6000E+00                                            2046400200138 
 1.2040E+00 3.7100E+00                                            2046400200139 
 1.2080E+00 3.8000E+00                                            2046400200140 
 1.2120E+00 3.6800E+00                                            2046400200141 
 1.2160E+00 3.5100E+00                                            2046400200142 
 1.2200E+00 3.3500E+00                                            2046400200143 
 1.2240E+00 3.0200E+00                                            2046400200144 
 1.2280E+00 2.8800E+00                                            2046400200145 
 1.2320E+00 2.6400E+00                                            2046400200146 
 1.2360E+00 2.7100E+00                                            2046400200147 
 1.2400E+00 2.8000E+00                                            2046400200148 
 1.2440E+00 3.9600E+00                                            2046400200149 
 1.2480E+00 3.1100E+00                                            2046400200150 
 1.2520E+00 3.3800E+00                                            2046400200151 
 1.2560E+00 3.6200E+00                                            2046400200152 
 1.2600E+00 3.4800E+00                                            2046400200153 
 1.2640E+00 3.3100E+00                                            2046400200154 
 1.2680E+00 3.0200E+00                                            2046400200155 
 1.2720E+00 2.6400E+00                                            2046400200156 
 1.2760E+00 2.3100E+00                                            2046400200157 
 1.2800E+00 2.3000E+00                                            2046400200158 
 1.2840E+00 2.6200E+00                                            2046400200159 
 1.2880E+00 2.7800E+00                                            2046400200160 
 1.2920E+00 3.8600E+00                                            2046400200161 
 1.2960E+00 5.5300E+00                                            2046400200162 
 1.3000E+00 5.7300E+00                                            2046400200163 
 1.3040E+00 5.0300E+00                                            2046400200164 
 1.3080E+00 4.6300E+00                                            2046400200165 
 1.3120E+00 4.6800E+00                                            2046400200166 
 1.3160E+00 5.1100E+00                                            2046400200167 
 1.3200E+00 4.4800E+00                                            2046400200168 
 1.3240E+00 3.2600E+00                                            2046400200169 
 1.3280E+00 3.2900E+00                                            2046400200170 
 1.3320E+00 2.9100E+00                                            2046400200171 
 1.3360E+00 2.9400E+00                                            2046400200172 
 1.3400E+00 3.0500E+00                                            2046400200173 
 1.3440E+00 2.9400E+00                                            2046400200174 
 1.3480E+00 2.8200E+00                                            2046400200175 
 1.3520E+00 3.0800E+00                                            2046400200176 
 1.3560E+00 3.1900E+00                                            2046400200177 
 1.3600E+00 4.1600E+00                                            2046400200178 
 1.3640E+00 3.5300E+00                                            2046400200179 
 1.3680E+00 3.4200E+00                                            2046400200180 
 1.3720E+00 3.0000E+00                                            2046400200181 
 1.3760E+00 1.9400E+00                                            2046400200182 
 1.3800E+00 1.8700E+00                                            2046400200183 
 1.3840E+00 2.0600E+00                                            2046400200184 
 1.3880E+00 2.3300E+00                                            2046400200185 
 1.3920E+00 2.4700E+00                                            2046400200186 
 1.3960E+00 2.5000E+00                                            2046400200187 
 1.4000E+00 2.6400E+00                                            2046400200188 
 1.4040E+00 3.1900E+00                                            2046400200189 
 1.4080E+00 3.4600E+00                                            2046400200190 
 1.4120E+00 4.1900E+00                                            2046400200191 
 1.4160E+00 4.2200E+00                                            2046400200192 
 1.4200E+00 3.6900E+00                                            2046400200193 
 1.4240E+00 3.3800E+00                                            2046400200194 
 1.4280E+00 3.2000E+00                                            2046400200195 
 1.4320E+00 3.2300E+00                                            2046400200196 
 1.4360E+00 3.1300E+00                                            2046400200197 
 1.4400E+00 2.9500E+00                                            2046400200198 
 1.4440E+00 2.8600E+00                                            2046400200199 
 1.4480E+00 2.6900E+00                                            2046400200200 
 1.4520E+00 2.7600E+00                                            2046400200201 
 1.4560E+00 2.9300E+00                                            2046400200202 
 1.4600E+00 3.1800E+00                                            2046400200203 
 1.4640E+00 3.6500E+00                                            2046400200204 
 1.4680E+00 3.6700E+00                                            2046400200205 
 1.4720E+00 3.5900E+00                                            2046400200206 
 1.4760E+00 3.8100E+00                                            2046400200207 
 1.4800E+00 4.5700E+00                                            2046400200208 
 1.4840E+00 4.2900E+00                                            2046400200209 
 1.4880E+00 3.9800E+00                                            2046400200210 
 1.4920E+00 3.7200E+00                                            2046400200211 
 1.4960E+00 3.4500E+00                                            2046400200212 
 1.5000E+00 3.7900E+00                                            2046400200213 
 1.5100E+00 3.6100E+00                                            2046400200214 
 1.5200E+00 3.4700E+00                                            2046400200215 
 1.5300E+00 3.0300E+00                                            2046400200216 
 1.5400E+00 2.9800E+00                                            2046400200217 
 1.5500E+00 2.7600E+00                                            2046400200218 
 1.5600E+00 2.9000E+00                                            2046400200219 
 1.5700E+00 2.7000E+00                                            2046400200220 
 1.5800E+00 2.7900E+00                                            2046400200221 
 1.5900E+00 2.8600E+00                                            2046400200222 
 1.6000E+00 2.6400E+00                                            2046400200223 
 1.6100E+00 2.4700E+00                                            2046400200224 
 1.6200E+00 2.6400E+00                                            2046400200225 
 1.6300E+00 2.9600E+00                                            2046400200226 
 1.6400E+00 2.8900E+00                                            2046400200227 
 1.6500E+00 3.4000E+00                                            2046400200228 
 1.6600E+00 4.7000E+00                                            2046400200229 
 1.6700E+00 4.2400E+00                                            2046400200230 
 1.6800E+00 3.2300E+00                                            2046400200231 
 1.6900E+00 3.2100E+00                                            2046400200232 
 1.7000E+00 3.6400E+00                                            2046400200233 
 1.7100E+00 3.4900E+00                                            2046400200234 
 1.7200E+00 3.1600E+00                                            2046400200235 
 1.7300E+00 2.2900E+00                                            2046400200236 
 1.7400E+00 2.6300E+00                                            2046400200237 
 1.7500E+00 3.2700E+00                                            2046400200238 
 1.7600E+00 3.9200E+00                                            2046400200239 
 1.7700E+00 3.8700E+00                                            2046400200240 
 1.7800E+00 3.2200E+00                                            2046400200241 
 1.7900E+00 3.1200E+00                                            2046400200242 
 1.8000E+00 3.0400E+00                                            2046400200243 
 1.8100E+00 3.3700E+00                                            2046400200244 
 1.8200E+00 3.5100E+00                                            2046400200245 
 1.8300E+00 3.3100E+00                                            2046400200246 
 1.8400E+00 3.4500E+00                                            2046400200247 
 1.8500E+00 3.2200E+00                                            2046400200248 
 1.8600E+00 3.0100E+00                                            2046400200249 
 1.8700E+00 3.1400E+00                                            2046400200250 
 1.8800E+00 3.1200E+00                                            2046400200251 
 1.8900E+00 4.0000E+00                                            2046400200252 
 1.9000E+00 4.1700E+00                                            2046400200253 
 1.9100E+00 4.1700E+00                                            2046400200254 
 1.9200E+00 3.4000E+00                                            2046400200255 
 1.9300E+00 2.7500E+00                                            2046400200256 
 1.9400E+00 2.4900E+00                                            2046400200257 
 1.9500E+00 2.9200E+00                                            2046400200258 
 1.9600E+00 3.4700E+00                                            2046400200259 
 1.9700E+00 3.8300E+00                                            2046400200260 
 1.9800E+00 3.4700E+00                                            2046400200261 
 1.9900E+00 3.0900E+00                                            2046400200262 
 2.0000E+00 3.3000E+00                                            2046400200263 
 2.0100E+00 3.4500E+00                                            2046400200264 
 2.0200E+00 3.1200E+00                                            2046400200265 
 2.0300E+00 3.0700E+00                                            2046400200266 
 2.0400E+00 3.5200E+00                                            2046400200267 
 2.0500E+00 3.9300E+00                                            2046400200268 
 2.0600E+00 4.0100E+00                                            2046400200269 
 2.0700E+00 4.1400E+00                                            2046400200270 
 2.0800E+00 4.4000E+00                                            2046400200271 
 2.0900E+00 4.3200E+00                                            2046400200272 
 2.1000E+00 4.1200E+00                                            2046400200273 
 2.1100E+00 4.5300E+00                                            2046400200274 
 2.1200E+00 4.6600E+00                                            2046400200275 
 2.1300E+00 3.7000E+00                                            2046400200276 
 2.1400E+00 2.8300E+00                                            2046400200277 
 2.1500E+00 2.8200E+00                                            2046400200278 
 2.1600E+00 3.2300E+00                                            2046400200279 
 2.1700E+00 3.1500E+00                                            2046400200280 
 2.1800E+00 3.1400E+00                                            2046400200281 
 2.1900E+00 3.2700E+00                                            2046400200282 
 2.2000E+00 3.0500E+00                                            2046400200283 
 2.2100E+00 3.0100E+00                                            2046400200284 
 2.2200E+00 3.5400E+00                                            2046400200285 
 2.2300E+00 4.1000E+00                                            2046400200286 
 2.2400E+00 3.9900E+00                                            2046400200287 
 2.2500E+00 3.7900E+00                                            2046400200288 
 2.2600E+00 3.3800E+00                                            2046400200289 
 2.2700E+00 2.7100E+00                                            2046400200290 
 2.2800E+00 2.6900E+00                                            2046400200291 
 2.2900E+00 3.3900E+00                                            2046400200292 
 2.3000E+00 3.6600E+00                                            2046400200293 
 2.3100E+00 3.1800E+00                                            2046400200294 
 2.3200E+00 2.9000E+00                                            2046400200295 
 2.3300E+00 2.6200E+00                                            2046400200296 
 2.3400E+00 2.3000E+00                                            2046400200297 
 2.3500E+00 2.3200E+00                                            2046400200298 
 2.3600E+00 3.0700E+00                                            2046400200299 
 2.3700E+00 3.2400E+00                                            2046400200300 
 2.3800E+00 2.7900E+00                                            2046400200301 
 2.3900E+00 2.8600E+00                                            2046400200302 
 2.4000E+00 2.6400E+00                                            2046400200303 
 2.4100E+00 2.4800E+00                                            2046400200304 
 2.4200E+00 2.5500E+00                                            2046400200305 
 2.4300E+00 2.8200E+00                                            2046400200306 
 2.4400E+00 3.0900E+00                                            2046400200307 
 2.4500E+00 3.2700E+00                                            2046400200308 
 2.4600E+00 3.3100E+00                                            2046400200309 
 2.4700E+00 2.9600E+00                                            2046400200310 
 2.4800E+00 3.0400E+00                                            2046400200311 
 2.4900E+00 2.5600E+00                                            2046400200312 
 2.5000E+00 3.1400E+00                                            2046400200313 
 2.5100E+00 3.1600E+00                                            2046400200314 
 2.5200E+00 2.7200E+00                                            2046400200315 
 2.5300E+00 2.6000E+00                                            2046400200316 
 2.5400E+00 3.1800E+00                                            2046400200317 
 2.5500E+00 3.7800E+00                                            2046400200318 
 2.5600E+00 3.5400E+00                                            2046400200319 
 2.5700E+00 3.3200E+00                                            2046400200320 
 2.5800E+00 3.1100E+00                                            2046400200321 
 2.5900E+00 2.9400E+00                                            2046400200322 
 2.6000E+00 2.9900E+00                                            2046400200323 
 2.6100E+00 2.8500E+00                                            2046400200324 
 2.6200E+00 3.1200E+00                                            2046400200325 
 2.6300E+00 3.3600E+00                                            2046400200326 
 2.6400E+00 3.6900E+00                                            2046400200327 
 2.6500E+00 4.4700E+00                                            2046400200328 
 2.6600E+00 4.2400E+00                                            2046400200329 
 2.6700E+00 3.8700E+00                                            2046400200330 
 2.6800E+00 3.6000E+00                                            2046400200331 
 2.6900E+00 3.5100E+00                                            2046400200332 
 2.7000E+00 3.2200E+00                                            2046400200333 
 2.7100E+00 3.3200E+00                                            2046400200334 
 2.7200E+00 3.4400E+00                                            2046400200335 
 2.7300E+00 3.2900E+00                                            2046400200336 
 2.7400E+00 2.6600E+00                                            2046400200337 
 2.7500E+00 2.8300E+00                                            2046400200338 
 2.7600E+00 3.0100E+00                                            2046400200339 
 2.7700E+00 3.0900E+00                                            2046400200340 
 2.7800E+00 3.4000E+00                                            2046400200341 
 2.7900E+00 2.6900E+00                                            2046400200342 
 2.8000E+00 2.6000E+00                                            2046400200343 
 2.8100E+00 3.5700E+00                                            2046400200344 
 2.8200E+00 3.6700E+00                                            2046400200345 
 2.8300E+00 3.3000E+00                                            2046400200346 
 2.8400E+00 2.7000E+00                                            2046400200347 
 2.8500E+00 2.2300E+00                                            2046400200348 
 2.8600E+00 2.1500E+00                                            2046400200349 
 2.8700E+00 2.2900E+00                                            2046400200350 
 2.8800E+00 2.5100E+00                                            2046400200351 
 2.8900E+00 2.6000E+00                                            2046400200352 
 2.9000E+00 2.7500E+00                                            2046400200353 
 2.9100E+00 2.9500E+00                                            2046400200354 
 2.9200E+00 2.9100E+00                                            2046400200355 
 2.9300E+00 3.0700E+00                                            2046400200356 
 2.9400E+00 3.3500E+00                                            2046400200357 
 2.9500E+00 3.3800E+00                                            2046400200358 
 2.9600E+00 3.4500E+00                                            2046400200359 
 2.9700E+00 3.5000E+00                                            2046400200360 
 2.9800E+00 3.3600E+00                                            2046400200361 
 2.9900E+00 3.3500E+00                                            2046400200362 
 3.0000E+00 3.3500E+00                                            2046400200363 
 3.0200E+00 3.4700E+00                                            2046400200364 
 3.0400E+00 3.4900E+00                                            2046400200365 
 3.0600E+00 3.3300E+00                                            2046400200366 
 3.0800E+00 3.2700E+00                                            2046400200367 
 3.1000E+00 3.6000E+00                                            2046400200368 
 3.1200E+00 3.5600E+00                                            2046400200369 
 3.1400E+00 3.2400E+00                                            2046400200370 
 3.1600E+00 3.0800E+00                                            2046400200371 
 3.1800E+00 2.8800E+00                                            2046400200372 
 3.2000E+00 3.1700E+00                                            2046400200373 
 3.2200E+00 3.4800E+00                                            2046400200374 
 3.2400E+00 3.5000E+00                                            2046400200375 
 3.2600E+00 3.5000E+00                                            2046400200376 
 3.2800E+00 3.6100E+00                                            2046400200377 
 3.3000E+00 3.4400E+00                                            2046400200378 
 3.3200E+00 3.0500E+00                                            2046400200379 
 3.3400E+00 2.9500E+00                                            2046400200380 
 3.3600E+00 3.1200E+00                                            2046400200381 
 3.3800E+00 3.1900E+00                                            2046400200382 
 3.4000E+00 3.3300E+00                                            2046400200383 
 3.4200E+00 3.3200E+00                                            2046400200384 
 3.4400E+00 2.9800E+00                                            2046400200385 
 3.4600E+00 2.8400E+00                                            2046400200386 
 3.4800E+00 2.7500E+00                                            2046400200387 
 3.5000E+00 2.6000E+00                                            2046400200388 
 3.5200E+00 2.5000E+00                                            2046400200389 
 3.5400E+00 2.2300E+00                                            2046400200390 
 3.5600E+00 2.1600E+00                                            2046400200391 
 3.5800E+00 2.3500E+00                                            2046400200392 
 3.6000E+00 2.8200E+00                                            2046400200393 
 3.6200E+00 3.4800E+00                                            2046400200394 
 3.6400E+00 3.3900E+00                                            2046400200395 
 3.6600E+00 3.4400E+00                                            2046400200396 
 3.6800E+00 3.0800E+00                                            2046400200397 
 3.7000E+00 2.8300E+00                                            2046400200398 
 3.7200E+00 3.1000E+00                                            2046400200399 
 3.7400E+00 3.1900E+00                                            2046400200400 
 3.7600E+00 3.3200E+00                                            2046400200401 
 3.7800E+00 3.2600E+00                                            2046400200402 
 3.8000E+00 3.1300E+00                                            2046400200403 
 3.8200E+00 3.0000E+00                                            2046400200404 
 3.8400E+00 3.0600E+00                                            2046400200405 
 3.8600E+00 3.6300E+00                                            2046400200406 
 3.8800E+00 3.7000E+00                                            2046400200407 
 3.9000E+00 3.4100E+00                                            2046400200408 
 3.9200E+00 3.1700E+00                                            2046400200409 
 3.9400E+00 3.2200E+00                                            2046400200410 
 3.9600E+00 2.7900E+00                                            2046400200411 
 3.9800E+00 2.7000E+00                                            2046400200412 
 4.0000E+00 3.0900E+00                                            2046400200413 
 4.0200E+00 3.1200E+00                                            2046400200414 
 4.0400E+00 2.7100E+00                                            2046400200415 
 4.0600E+00 3.2200E+00                                            2046400200416 
 4.0800E+00 2.7900E+00                                            2046400200417 
 4.1000E+00 2.4700E+00                                            2046400200418 
 4.1200E+00 2.5400E+00                                            2046400200419 
 4.1400E+00 2.7700E+00                                            2046400200420 
 4.1600E+00 3.1000E+00                                            2046400200421 
 4.1800E+00 3.1200E+00                                            2046400200422 
 4.2000E+00 3.0300E+00                                            2046400200423 
 4.2200E+00 3.0400E+00                                            2046400200424 
 4.2400E+00 3.2300E+00                                            2046400200425 
 4.2600E+00 2.9400E+00                                            2046400200426 
 4.2800E+00 3.1300E+00                                            2046400200427 
 4.3000E+00 3.0100E+00                                            2046400200428 
 4.3200E+00 2.6000E+00                                            2046400200429 
 4.3400E+00 3.4100E+00                                            2046400200430 
 4.3600E+00 2.9800E+00                                            2046400200431 
 4.3800E+00 3.0700E+00                                            2046400200432 
 4.4000E+00 3.9200E+00                                            2046400200433 
 4.4200E+00 3.4500E+00                                            2046400200434 
 4.4400E+00 3.1300E+00                                            2046400200435 
 4.4600E+00 3.0700E+00                                            2046400200436 
 4.4800E+00 3.4000E+00                                            2046400200437 
 4.5000E+00 3.3600E+00                                            2046400200438 
 4.5200E+00 3.3500E+00                                            2046400200439 
 4.5400E+00 3.4300E+00                                            2046400200440 
 4.5600E+00 3.5500E+00                                            2046400200441 
 4.5800E+00 2.9800E+00                                            2046400200442 
 4.6000E+00 2.4500E+00                                            2046400200443 
 4.6200E+00 2.7800E+00                                            2046400200444 
 4.6400E+00 3.0900E+00                                            2046400200445 
 4.6600E+00 3.2600E+00                                            2046400200446 
 4.6800E+00 3.1400E+00                                            2046400200447 
 4.7000E+00 3.3400E+00                                            2046400200448 
 4.7200E+00 3.2000E+00                                            2046400200449 
 4.7400E+00 2.4000E+00                                            2046400200450 
 4.7600E+00 2.3000E+00                                            2046400200451 
 4.7800E+00 2.4500E+00                                            2046400200452 
 4.8000E+00 2.7300E+00                                            2046400200453 
 4.8200E+00 2.8700E+00                                            2046400200454 
 4.8400E+00 3.1000E+00                                            2046400200455 
 4.8600E+00 3.6200E+00                                            2046400200456 
 4.8800E+00 3.6400E+00                                            2046400200457 
 4.9000E+00 3.2400E+00                                            2046400200458 
 4.9200E+00 2.6500E+00                                            2046400200459 
 4.9400E+00 2.5200E+00                                            2046400200460 
 4.9600E+00 3.1000E+00                                            2046400200461 
 4.9800E+00 3.2800E+00                                            2046400200462 
 5.0000E+00 3.1800E+00                                            2046400200463 
 5.0300E+00 2.7600E+00                                            2046400200464 
 5.0600E+00 3.2300E+00                                            2046400200465 
 5.0900E+00 2.7100E+00                                            2046400200466 
 5.1200E+00 2.5300E+00                                            2046400200467 
 5.1500E+00 2.8500E+00                                            2046400200468 
 5.1800E+00 2.7600E+00                                            2046400200469 
 5.2100E+00 2.6100E+00                                            2046400200470 
 5.2400E+00 2.9000E+00                                            2046400200471 
 5.2700E+00 2.6300E+00                                            2046400200472 
 5.3000E+00 2.5500E+00                                            2046400200473 
 5.3300E+00 2.6600E+00                                            2046400200474 
 5.3600E+00 2.6800E+00                                            2046400200475 
 5.3900E+00 2.7700E+00                                            2046400200476 
 5.4200E+00 3.0100E+00                                            2046400200477 
 5.4500E+00 2.9800E+00                                            2046400200478 
 5.4800E+00 3.0600E+00                                            2046400200479 
 5.5100E+00 3.0600E+00                                            2046400200480 
 5.5400E+00 2.7600E+00                                            2046400200481 
 5.5700E+00 2.2700E+00                                            2046400200482 
 5.6000E+00 2.6000E+00                                            2046400200483 
 5.6300E+00 2.3600E+00                                            2046400200484 
 5.6600E+00 2.0200E+00                                            2046400200485 
 5.6900E+00 1.9300E+00                                            2046400200486 
 5.7200E+00 2.5200E+00                                            2046400200487 
 5.7500E+00 2.3200E+00                                            2046400200488 
 5.7800E+00 2.3400E+00                                            2046400200489 
 5.8100E+00 2.7600E+00                                            2046400200490 
 5.8400E+00 2.8500E+00                                            2046400200491 
 5.8700E+00 2.6400E+00                                            2046400200492 
 5.9000E+00 2.4900E+00                                            2046400200493 
 5.9300E+00 2.7000E+00                                            2046400200494 
 5.9600E+00 2.3000E+00                                            2046400200495 
 5.9900E+00 2.4800E+00                                            2046400200496 
 6.0200E+00 3.1800E+00                                            2046400200497 
 6.0500E+00 2.2000E+00                                            2046400200498 
 6.0800E+00 2.0100E+00                                            2046400200499 
 6.1100E+00 2.5100E+00                                            2046400200500 
 6.1400E+00 2.2700E+00                                            2046400200501 
 6.1700E+00 2.1900E+00                                            2046400200502 
 6.2000E+00 2.1800E+00                                            2046400200503 
 6.2300E+00 1.9100E+00                                            2046400200504 
 6.2600E+00 2.1100E+00                                            2046400200505 
 6.2900E+00 2.6400E+00                                            2046400200506 
 6.3200E+00 2.3700E+00                                            2046400200507 
 6.3500E+00 2.1400E+00                                            2046400200508 
 6.3800E+00 2.1800E+00                                            2046400200509 
 6.4100E+00 2.2900E+00                                            2046400200510 
 6.4400E+00 2.4400E+00                                            2046400200511 
 6.4700E+00 2.5700E+00                                            2046400200512 
 6.5000E+00 2.7200E+00                                            2046400200513 
 6.5300E+00 2.8400E+00                                            2046400200514 
 6.5600E+00 2.6700E+00                                            2046400200515 
 6.5900E+00 2.3700E+00                                            2046400200516 
 6.6200E+00 1.9600E+00                                            2046400200517 
 6.6500E+00 2.0200E+00                                            2046400200518 
 6.6800E+00 2.2700E+00                                            2046400200519 
 6.7100E+00 2.1700E+00                                            2046400200520 
 6.7400E+00 2.1800E+00                                            2046400200521 
 6.7700E+00 2.5800E+00                                            2046400200522 
 6.8000E+00 2.6700E+00                                            2046400200523 
 6.8300E+00 2.4700E+00                                            2046400200524 
 6.8600E+00 2.3600E+00                                            2046400200525 
 6.8900E+00 2.2600E+00                                            2046400200526 
 6.9200E+00 2.1300E+00                                            2046400200527 
 6.9500E+00 2.1400E+00                                            2046400200528 
 6.9800E+00 2.4500E+00                                            2046400200529 
 7.0100E+00 2.4700E+00                                            2046400200530 
 7.0600E+00 1.9800E+00                                            2046400200531 
 7.1100E+00 2.1700E+00                                            2046400200532 
 7.1600E+00 2.3700E+00                                            2046400200533 
 7.2100E+00 1.9300E+00                                            2046400200534 
 7.2600E+00 1.4300E+00                                            2046400200535 
 7.3100E+00 2.1700E+00                                            2046400200536 
 7.3600E+00 2.5100E+00                                            2046400200537 
 7.4100E+00 1.7300E+00                                            2046400200538 
 7.4600E+00 1.8000E+00                                            2046400200539 
 7.5100E+00 2.2400E+00                                            2046400200540 
 7.5600E+00 2.0300E+00                                            2046400200541 
 7.6100E+00 2.2700E+00                                            2046400200542 
 7.6600E+00 2.3900E+00                                            2046400200543 
 7.7100E+00 1.9700E+00                                            2046400200544 
 7.7600E+00 2.2200E+00                                            2046400200545 
 7.8100E+00 1.2300E+00                                            2046400200546 
 7.8600E+00 1.8000E+00                                            2046400200547 
 7.9100E+00 2.7200E+00                                            2046400200548 
 7.9600E+00 1.1500E+00                                            2046400200549 
 8.0100E+00 1.1600E+00                                            2046400200550 
 8.0600E+00 1.7100E+00                                            2046400200551 
 8.1100E+00 2.1700E+00                                            2046400200552 
 8.1600E+00 1.7500E+00                                            2046400200553 
 8.2100E+00 2.4400E+00                                            2046400200554 
 8.2600E+00 2.5700E+00                                            2046400200555 
 8.3100E+00 1.9800E+00                                            2046400200556 
 8.3600E+00 2.1900E+00                                            2046400200557 
 8.4100E+00 2.5000E+00                                            2046400200558 
 8.4600E+00 2.5800E+00                                            2046400200559 
 8.5100E+00 1.7900E+00                                            2046400200560 
 8.5600E+00 1.9700E+00                                            2046400200561 
 8.6100E+00 2.0000E+00                                            2046400200562 
 8.6600E+00 9.1000E-01                                            2046400200563 
 8.7100E+00 1.5700E+00                                            2046400200564 
 8.7600E+00 2.3600E+00                                            2046400200565 
 8.8100E+00 1.7500E+00                                            2046400200566 
 8.8600E+00 2.1000E+00                                            2046400200567 
 8.9100E+00 2.4200E+00                                            2046400200568 
 8.9600E+00 1.2700E+00                                            2046400200569 
 9.0100E+00 1.3700E+00                                            2046400200570 
ENDDATA            560          0                                 2046400200571 
ENDSUBENT          570          0                                 2046400299999 
ENDENTRY             2          0                                 2046499999999 
