ENTRY            20786   20071005                             21872078600000001 
SUBENT        20786001   20071005                             21872078600100001 
BIB                 13         77                                 2078600100002 
INSTITUTE  (2GERKFK)                                              2078600100003 
REFERENCE  (R,KFK-2673,197807) Thesis of K.Kari.  Reference for   2078600100004 
            the inserted Pu-239 data. Includes also Pu-240 data.  2078600100005 
            (In German, abstract in English)                      2078600100006 
           (C,78BNL,,19781120)                                    2078600100007 
           (P,NEANDC(E)-192/U,(5),6,197804) Abstract given with   2078600100008 
            curves.                                               2078600100009 
           (W,CIERJACKS,19781025) Numerical data given.           2078600100010 
AUTHOR     (K.Kari,S.Cierjacks)                                   2078600100011 
TITLE      -Measurements of the fission cross-sections of Pu-239  2078600100012 
            and Pu-240 relative to fission cross section of U-235 2078600100013 
            and scattering cross section of H(N,P) in the neutron 2078600100014 
            energy range between 0.5 and 20 MeV  (in German)      2078600100015 
FACILITY   (CYCLO)                                                2078600100016 
METHOD     (TOF)   Measurements were carried out placing the      2078600100017 
            fission counter at the 11 metre flight path and the   2078600100018 
            flux detectors at the 57 m. Station in the same       2078600100019 
            neutron beam.                                         2078600100020 
           (STTA)  Stack target irradiation                       2078600100021 
           (COINC)                                                2078600100022 
DETECTOR   (SCIN ) Fission events were measured by gas            2078600100023 
            scintillation counters filled with an Ar-N2 mixture   2078600100024 
            in volume proportion 85% to 15%                       2078600100025 
           .The transmission of the fission detector was higher   2078600100026 
            than 99 percent.                                      2078600100027 
MONITOR    (1-H-1(N,EL)1-H-1,,SIG)                                2078600100028 
MONIT-REF  (,J.L.GAMMEL,B,FAST N.PH.,2,2185,1963) Extrapolation   2078600100029 
                                                  formula         2078600100030 
SAMPLE     .Oxide samples Pu-O2 and U3-O8 were electrodeposited   2078600100031 
            on Al or Au sheets placed on the VYNS layers          2078600100032 
            (a poly-vinyl-chloride-acetate copolymer).            2078600100033 
            Thicknesses and isotopic contents are given in proper 2078600100034 
            SUBENTRIES                                            2078600100035 
ERR-ANALYS (ERR-T) Accuracy of the absolute cross-sections is 3.0 2078600100036 
            to 3.8 percent. The errors are given in data columns. 2078600100037 
           (MONIT-ERR)  Error of the H(N,P) cross section         2078600100038 
           (ERR-1)      Error of the HYDROGEN atoms number        2078600100039 
           (ERR-2)      Average error of the H atoms losses       2078600100040 
             in radiator. Detailed values are -                   2078600100041 
               en, MeV      1-2    2-4     4-6                    2078600100042 
               error        0.7%   0.8%    0.8%                   2078600100043 
           (ERR-3)     Error of the threshold value determination 2078600100044 
             detailed values are -                                2078600100045 
            en, MeV      1-2   2-4   4-6   6-17    17-20          2078600100046 
            error        1.4%  0.5%  0.5%  0.5%     1.8%          2078600100047 
           (ERR-4)     Error of the extrapolation from eps2 to    2078600100048 
             eps1 and eps3. Detailed values are -                 2078600100049 
            en, MeV      1-2   2-4   4-6   6-17    17-20          2078600100050 
            error        0.8%  0.7%  1.8%  0.8%     1.8%          2078600100051 
           (ERR-5)     Statistical error of the neutron flux      2078600100052 
             determination. Detailed values are -                 2078600100053 
            en, MeV      1-2   2-4   4-6   6-17    17-20          2078600100054 
            error        0.8%  0.6%  0.6%  1.3%     1.2%          2078600100055 
           (ERR-6) Total error of the neutron flux determination  2078600100056 
           (ERR-7)      Error of the fission fragments angular    2078600100057 
                        distribution                              2078600100058 
           (ERR-8)      Error of the neutron scattering cross     2078600100059 
                        section determination                     2078600100060 
           (ERR-9)      Error of the background determination     2078600100061 
                   detailed values are -                          2078600100062 
            en, MeV      1-2   2-4   4-6   6-17    17-20          2078600100063 
            error        2. %  1. %  1. %  1. %     1. %          2078600100064 
           (ERR-10)     Error of the sample mass determination    2078600100065 
STATUS     .Data were taken from reference KFK-2673               2078600100066 
            and comments from NEANDC(E)-192/U,(5),7804.           2078600100067 
HISTORY    (19781106C)                                            2078600100068 
           (19781213E)                                            2078600100069 
           (19790606A) Compilation updated with ref. Kfk-2673.    2078600100070 
           (19790626E)                                            2078600100071 
           (19800917A) Subwork-6 added (pn)                       2078600100072 
           (19801015E)                                            2078600100073 
           (19830615A) Bn. In Se 006 C.S. At 2.75 MeV corrected.  2078600100074 
           (19830801E)                                            2078600100075 
           (20071005A) Date is corrected. Error structure given.  2078600100076 
             Bib-information updated. DATA-ERR to ERR-T Changed   2078600100077 
             - SM                                                 2078600100078 
           (20071005U) Last checking has been done.               2078600100079 
ENDBIB              77          0                                 2078600100080 
COMMON               6          3                                 2078600100081 
MONIT-ERR  ERR-1      ERR-2      ERR-7      ERR-8      ERR-10     2078600100082 
PER-CENT   PER-CENT   PER-CENT   PER-CENT   PER-CENT   PER-CENT   2078600100083 
        1.4        0.7       0.77        0.4        0.3         1.2078600100084 
ENDCOMMON            3          0                                 2078600100085 
ENDSUBENT           84          0                                 2078600199999 
SUBENT        20786002   20071005                             21872078600200001 
BIB                  5         12                                 2078600200002 
REACTION   (94-PU-240(N,F),,SIG)                                  2078600200003 
MONITOR    (92-U-235(N,F),,SIG)                                   2078600200004 
MONIT-REF  (20786006,K.KARI+,R,KFK-2673,1976)                     2078600200005 
ERR-ANALYS (ERR-S)  Statistical error of the Pu-240 N,fission     2078600200006 
                    cross section determination                   2078600200007 
           (ERR-11) Error of the detector efficiency determination2078600200008 
                    for Pu-240                                    2078600200009 
           (ERR-12) Error of the detector efficiency determination2078600200010 
                    for U-235                                     2078600200011 
STATUS     (TABLE)  From Table 7 of KFK-2673                      2078600200012 
           (DEP,20786003)                                         2078600200013 
           (DEP,20786006)                                         2078600200014 
ENDBIB              12          0                                 2078600200015 
COMMON               2          3                                 2078600200016 
ERR-11     ERR-12                                                 2078600200017 
PER-CENT   PER-CENT                                               2078600200018 
        1.3      1.8                                              2078600200019 
ENDCOMMON            3          0                                 2078600200020 
DATA                 9        124                                 2078600200021 
EN         DATA       ERR-T      ERR-S      ERR-3      ERR-4      2078600200022 
ERR-5      ERR-6      ERR-9                                       2078600200023 
MEV        B          PER-CENT   PER-CENT   PER-CENT   PER-CENT   2078600200024 
PER-CENT   PER-CENT   PER-CENT                                    2078600200025 
 1.0000E+00 1.4500E+00 3.8000E+00      1.1        1.4        0.8  2078600200026 
        0.8        2.5         2.                                 2078600200027 
 1.0500E+00 1.5600E+00 3.8000E+00      1.1        1.4        0.8  2078600200028 
        0.8        2.5         2.                                 2078600200029 
 1.1100E+00 1.5600E+00 3.8000E+00      1.1        1.4        0.8  2078600200030 
        0.8        2.5         2.                                 2078600200031 
 1.1700E+00 1.5900E+00 3.8000E+00      1.1        1.4        0.8  2078600200032 
        0.8        2.5         2.                                 2078600200033 
 1.2300E+00 1.6200E+00 3.8000E+00      1.1        1.4        0.8  2078600200034 
        0.8        2.5         2.                                 2078600200035 
 1.3100E+00 1.5500E+00 3.8000E+00      1.1        1.4        0.8  2078600200036 
        0.8        2.5         2.                                 2078600200037 
 1.3800E+00 1.5700E+00 3.8000E+00      1.1        1.4        0.8  2078600200038 
        0.8        2.5         2.                                 2078600200039 
 1.4700E+00 1.6400E+00 3.8000E+00      1.1        1.4        0.8  2078600200040 
        0.8        2.5         2.                                 2078600200041 
 1.5700E+00 1.6600E+00 3.8000E+00      1.1        1.4        0.8  2078600200042 
        0.8        2.5         2.                                 2078600200043 
 1.6700E+00 1.6800E+00 3.8000E+00      1.1        1.4        0.8  2078600200044 
        0.8        2.5         2.                                 2078600200045 
 1.7800E+00 1.7000E+00 3.7000E+00      1.1        1.4        0.8  2078600200046 
        0.8        2.5         2.                                 2078600200047 
 1.8800E+00 1.7100E+00 3.5000E+00      1.1        1.4        0.8  2078600200048 
        0.8        2.5         2.                                 2078600200049 
 1.9400E+00 1.7600E+00 3.5000E+00      1.1        1.4        0.8  2078600200050 
        0.8        2.5         2.                                 2078600200051 
 2.0000E+00 1.7100E+00 3.4000E+00      1.0        0.5        0.7  2078600200052 
        0.6        2.1         1.                                 2078600200053 
 2.0700E+00 1.7500E+00 3.2000E+00      1.0        0.5        0.7  2078600200054 
        0.6        2.1         1.                                 2078600200055 
 2.1400E+00 1.7500E+00 3.1000E+00      1.0        0.5        0.7  2078600200056 
        0.6        2.1         1.                                 2078600200057 
 2.2100E+00 1.7300E+00 3.1000E+00      1.0        0.5        0.7  2078600200058 
        0.6        2.1         1.                                 2078600200059 
 2.2900E+00 1.7300E+00 3.1000E+00      1.0        0.5        0.7  2078600200060 
        0.6        2.1         1.                                 2078600200061 
 2.3700E+00 1.7400E+00 3.1000E+00      1.0        0.5        0.7  2078600200062 
        0.6        2.1         1.                                 2078600200063 
 2.4600E+00 1.7100E+00 3.1000E+00      1.0        0.5        0.7  2078600200064 
        0.6        2.1         1.                                 2078600200065 
 2.5500E+00 1.7500E+00 3.1000E+00      1.0        0.5        0.7  2078600200066 
        0.6        2.1         1.                                 2078600200067 
 2.6400E+00 1.7200E+00 3.1000E+00      1.0        0.5        0.7  2078600200068 
        0.6        2.1         1.                                 2078600200069 
 2.7500E+00 1.7400E+00 3.1000E+00      1.0        0.5        0.7  2078600200070 
        0.6        2.1         1.                                 2078600200071 
 2.8500E+00 1.7600E+00 3.1000E+00      1.0        0.5        0.7  2078600200072 
        0.6        2.1         1.                                 2078600200073 
 2.9500E+00 1.7700E+00 3.1000E+00      1.0        0.5        0.7  2078600200074 
        0.6        2.1         1.                                 2078600200075 
 3.0200E+00 1.7400E+00 3.1000E+00      1.0        0.5        0.7  2078600200076 
        0.6        2.1         1.                                 2078600200077 
 3.0900E+00 1.6900E+00 3.1000E+00      1.0        0.5        0.7  2078600200078 
        0.6        2.1         1.                                 2078600200079 
 3.1700E+00 1.6900E+00 3.1000E+00      1.0        0.5        0.7  2078600200080 
        0.6        2.1         1.                                 2078600200081 
 3.2500E+00 1.7200E+00 3.1000E+00      1.0        0.5        0.7  2078600200082 
        0.6        2.1         1.                                 2078600200083 
 3.3300E+00 1.7100E+00 3.1000E+00      1.0        0.5        0.7  2078600200084 
        0.6        2.1         1.                                 2078600200085 
 3.4100E+00 1.6700E+00 3.1000E+00      1.0        0.5        0.7  2078600200086 
        0.6        2.1         1.                                 2078600200087 
 3.5000E+00 1.6700E+00 3.1000E+00      1.0        0.5        0.7  2078600200088 
        0.6        2.1         1.                                 2078600200089 
 3.6000E+00 1.6900E+00 3.2000E+00      1.0        0.5        0.7  2078600200090 
        0.6        2.1         1.                                 2078600200091 
 3.6900E+00 1.6600E+00 3.3000E+00      1.0        0.5        0.7  2078600200092 
        0.6        2.1         1.                                 2078600200093 
 3.7900E+00 1.6400E+00 3.4000E+00      1.0        0.5        0.7  2078600200094 
        0.6        2.1         1.                                 2078600200095 
 3.9000E+00 1.6300E+00 3.4000E+00      1.0        0.5        0.7  2078600200096 
        0.6        2.1         1.                                 2078600200097 
 4.0000E+00 1.6100E+00 3.5000E+00      0.9        0.5        1.8  2078600200098 
        0.6        2.7         1.                                 2078600200099 
 4.1200E+00 1.6100E+00 3.5000E+00      0.9        0.5        1.8  2078600200100 
        0.6        2.7         1.                                 2078600200101 
 4.2400E+00 1.6600E+00 3.5000E+00      0.9        0.5        1.8  2078600200102 
        0.6        2.7         1.                                 2078600200103 
 4.3600E+00 1.5900E+00 3.5000E+00      0.9        0.5        1.8  2078600200104 
        0.6        2.7         1.                                 2078600200105 
 4.4900E+00 1.6000E+00 3.5000E+00      0.9        0.5        1.8  2078600200106 
        0.6        2.7         1.                                 2078600200107 
 4.6200E+00 1.5700E+00 3.5000E+00      0.9        0.5        1.8  2078600200108 
        0.6        2.7         1.                                 2078600200109 
 4.7600E+00 1.5700E+00 3.5000E+00      0.9        0.5        1.8  2078600200110 
        0.6        2.7         1.                                 2078600200111 
 4.9100E+00 1.5200E+00 3.5000E+00      0.9        0.5        1.8  2078600200112 
        0.6        2.7         1.                                 2078600200113 
 5.0600E+00 1.5200E+00 3.5000E+00      0.9        0.5        1.8  2078600200114 
        0.6        2.7         1.                                 2078600200115 
 5.2300E+00 1.5300E+00 3.5000E+00      0.9        0.5        1.8  2078600200116 
        0.6        2.7         1.                                 2078600200117 
 5.4000E+00 1.5400E+00 3.5000E+00      0.9        0.5        1.8  2078600200118 
        0.6        2.7         1.                                 2078600200119 
 5.5700E+00 1.5600E+00 3.5000E+00      0.9        0.5        1.8  2078600200120 
        0.6        2.7         1.                                 2078600200121 
 5.7600E+00 1.6200E+00 3.7000E+00      0.9        0.5        1.8  2078600200122 
        0.6        2.7         1.                                 2078600200123 
 5.9600E+00 1.6200E+00 3.6000E+00      0.9        0.5        1.8  2078600200124 
        0.6        2.7         1.                                 2078600200125 
 6.1600E+00 1.7000E+00 3.3000E+00      0.8        0.5        0.8  2078600200126 
        1.3        2.3         1.                                 2078600200127 
 6.3800E+00 1.8100E+00 3.3000E+00      0.8        0.5        0.8  2078600200128 
        1.3        2.3         1.                                 2078600200129 
 6.6100E+00 1.9100E+00 3.3000E+00      0.8        0.5        0.8  2078600200130 
        1.3        2.3         1.                                 2078600200131 
 6.8500E+00 2.0200E+00 3.3000E+00      0.8        0.5        0.8  2078600200132 
        1.3        2.3         1.                                 2078600200133 
 7.0200E+00 2.0600E+00 3.3000E+00      0.8        0.5        0.8  2078600200134 
        1.3        2.3         1.                                 2078600200135 
 7.1100E+00 2.1000E+00 3.3000E+00      0.8        0.5        0.8  2078600200136 
        1.3        2.3         1.                                 2078600200137 
 7.2000E+00 2.0900E+00 3.3000E+00      0.8        0.5        0.8  2078600200138 
        1.3        2.3         1.                                 2078600200139 
 7.2900E+00 2.0800E+00 3.3000E+00      0.8        0.5        0.8  2078600200140 
        1.3        2.3         1.                                 2078600200141 
 7.3800E+00 2.0500E+00 3.3000E+00      0.8        0.5        0.8  2078600200142 
        1.3        2.3         1.                                 2078600200143 
 7.4700E+00 2.2100E+00 3.2000E+00      0.8        0.5        0.8  2078600200144 
        1.3        2.3         1.                                 2078600200145 
 7.5700E+00 2.1800E+00 3.2000E+00      0.8        0.5        0.8  2078600200146 
        1.3        2.3         1.                                 2078600200147 
 7.6700E+00 2.1700E+00 3.2000E+00      0.8        0.5        0.8  2078600200148 
        1.3        2.3         1.                                 2078600200149 
 7.7700E+00 2.1900E+00 3.2000E+00      0.8        0.5        0.8  2078600200150 
        1.3        2.3         1.                                 2078600200151 
 7.8700E+00 2.2200E+00 3.2000E+00      0.8        0.5        0.8  2078600200152 
        1.3        2.3         1.                                 2078600200153 
 7.9700E+00 2.2500E+00 3.2000E+00      0.8        0.5        0.8  2078600200154 
        1.3        2.3         1.                                 2078600200155 
 8.0700E+00 2.2200E+00 3.2000E+00      0.8        0.5        0.8  2078600200156 
        1.3        2.3         1.                                 2078600200157 
 8.1800E+00 2.2400E+00 3.2000E+00      0.8        0.5        0.8  2078600200158 
        1.3        2.3         1.                                 2078600200159 
 8.2900E+00 2.2300E+00 3.2000E+00      0.8        0.5        0.8  2078600200160 
        1.3        2.3         1.                                 2078600200161 
 8.4000E+00 2.2300E+00 3.2000E+00      0.8        0.5        0.8  2078600200162 
        1.3        2.3         1.                                 2078600200163 
 8.5200E+00 2.2200E+00 3.2000E+00      0.8        0.5        0.8  2078600200164 
        1.3        2.3         1.                                 2078600200165 
 8.6300E+00 2.2100E+00 3.2000E+00      0.8        0.5        0.8  2078600200166 
        1.3        2.3         1.                                 2078600200167 
 8.7500E+00 2.2200E+00 3.2000E+00      0.8        0.5        0.8  2078600200168 
        1.3        2.3         1.                                 2078600200169 
 8.8700E+00 2.2300E+00 3.2000E+00      0.8        0.5        0.8  2078600200170 
        1.3        2.3         1.                                 2078600200171 
 9.0000E+00 2.2000E+00 3.2000E+00      0.8        0.5        0.8  2078600200172 
        1.3        2.3         1.                                 2078600200173 
 9.1200E+00 2.2200E+00 3.2000E+00      0.8        0.5        0.8  2078600200174 
        1.3        2.3         1.                                 2078600200175 
 9.2500E+00 2.1800E+00 3.2000E+00      0.8        0.5        0.8  2078600200176 
        1.3        2.3         1.                                 2078600200177 
 9.3800E+00 2.2000E+00 3.2000E+00      0.8        0.5        0.8  2078600200178 
        1.3        2.3         1.                                 2078600200179 
 9.5200E+00 2.2000E+00 3.2000E+00      0.8        0.5        0.8  2078600200180 
        1.3        2.3         1.                                 2078600200181 
 9.6600E+00 2.1900E+00 3.2000E+00      0.8        0.5        0.8  2078600200182 
        1.3        2.3         1.                                 2078600200183 
 9.8000E+00 2.2100E+00 3.2000E+00      0.8        0.5        0.8  2078600200184 
        1.3        2.3         1.                                 2078600200185 
 9.9400E+00 2.2100E+00 3.2000E+00      0.8        0.5        0.8  2078600200186 
        1.3        2.3         1.                                 2078600200187 
 1.0090E+01 2.2000E+00 3.2000E+00      0.8        0.5        0.8  2078600200188 
        1.3        2.3         1.                                 2078600200189 
 1.0240E+01 2.2200E+00 3.2000E+00      0.8        0.5        0.8  2078600200190 
        1.3        2.3         1.                                 2078600200191 
 1.0390E+01 2.2100E+00 3.2000E+00      0.8        0.5        0.8  2078600200192 
        1.3        2.3         1.                                 2078600200193 
 1.0550E+01 2.1600E+00 3.2000E+00      0.8        0.5        0.8  2078600200194 
        1.3        2.3         1.                                 2078600200195 
 1.0710E+01 2.1700E+00 3.2000E+00      0.8        0.5        0.8  2078600200196 
        1.3        2.3         1.                                 2078600200197 
 1.0870E+01 2.1600E+00 3.2000E+00      0.8        0.5        0.8  2078600200198 
        1.3        2.3         1.                                 2078600200199 
 1.1040E+01 2.1400E+00 3.2000E+00      0.8        0.5        0.8  2078600200200 
        1.3        2.3         1.                                 2078600200201 
 1.1210E+01       2.15        3.2      0.8        0.5        0.8  2078600200202 
        1.3        2.3         1.                                 2078600200203 
 1.1390E+01 2.1400E+00 3.2000E+00      0.8        0.5        0.8  2078600200204 
        1.3        2.3         1.                                 2078600200205 
 1.1570E+01 2.1500E+00 3.2000E+00      0.8        0.5        0.8  2078600200206 
        1.3        2.3         1.                                 2078600200207 
 1.1750E+01 2.1400E+00 3.2000E+00      0.8        0.5        0.8  2078600200208 
        1.3        2.3         1.                                 2078600200209 
 1.1940E+01 2.1500E+00 3.2000E+00      0.8        0.5        0.8  2078600200210 
        1.3        2.3         1.                                 2078600200211 
 1.2140E+01 2.1200E+00 3.2000E+00      0.8        0.5        0.8  2078600200212 
        1.3        2.3         1.                                 2078600200213 
 1.2340E+01 2.1300E+00 3.2000E+00      0.8        0.5        0.8  2078600200214 
        1.3        2.3         1.                                 2078600200215 
 1.2540E+01 2.1100E+00 3.2000E+00      0.8        0.5        0.8  2078600200216 
        1.3        2.3         1.                                 2078600200217 
 1.2750E+01 2.0900E+00 3.2000E+00      0.8        0.5        0.8  2078600200218 
        1.3        2.3         1.                                 2078600200219 
 1.2960E+01 2.1000E+00 3.2000E+00      0.8        0.5        0.8  2078600200220 
        1.3        2.3         1.                                 2078600200221 
 1.3180E+01 2.1100E+00 3.2000E+00      0.8        0.5        0.8  2078600200222 
        1.3        2.3         1.                                 2078600200223 
 1.3410E+01 2.1300E+00 3.2000E+00      0.8        0.5        0.8  2078600200224 
        1.3        2.3         1.                                 2078600200225 
 1.3640E+01 2.1500E+00 3.2000E+00      0.8        0.5        0.8  2078600200226 
        1.3        2.3         1.                                 2078600200227 
 1.3870E+01 2.1900E+00 3.2000E+00      0.8        0.5        0.8  2078600200228 
        1.3        2.3         1.                                 2078600200229 
 1.4120E+01 2.2200E+00 3.2000E+00      0.8        0.5        0.8  2078600200230 
        1.3        2.3         1.                                 2078600200231 
 1.4370E+01 2.2300E+00 3.2000E+00      0.8        0.5        0.8  2078600200232 
        1.3        2.3         1.                                 2078600200233 
 1.4630E+01 2.2900E+00 3.2000E+00      0.8        0.5        0.8  2078600200234 
        1.3        2.3         1.                                 2078600200235 
 1.4890E+01 2.3200E+00 3.2000E+00      0.8        0.5        0.8  2078600200236 
        1.3        2.3         1.                                 2078600200237 
 1.5160E+01 2.3800E+00 3.3000E+00      0.8        0.5        0.8  2078600200238 
        1.3        2.3         1.                                 2078600200239 
 1.5440E+01 2.3000E+00 3.4000E+00      0.8        0.5        0.8  2078600200240 
        1.3        2.3         1.                                 2078600200241 
 1.5720E+01 2.3100E+00 3.4000E+00      0.8        0.5        0.8  2078600200242 
        1.3        2.3         1.                                 2078600200243 
 1.6020E+01 2.2900E+00 3.6000E+00      0.8        0.5        0.8  2078600200244 
        1.3        2.3         1.                                 2078600200245 
 1.6320E+01 2.2800E+00 3.5000E+00      0.8        0.5        0.8  2078600200246 
        1.3        2.3         1.                                 2078600200247 
 1.6630E+01 2.2600E+00 3.7000E+00      0.8        0.5        0.8  2078600200248 
        1.3        2.3         1.                                 2078600200249 
 1.6950E+01 2.2400E+00 3.8000E+00      0.8        1.8        1.8  2078600200250 
        1.2        3.3         1.                                 2078600200251 
 1.7280E+01 2.2000E+00 3.9000E+00      0.5        1.8        1.8  2078600200252 
        1.2        3.3         1.                                 2078600200253 
 1.7620E+01 2.1800E+00 3.9000E+00      0.5        1.8        1.8  2078600200254 
        1.2        3.3         1.                                 2078600200255 
 1.7970E+01 2.1600E+00 3.9000E+00      0.5        1.8        1.8  2078600200256 
        1.2        3.3         1.                                 2078600200257 
 1.8330E+01 2.1400E+00 3.9000E+00      0.5        1.8        1.8  2078600200258 
        1.2        3.3         1.                                 2078600200259 
 1.8710E+01 2.1100E+00 3.9000E+00      0.5        1.8        1.8  2078600200260 
        1.2        3.3         1.                                 2078600200261 
 1.9090E+01 2.1100E+00 3.9000E+00      0.5        1.8        1.8  2078600200262 
        1.2        3.3         1.                                 2078600200263 
 1.9490E+01 2.1100E+00 3.9000E+00      0.5        1.8        1.8  2078600200264 
        1.2        3.3         1.                                 2078600200265 
 1.9890E+01 2.1300E+00 3.9000E+00      0.5        1.8        1.8  2078600200266 
        1.2        3.3         1.                                 2078600200267 
 2.0310E+01 2.1300E+00 3.9000E+00      0.5        1.8        1.8  2078600200268 
        1.2        3.3         1.                                 2078600200269 
 2.0750E+01 2.1400E+00 3.9000E+00      0.5        1.8        1.8  2078600200270 
        1.2        3.3         1.                                 2078600200271 
 2.1200E+01 2.1200E+00 3.9000E+00      0.5        1.8        1.8  2078600200272 
        1.2        3.3         1.                                 2078600200273 
ENDDATA            252          0                                 2078600200274 
ENDSUBENT          273          0                                 2078600299999 
SUBENT        20786003   20071005                             21872078600300001 
BIB                  3          7                                 2078600300002 
REACTION   ((94-PU-240(N,F),,SIG)/(92-U-235(N,F),,SIG))           2078600300003 
SAMPLE     .Oxide Pu-O2 pressed in pellets, thickness in Pu-240   2078600300004 
            is 184.5 microgram/cm2, gold backing 15, VYNS backing 2078600300005 
            100 microgram/cm2. Isotopic content: Pu238 - 0.01%,   2078600300006 
            Pu239 - 0.74%, Pu240 - 98.39%, Pu241 - 0.58%, Pu242 - 2078600300007 
            0.28%                                                 2078600300008 
STATUS     (TABLE)  From Table 5 of KFK-2673                      2078600300009 
ENDBIB               7          0                                 2078600300010 
NOCOMMON             0          0                                 2078600300011 
DATA                 8        135                                 2078600300012 
EN         DATA       ERR-T      ERR-3      ERR-4      ERR-5      2078600300013 
ERR-6      ERR-9                                                  2078600300014 
MEV        NO-DIM     PER-CENT   PER-CENT   PER-CENT   PER-CENT   2078600300015 
PER-CENT   PER-CENT                                               2078600300016 
 4.9000E-01 3.6000E-01 2.8000E+00      1.4        0.8        0.8  2078600300017 
     2.5         2.                                               2078600300018 
 5.2000E-01 4.5000E-01 2.6000E+00      1.4        0.8        0.8  2078600300019 
     2.5         2.                                               2078600300020 
 5.5000E-01 5.2000E-01 2.6000E+00      1.4        0.8        0.8  2078600300021 
     2.5         2.                                               2078600300022 
 5.8000E-01 6.1000E-01 2.5000E+00      1.4        0.8        0.8  2078600300023 
     2.5         2.                                               2078600300024 
 6.2000E-01 6.9000E-01 2.4000E+00      1.4        0.8        0.8  2078600300025 
     2.5         2.                                               2078600300026 
 6.6000E-01 7.9000E-01 2.4000E+00      1.4        0.8        0.8  2078600300027 
     2.5         2.                                               2078600300028 
 7.1000E-01 8.4000E-01 2.4000E+00      1.4        0.8        0.8  2078600300029 
     2.5         2.                                               2078600300030 
 7.5000E-01 9.4000E-01 2.4000E+00      1.4        0.8        0.8  2078600300031 
     2.5         2.                                               2078600300032 
 8.1000E-01 1.0600E+00 2.4000E+00      1.4        0.8        0.8  2078600300033 
     2.5         2.                                               2078600300034 
 8.7000E-01 1.1700E+00 2.3000E+00      1.4        0.8        0.8  2078600300035 
     2.5         2.                                               2078600300036 
 9.4000E-01 1.2100E+00 2.3000E+00      1.4        0.8        0.8  2078600300037 
     2.5         2.                                               2078600300038 
 1.0000E+00 1.2300E+00 2.4000E+00      1.4        0.8        0.8  2078600300039 
     2.5         2.                                               2078600300040 
 1.0500E+00 1.2700E+00 2.3000E+00      1.4        0.8        0.8  2078600300041 
     2.5         2.                                               2078600300042 
 1.1100E+00 1.2600E+00 2.3000E+00      1.4        0.8        0.8  2078600300043 
     2.5         2.                                               2078600300044 
 1.1700E+00 1.2500E+00 2.3000E+00      1.4        0.8        0.8  2078600300045 
     2.5         2.                                               2078600300046 
 1.2300E+00 1.2700E+00 2.3000E+00      1.4        0.8        0.8  2078600300047 
     2.5         2.                                               2078600300048 
 1.3100E+00 1.2600E+00 2.3000E+00      1.4        0.8        0.8  2078600300049 
     2.5         2.                                               2078600300050 
 1.3800E+00 1.2500E+00 2.3000E+00      1.4        0.8        0.8  2078600300051 
     2.5         2.                                               2078600300052 
 1.4700E+00 1.2700E+00 2.3000E+00      1.4        0.8        0.8  2078600300053 
     2.5         2.                                               2078600300054 
 1.5700E+00 1.2800E+00 2.3000E+00      1.4        0.8        0.8  2078600300055 
     2.5         2.                                               2078600300056 
 1.6700E+00 1.2800E+00 2.3000E+00      1.4        0.8        0.8  2078600300057 
     2.5         2.                                               2078600300058 
 1.7800E+00 1.2900E+00 2.3000E+00      1.4        0.8        0.8  2078600300059 
     2.5         2.                                               2078600300060 
 1.8700E+00 1.2900E+00 2.4000E+00      1.4        0.8        0.8  2078600300061 
     2.5         2.                                               2078600300062 
 1.9400E+00 1.3300E+00 2.4000E+00      1.4        0.8        0.8  2078600300063 
     2.5         2.                                               2078600300064 
 2.0000E+00 1.2900E+00 2.1000E+00      0.5        0.7        0.6  2078600300065 
     2.5         1.                                               2078600300066 
 2.0700E+00 1.3100E+00 2.1000E+00      0.5        0.7        0.6  2078600300067 
     2.1         1.                                               2078600300068 
 2.1400E+00 1.3200E+00 2.0000E+00      0.5        0.7        0.6  2078600300069 
     2.1         1.                                               2078600300070 
 2.2100E+00 1.3000E+00 2.0000E+00      0.5        0.7        0.6  2078600300071 
     2.1         1.                                               2078600300072 
 2.2900E+00 1.3000E+00 2.0000E+00      0.5        0.7        0.6  2078600300073 
     2.1         1.                                               2078600300074 
 2.3700E+00 1.3300E+00 2.0000E+00      0.5        0.7        0.6  2078600300075 
     2.1         1.                                               2078600300076 
 2.4600E+00 1.3100E+00 2.0000E+00      0.5        0.7        0.6  2078600300077 
     2.1         1.                                               2078600300078 
 2.5500E+00 1.3500E+00 2.0000E+00      0.5        0.7        0.6  2078600300079 
     2.1         1.                                               2078600300080 
 2.6400E+00 1.3300E+00 2.0000E+00      0.5        0.7        0.6  2078600300081 
     2.1         1.                                               2078600300082 
 2.7500E+00 1.3500E+00 2.0000E+00      0.5        0.7        0.6  2078600300083 
     2.1         1.                                               2078600300084 
 2.8500E+00 1.3800E+00 2.0000E+00      0.5        0.7        0.6  2078600300085 
     2.1         1.                                               2078600300086 
 2.9500E+00 1.3900E+00 2.1000E+00      0.5        0.7        0.6  2078600300087 
     2.1         1.                                               2078600300088 
 3.0200E+00 1.3700E+00 2.1000E+00      0.5        0.7        0.6  2078600300089 
     2.1         1.                                               2078600300090 
 3.0900E+00 1.3500E+00 2.1000E+00      0.5        0.7        0.6  2078600300091 
     2.1         1.                                               2078600300092 
 3.1700E+00 1.3600E+00 2.1000E+00      0.5        0.7        0.6  2078600300093 
     2.1         1.                                               2078600300094 
 3.2500E+00 1.3900E+00 2.1000E+00      0.5        0.7        0.6  2078600300095 
     2.1         1.                                               2078600300096 
 3.3300E+00 1.3800E+00 2.1000E+00      0.5        0.7        0.6  2078600300097 
     2.1         1.                                               2078600300098 
 3.4100E+00 1.3600E+00 2.1000E+00      0.5        0.7        0.6  2078600300099 
     2.1         1.                                               2078600300100 
 3.5000E+00 1.3800E+00 2.1000E+00      0.5        0.7        0.6  2078600300101 
     2.1         1.                                               2078600300102 
 3.6000E+00 1.4000E+00 2.1000E+00      0.5        0.7        0.6  2078600300103 
     2.1         1.                                               2078600300104 
 3.6900E+00 1.3800E+00 2.1000E+00      0.5        0.7        0.6  2078600300105 
     2.1         1.                                               2078600300106 
 3.7900E+00 1.3700E+00 2.1000E+00      0.5        0.7        0.6  2078600300107 
     2.1         1.                                               2078600300108 
 3.9000E+00 1.3600E+00 2.1000E+00      0.5        0.7        0.6  2078600300109 
     2.1         1.                                               2078600300110 
 4.0000E+00 1.3500E+00 2.0000E+00      0.5        1.8        0.6  2078600300111 
     2.1         1.                                               2078600300112 
 4.1200E+00 1.3600E+00 2.0000E+00      0.5        1.8        0.6  2078600300113 
     2.7         1.                                               2078600300114 
 4.2400E+00 1.4100E+00 2.0000E+00      0.5        1.8        0.6  2078600300115 
     2.7         1.                                               2078600300116 
 4.3600E+00 1.3500E+00 2.0000E+00      0.5        1.8        0.6  2078600300117 
     2.7         1.                                               2078600300118 
 4.4900E+00 1.3900E+00 2.0000E+00      0.5        1.8        0.6  2078600300119 
     2.7         1.                                               2078600300120 
 4.6200E+00 1.3900E+00 2.0000E+00      0.5        1.8        0.6  2078600300121 
     2.7         1.                                               2078600300122 
 4.7600E+00 1.4000E+00 2.0000E+00      0.5        1.8        0.6  2078600300123 
     2.7         1.                                               2078600300124 
 4.9100E+00 1.4000E+00 2.0000E+00      0.5        1.8        0.6  2078600300125 
     2.7         1.                                               2078600300126 
 5.0600E+00 1.4200E+00 2.0000E+00      0.5        1.8        0.6  2078600300127 
     2.7         1.                                               2078600300128 
 5.2300E+00 1.4100E+00 2.0000E+00      0.5        1.8        0.6  2078600300129 
     2.7         1.                                               2078600300130 
 5.4000E+00 1.4400E+00 2.0000E+00      0.5        1.8        0.6  2078600300131 
     2.7         1.                                               2078600300132 
 5.5700E+00 1.4600E+00 2.0000E+00      0.5        1.8        0.6  2078600300133 
     2.7         1.                                               2078600300134 
 5.7600E+00 1.4900E+00 2.0000E+00      0.5        1.8        0.6  2078600300135 
     2.7         1.                                               2078600300136 
 5.9600E+00 1.3900E+00 2.0000E+00      0.5        1.8        0.6  2078600300137 
     2.7         1.                                               2078600300138 
 6.1600E+00 1.3600E+00 2.0000E+00      0.5        0.8        1.3  2078600300139 
     2.3         1.                                               2078600300140 
 6.3800E+00 1.3100E+00 2.0000E+00      0.5        0.8        1.3  2078600300141 
     2.3         1.                                               2078600300142 
 6.6100E+00 1.2900E+00 2.0000E+00      0.5        0.8        1.3  2078600300143 
     2.3         1.                                               2078600300144 
 6.8500E+00 1.2800E+00 2.0000E+00      0.5        0.8        1.3  2078600300145 
     2.3         1.                                               2078600300146 
 7.0200E+00 1.2800E+00 2.1000E+00      0.5        0.8        1.3  2078600300147 
     2.3         1.                                               2078600300148 
 7.1100E+00 1.2900E+00 2.1000E+00      0.5        0.8        1.3  2078600300149 
     2.3         1.                                               2078600300150 
 7.2000E+00 1.2700E+00 2.1000E+00      0.5        0.8        1.3  2078600300151 
     2.3         1.                                               2078600300152 
 7.2900E+00 1.2400E+00 2.1000E+00      0.5        0.8        1.3  2078600300153 
     2.3         1.                                               2078600300154 
 7.3800E+00 1.2000E+00 2.1000E+00      0.5        0.8        1.3  2078600300155 
     2.3         1.                                               2078600300156 
 7.4700E+00 1.2500E+00 2.1000E+00      0.5        0.8        1.3  2078600300157 
     2.3         1.                                               2078600300158 
 7.5700E+00 1.2400E+00 2.1000E+00      0.5        0.8        1.3  2078600300159 
     2.3         1.                                               2078600300160 
 7.6700E+00 1.2200E+00 2.1000E+00      0.5        0.8        1.3  2078600300161 
     2.3         1.                                               2078600300162 
 7.7700E+00 1.2200E+00 2.1000E+00      0.5        0.8        1.3  2078600300163 
     2.3         1.                                               2078600300164 
 7.8700E+00 1.2300E+00 2.1000E+00      0.5        0.8        1.3  2078600300165 
     2.3         1.                                               2078600300166 
 7.9700E+00 1.2400E+00 2.1000E+00      0.5        0.8        1.3  2078600300167 
     2.3         1.                                               2078600300168 
 8.0700E+00 1.2200E+00 2.1000E+00      0.5        0.8        1.3  2078600300169 
     2.3         1.                                               2078600300170 
 8.1800E+00 1.2300E+00 2.1000E+00      0.5        0.8        1.3  2078600300171 
     2.3         1.                                               2078600300172 
 8.2900E+00 1.2300E+00 2.0000E+00      0.5        0.8        1.3  2078600300173 
     2.3         1.                                               2078600300174 
 8.4000E+00 1.2300E+00 2.0000E+00      0.5        0.8        1.3  2078600300175 
     2.3         1.                                               2078600300176 
 8.5200E+00 1.2200E+00 2.0000E+00      0.5        0.8        1.3  2078600300177 
     2.3         1.                                               2078600300178 
 8.6300E+00 1.2100E+00 2.0000E+00      0.5        0.8        1.3  2078600300179 
     2.3         1.                                               2078600300180 
 8.7500E+00 1.2200E+00 2.0000E+00      0.5        0.8        1.3  2078600300181 
     2.3         1.                                               2078600300182 
 8.8700E+00 1.2300E+00 2.0000E+00      0.5        0.8        1.3  2078600300183 
     2.3         1.                                               2078600300184 
 9.0000E+00 1.2200E+00 2.0000E+00      0.5        0.8        1.3  2078600300185 
     2.3         1.                                               2078600300186 
 9.1200E+00 1.2300E+00 2.0000E+00      0.5        0.8        1.3  2078600300187 
     2.3         1.                                               2078600300188 
 9.2500E+00 1.2100E+00 2.0000E+00      0.5        0.8        1.3  2078600300189 
     2.3         1.                                               2078600300190 
 9.3800E+00 1.2300E+00 2.0000E+00      0.5        0.8        1.3  2078600300191 
     2.3         1.                                               2078600300192 
 9.5200E+00 1.2300E+00 2.0000E+00      0.5        0.8        1.3  2078600300193 
     2.3         1.                                               2078600300194 
 9.6600E+00 1.2300E+00 2.0000E+00      0.5        0.8        1.3  2078600300195 
     2.3         1.                                               2078600300196 
 9.8000E+00 1.2400E+00 2.0000E+00      0.5        0.8        1.3  2078600300197 
     2.3         1.                                               2078600300198 
 9.9400E+00 1.2400E+00 2.0000E+00      0.5        0.8        1.3  2078600300199 
     2.3         1.                                               2078600300200 
 1.0090E+01 1.2400E+00 2.0000E+00      0.5        0.8        1.3  2078600300201 
     2.3         1.                                               2078600300202 
 1.0240E+01 1.2600E+00 2.0000E+00      0.5        0.8        1.3  2078600300203 
     2.3         1.                                               2078600300204 
 1.0390E+01 1.2500E+00 2.0000E+00      0.5        0.8        1.3  2078600300205 
     2.3         1.                                               2078600300206 
 1.0550E+01 1.2300E+00 2.0000E+00      0.5        0.8        1.3  2078600300207 
     2.3         1.                                               2078600300208 
 1.0710E+01 1.2300E+00 2.0000E+00      0.5        0.8        1.3  2078600300209 
     2.3         1.                                               2078600300210 
 1.0870E+01 1.2300E+00 2.0000E+00      0.5        0.8        1.3  2078600300211 
     2.3         1.                                               2078600300212 
 1.1040E+01 1.2100E+00 2.0000E+00      0.5        0.8        1.3  2078600300213 
     2.3         1.                                               2078600300214 
 1.1210E+01 1.2200E+00 2.0000E+00      0.5        0.8        1.3  2078600300215 
     2.3         1.                                               2078600300216 
 1.1390E+01 1.2100E+00 2.0000E+00      0.5        0.8        1.3  2078600300217 
     2.3         1.                                               2078600300218 
 1.1570E+01 1.2100E+00 2.0000E+00      0.5        0.8        1.3  2078600300219 
     2.3         1.                                               2078600300220 
 1.1750E+01 1.2100E+00 2.0000E+00      0.5        0.8        1.3  2078600300221 
     2.3         1.                                               2078600300222 
 1.1940E+01 1.1900E+00 1.9000E+00      0.5        0.8        1.3  2078600300223 
     2.3         1.                                               2078600300224 
 1.2140E+01 1.1700E+00 1.9000E+00      0.5        0.8        1.3  2078600300225 
     2.3         1.                                               2078600300226 
 1.2340E+01 1.1500E+00 1.9000E+00      0.5        0.8        1.3  2078600300227 
     2.3         1.                                               2078600300228 
 1.2540E+01 1.1200E+00 1.9000E+00      0.5        0.8        1.3  2078600300229 
     2.3         1.                                               2078600300230 
 1.2750E+01 1.0900E+00 1.9000E+00      0.5        0.8        1.3  2078600300231 
     2.3         1.                                               2078600300232 
 1.2960E+01 1.0700E+00 1.9000E+00      0.5        0.8        1.3  2078600300233 
     2.3         1.                                               2078600300234 
 1.3180E+01 1.0500E+00 1.9000E+00      0.5        0.8        1.3  2078600300235 
     2.3         1.                                               2078600300236 
 1.3410E+01 1.0400E+00 1.9000E+00      0.5        0.8        1.3  2078600300237 
     2.3         1.                                               2078600300238 
 1.3640E+01 1.0300E+00 1.9000E+00      0.5        0.8        1.3  2078600300239 
     2.3         1.                                               2078600300240 
 1.3870E+01 1.0300E+00 1.9000E+00      0.5        0.8        1.3  2078600300241 
     2.3         1.                                               2078600300242 
 1.4120E+01 1.0400E+00 1.9000E+00      0.5        0.8        1.3  2078600300243 
     2.3         1.                                               2078600300244 
 1.4370E+01 1.0300E+00 1.9000E+00      0.5        0.8        1.3  2078600300245 
     2.3         1.                                               2078600300246 
 1.4630E+01 1.0500E+00 1.9000E+00      0.5        0.8        1.3  2078600300247 
     2.3         1.                                               2078600300248 
 1.4890E+01 1.0600E+00 1.9000E+00      0.5        0.8        1.3  2078600300249 
     2.3         1.                                               2078600300250 
 1.5160E+01 1.0900E+00 1.9000E+00      0.5        0.8        1.3  2078600300251 
     2.3         1.                                               2078600300252 
 1.5440E+01 1.0600E+00 1.9000E+00      0.5        0.8        1.3  2078600300253 
     2.3         1.                                               2078600300254 
 1.5720E+01 1.0700E+00 1.9000E+00      0.5        0.8        1.3  2078600300255 
     2.3         1.                                               2078600300256 
 1.6020E+01 1.0700E+00 1.9000E+00      0.5        0.8        1.3  2078600300257 
     2.3         1.                                               2078600300258 
 1.6320E+01 1.0800E+00 1.9000E+00      0.5        0.8        1.3  2078600300259 
     2.3         1.                                               2078600300260 
 1.6630E+01 1.0900E+00 1.9000E+00      0.5        0.8        1.3  2078600300261 
     2.3         1.                                               2078600300262 
 1.6950E+01 1.0900E+00 1.9000E+00      0.5        0.8        1.3  2078600300263 
     2.3         1.                                               2078600300264 
 1.7280E+01 1.0900E+00 1.8000E+00      1.8        1.8        1.2  2078600300265 
     3.3         1.                                               2078600300266 
 1.7620E+01 1.1000E+00 1.8000E+00      1.8        1.8        1.2  2078600300267 
     3.3         1.                                               2078600300268 
 1.7970E+01 1.1100E+00 1.8000E+00      1.8        1.8        1.2  2078600300269 
     3.3         1.                                               2078600300270 
 1.8330E+01 1.1200E+00 1.8000E+00      1.8        1.8        1.2  2078600300271 
     3.3         1.                                               2078600300272 
 1.8710E+01 1.1100E+00 1.8000E+00      1.8        1.8        1.2  2078600300273 
     3.3         1.                                               2078600300274 
 1.9090E+01 1.1100E+00 1.8000E+00      1.8        1.8        1.2  2078600300275 
     3.3         1.                                               2078600300276 
 1.9490E+01 1.1100E+00 1.8000E+00      1.8        1.8        1.2  2078600300277 
     3.3         1.                                               2078600300278 
 1.9890E+01 1.1100E+00 1.8000E+00      1.8        1.8        1.2  2078600300279 
     3.3         1.                                               2078600300280 
 2.0310E+01 1.1000E+00 1.8000E+00      1.8        1.8        1.2  2078600300281 
     3.3         1.                                               2078600300282 
 2.0750E+01 1.1000E+00 1.8000E+00      1.8        1.8        1.2  2078600300283 
     3.3         1.                                               2078600300284 
 2.1200E+01 1.0900E+00 1.8000E+00      1.8        1.8        1.2  2078600300285 
     3.3         1.                                               2078600300286 
ENDDATA            274          0                                 2078600300287 
ENDSUBENT          286          0                                 2078600399999 
SUBENT        20786004   20071005                             21872078600400001 
BIB                  5         12                                 2078600400002 
REACTION   (94-PU-239(N,F),,SIG)                                  2078600400003 
MONITOR    (92-U-235(N,F),,SIG)                                   2078600400004 
MONIT-REF  (20786006,K.KARI+,R,KFK-2673,1976)                     2078600400005 
ERR-ANALYS (ERR-S)  Statistical error of the Pu-239 N,fission     2078600400006 
                    cross section determination                   2078600400007 
           (ERR-11) Error of the detector efficiency determination2078600400008 
                    for PU-239                                    2078600400009 
           (ERR-12) Error of the detector efficiency determination2078600400010 
                    for U-235                                     2078600400011 
STATUS     (TABLE)  .Table 6 in ref. KFK-2673.                    2078600400012 
           (DEP,20786005)                                         2078600400013 
           (DEP,20786006)                                         2078600400014 
ENDBIB              12          0                                 2078600400015 
COMMON               2          3                                 2078600400016 
ERR-11     ERR-12                                                 2078600400017 
PER-CENT   PER-CENT                                               2078600400018 
        1.6      1.8                                              2078600400019 
ENDCOMMON            3          0                                 2078600400020 
DATA                 9        168                                 2078600400021 
EN         DATA       ERR-T      ERR-S      ERR-3      ERR-4      2078600400022 
ERR-5      ERR-6      ERR-9                                       2078600400023 
MEV        B          PER-CENT   PER-CENT   PER-CENT   PER-CENT   2078600400024 
PER-CENT   PER-CENT   PER-CENT                                    2078600400025 
 9.9000E-01 1.6100E+00 3.9000E+00      1.0        1.4        0.8  2078600400026 
      0.8       2.5         2.                                    2078600400027 
 1.0100E+00 1.6500E+00 3.9000E+00      1.0        1.4        0.8  2078600400028 
      0.8       2.5         2.                                    2078600400029 
 1.0200E+00 1.6700E+00 3.9000E+00      1.0        1.4        0.8  2078600400030 
      0.8       2.5         2.                                    2078600400031 
 1.0400E+00 1.6800E+00 3.9000E+00      1.0        1.4        0.8  2078600400032 
      0.8       2.5         2.                                    2078600400033 
 1.0600E+00 1.7400E+00 3.9000E+00      1.0        1.4        0.8  2078600400034 
      0.8       2.5         2.                                    2078600400035 
 1.0700E+00 1.7600E+00 3.9000E+00      1.0        1.4        0.8  2078600400036 
      0.8       2.5         2.                                    2078600400037 
 1.0800E+00 1.7300E+00 3.9000E+00      1.0        1.4        0.8  2078600400038 
      0.8       2.5         2.                                    2078600400039 
 1.1000E+00 1.7400E+00 3.9000E+00      1.0        1.4        0.8  2078600400040 
      0.8       2.5         2.                                    2078600400041 
 1.1100E+00 1.7300E+00 3.9000E+00      1.0        1.4        0.8  2078600400042 
      0.8       2.5         2.                                    2078600400043 
 1.1300E+00 1.7700E+00 3.9000E+00      1.0        1.4        0.8  2078600400044 
      0.8       2.5         2.                                    2078600400045 
 1.1500E+00 1.8000E+00 3.9000E+00      1.0        1.4        0.8  2078600400046 
      0.8       2.5         2.                                    2078600400047 
 1.1600E+00 1.8200E+00 3.9000E+00      1.0        1.4        0.8  2078600400048 
      0.8       2.5         2.                                    2078600400049 
 1.1800E+00 1.8300E+00 3.9000E+00      1.0        1.4        0.8  2078600400050 
      0.8       2.5         2.                                    2078600400051 
 1.2000E+00 1.8400E+00 3.9000E+00      1.0        1.4        0.8  2078600400052 
      0.8       2.5         2.                                    2078600400053 
 1.2200E+00 1.8900E+00 3.9000E+00      1.0        1.4        0.8  2078600400054 
      0.8       2.5         2.                                    2078600400055 
 1.2400E+00 1.8800E+00 3.9000E+00      1.0        1.4        0.8  2078600400056 
      0.8       2.5         2.                                    2078600400057 
 1.2600E+00 1.8700E+00 3.9000E+00      1.0        1.4        0.8  2078600400058 
      0.8       2.5         2.                                    2078600400059 
 1.2800E+00 1.8800E+00 3.9000E+00      1.0        1.4        0.8  2078600400060 
      0.8       2.5         2.                                    2078600400061 
 1.3000E+00 1.8600E+00 3.9000E+00      1.0        1.4        0.8  2078600400062 
      0.8       2.5         2.                                    2078600400063 
 1.3200E+00 1.8800E+00 3.9000E+00      1.0        1.4        0.8  2078600400064 
      0.8       2.5         2.                                    2078600400065 
 1.3400E+00 1.8700E+00 3.9000E+00      1.0        1.4        0.8  2078600400066 
      0.8       2.5         2.                                    2078600400067 
 1.3600E+00 1.8800E+00 3.9000E+00      1.0        1.4        0.8  2078600400068 
      0.8       2.5         2.                                    2078600400069 
 1.3800E+00 1.8700E+00 3.9000E+00      1.0        1.4        0.8  2078600400070 
      0.8       2.5         2.                                    2078600400071 
 1.3800E+00 1.9200E+00 3.9000E+00      1.0        1.4        0.8  2078600400072 
      0.8       2.5         2.                                    2078600400073 
 1.4100E+00 1.9400E+00 3.9000E+00      1.0        1.4        0.8  2078600400074 
      0.8       2.5         2.                                    2078600400075 
 1.4300E+00 1.9400E+00 3.9000E+00      1.0        1.4        0.8  2078600400076 
      0.8       2.5         2.                                    2078600400077 
 1.4500E+00 1.9400E+00 3.9000E+00      1.0        1.4        0.8  2078600400078 
      0.8       2.5         2.                                    2078600400079 
 1.4800E+00 1.9500E+00 3.9000E+00      1.0        1.4        0.8  2078600400080 
      0.8       2.5         2.                                    2078600400081 
 1.5000E+00 1.9400E+00 3.9000E+00      1.0        1.4        0.8  2078600400082 
      0.8       2.5         2.                                    2078600400083 
 1.5300E+00 1.9600E+00 3.9000E+00      1.0        1.4        0.8  2078600400084 
      0.8       2.5         2.                                    2078600400085 
 1.5600E+00 1.9400E+00 3.9000E+00      1.0        1.4        0.8  2078600400086 
      0.8       2.5         2.                                    2078600400087 
 1.5800E+00 1.9400E+00 3.9000E+00      1.0        1.4        0.8  2078600400088 
      0.8       2.5         2.                                    2078600400089 
 1.6100E+00 1.9500E+00 3.9000E+00      1.0        1.4        0.8  2078600400090 
      0.8       2.5         2.                                    2078600400091 
 1.6400E+00 1.9400E+00 3.9000E+00      1.0        1.4        0.8  2078600400092 
      0.8       2.5         2.                                    2078600400093 
 1.6700E+00 1.9800E+00 3.9000E+00      1.0        1.4        0.8  2078600400094 
      0.8       2.5         2.                                    2078600400095 
 1.7000E+00 1.9900E+00 3.9000E+00      1.0        1.4        0.8  2078600400096 
      0.8       2.5         2.                                    2078600400097 
 1.7300E+00 1.9800E+00 3.9000E+00      1.0        1.4        0.8  2078600400098 
      0.8       2.5         2.                                    2078600400099 
 1.7700E+00 1.9800E+00 3.9000E+00      1.0        1.4        0.8  2078600400100 
      0.8       2.5         2.                                    2078600400101 
 1.8000E+00 1.9900E+00 3.9000E+00      1.0        1.4        0.8  2078600400102 
      0.8       2.5         2.                                    2078600400103 
 1.8300E+00 1.9800E+00 3.9000E+00      1.0        1.4        0.8  2078600400104 
      0.8       2.5         2.                                    2078600400105 
 1.8700E+00 1.9700E+00 3.9000E+00      1.0        1.4        0.8  2078600400106 
      0.8       2.5         2.                                    2078600400107 
 1.9000E+00 1.9800E+00 3.9000E+00      1.0        1.4        0.8  2078600400108 
      0.8       2.5         2.                                    2078600400109 
 1.9400E+00 1.9500E+00 3.9000E+00      1.0        1.4        0.8  2078600400110 
      0.8       2.5         2.                                    2078600400111 
 1.9800E+00 1.9800E+00 3.9000E+00      1.0        1.4        0.8  2078600400112 
      0.8       2.5         2.                                    2078600400113 
 2.0200E+00 1.9800E+00 3.9000E+00      0.9        0.5        0.7  2078600400114 
      0.6       2.1         1.                                    2078600400115 
 2.0600E+00 1.9900E+00 3.8000E+00      0.9        0.5        0.7  2078600400116 
      0.6       2.1         1.                                    2078600400117 
 2.1000E+00 2.0000E+00 3.7000E+00      0.9        0.5        0.7  2078600400118 
      0.6       2.1         1.                                    2078600400119 
 2.1400E+00 1.9800E+00 3.8000E+00      0.9        0.5        0.7  2078600400120 
      0.6       2.1         1.                                    2078600400121 
 2.1900E+00 1.9800E+00 3.7000E+00      0.9        0.5        0.7  2078600400122 
      0.6       2.1         1.                                    2078600400123 
 2.2400E+00 1.9800E+00 3.6000E+00      0.9        0.5        0.7  2078600400124 
      0.6       2.1         1.                                    2078600400125 
 2.2800E+00 1.9800E+00 3.5000E+00      0.9        0.5        0.7  2078600400126 
      0.6       2.1         1.                                    2078600400127 
 2.3300E+00 1.9800E+00 3.3000E+00      0.9        0.5        0.7  2078600400128 
      0.6       2.1         1.                                    2078600400129 
 2.3800E+00 1.9700E+00 3.4000E+00      0.9        0.5        0.7  2078600400130 
      0.6       2.1         1.                                    2078600400131 
 2.4300E+00 1.9400E+00 3.3000E+00      0.9        0.5        0.7  2078600400132 
      0.6       2.1         1.                                    2078600400133 
 2.4900E+00 1.9600E+00 3.2000E+00      0.9        0.5        0.7  2078600400134 
      0.6       2.1         1.                                    2078600400135 
 2.5400E+00 1.9300E+00 3.2000E+00      0.9        0.5        0.7  2078600400136 
      0.6       2.1         1.                                    2078600400137 
 2.6000E+00 1.9200E+00 3.2000E+00      0.9        0.5        0.7  2078600400138 
      0.6       2.1         1.                                    2078600400139 
 2.6600E+00 1.9000E+00 3.2000E+00      0.9        0.5        0.7  2078600400140 
      0.6       2.1         1.                                    2078600400141 
 2.7200E+00 1.8900E+00 3.2000E+00      0.9        0.5        0.7  2078600400142 
      0.6       2.1         1.                                    2078600400143 
 2.7900E+00 1.9100E+00 3.2000E+00      0.9        0.5        0.7  2078600400144 
      0.6       2.1         1.                                    2078600400145 
 2.8500E+00 1.9100E+00 3.2000E+00      0.9        0.5        0.7  2078600400146 
      0.6       2.1         1.                                    2078600400147 
 2.9200E+00 1.8900E+00 3.2000E+00      0.9        0.5        0.7  2078600400148 
      0.6       2.1         1.                                    2078600400149 
 2.9900E+00 1.8900E+00 3.2000E+00      0.9        0.5        0.7  2078600400150 
      0.6       2.1         1.                                    2078600400151 
 3.0600E+00 1.8800E+00 3.2000E+00      0.9        0.5        0.7  2078600400152 
      0.6       2.1         1.                                    2078600400153 
 3.1400E+00 1.8600E+00 3.2000E+00      0.9        0.5        0.7  2078600400154 
      0.6       2.1         1.                                    2078600400155 
 3.2200E+00 1.8600E+00 3.2000E+00      0.9        0.5        0.7  2078600400156 
      0.6       2.1         1.                                    2078600400157 
 3.3000E+00 1.8500E+00 3.2000E+00      0.9        0.5        0.7  2078600400158 
      0.6       2.1         1.                                    2078600400159 
 3.3900E+00 1.8500E+00 3.2000E+00      0.9        0.5        0.7  2078600400160 
      0.6       2.1         1.                                    2078600400161 
 3.4800E+00 1.8200E+00 3.2000E+00      0.9        0.5        0.7  2078600400162 
      0.6       2.1         1.                                    2078600400163 
 3.5700E+00 1.8300E+00 3.2000E+00      0.9        0.5        0.7  2078600400164 
      0.6       2.1         1.                                    2078600400165 
 3.6600E+00 1.8000E+00 3.2000E+00      0.9        0.5        0.7  2078600400166 
      0.6       2.1         1.                                    2078600400167 
 3.7600E+00 1.7900E+00 3.2000E+00      0.9        0.5        0.7  2078600400168 
      0.6       2.1         1.                                    2078600400169 
 3.8700E+00 1.8100E+00 3.2000E+00      0.9        0.5        0.7  2078600400170 
      0.6       2.1         1.                                    2078600400171 
 3.9800E+00 1.7800E+00 3.2000E+00      0.9        0.5        0.7  2078600400172 
      0.6       2.1         1.                                    2078600400173 
 4.0900E+00 1.7800E+00 3.4000E+00      0.7        0.5        1.8  2078600400174 
      0.6       2.7         1.                                    2078600400175 
 4.2100E+00 1.7700E+00 3.4000E+00      0.7        0.5        1.8  2078600400176 
      0.6       2.7         1.                                    2078600400177 
 4.3300E+00 1.7700E+00 3.4000E+00      0.7        0.5        1.8  2078600400178 
      0.6       2.7         1.                                    2078600400179 
 4.4600E+00 1.7500E+00 3.4000E+00      0.7        0.5        1.8  2078600400180 
      0.6       2.7         1.                                    2078600400181 
 4.5900E+00 1.7200E+00 3.4000E+00      0.7        0.5        1.8  2078600400182 
      0.6       2.7         1.                                    2078600400183 
 4.7300E+00 1.7200E+00 3.4000E+00      0.7        0.5        1.8  2078600400184 
      0.6       2.7         1.                                    2078600400185 
 4.8800E+00 1.6700E+00 3.4000E+00      0.7        0.5        1.8  2078600400186 
      0.6       2.7         1.                                    2078600400187 
 5.0400E+00 1.6400E+00 3.4000E+00      0.7        0.5        1.8  2078600400188 
      0.6       2.7         1.                                    2078600400189 
 5.2000E+00 1.6800E+00 3.4000E+00      0.7        0.5        1.8  2078600400190 
      0.6       2.7         1.                                    2078600400191 
 5.3700E+00 1.6700E+00 3.4000E+00      0.7        0.5        1.8  2078600400192 
      0.6       2.7         1.                                    2078600400193 
 5.5500E+00 1.6700E+00 3.4000E+00      0.7        0.5        1.8  2078600400194 
      0.6       2.7         1.                                    2078600400195 
 5.7300E+00 1.6800E+00 3.4000E+00      0.7        0.5        1.8  2078600400196 
      0.6       2.7         1.                                    2078600400197 
 5.9300E+00 1.7400E+00 3.4000E+00      0.7        0.5        1.8  2078600400198 
      0.6       2.7         1.                                    2078600400199 
 6.0700E+00 1.7600E+00 3.2000E+00      0.6        0.5        0.8  2078600400200 
      1.3       2.3         1.                                    2078600400201 
 6.1400E+00 1.7900E+00 3.2000E+00      0.6        0.5        0.8  2078600400202 
      1.3       2.3         1.                                    2078600400203 
 6.2100E+00 1.8000E+00 3.2000E+00      0.6        0.5        0.8  2078600400204 
      1.3       2.3         1.                                    2078600400205 
 6.2800E+00 1.8400E+00 3.2000E+00      0.6        0.5        0.8  2078600400206 
      1.3       2.3         1.                                    2078600400207 
 6.3500E+00 1.8700E+00 3.2000E+00      0.6        0.5        0.8  2078600400208 
      1.3       2.3         1.                                    2078600400209 
 6.4300E+00 1.9000E+00 3.2000E+00      0.6        0.5        0.8  2078600400210 
      1.3       2.3         1.                                    2078600400211 
 6.5100E+00 1.9200E+00 3.2000E+00      0.6        0.5        0.8  2078600400212 
      1.3       2.3         1.                                    2078600400213 
 6.5800E+00 1.9300E+00 3.2000E+00      0.6        0.5        0.8  2078600400214 
      1.3       2.3         1.                                    2078600400215 
 6.6600E+00 1.9700E+00 3.2000E+00      0.6        0.5        0.8  2078600400216 
      1.3       2.3         1.                                    2078600400217 
 6.7500E+00 2.0000E+00 3.2000E+00      0.6        0.5        0.8  2078600400218 
      1.3       2.3         1.                                    2078600400219 
 6.8300E+00 2.0200E+00 3.2000E+00      0.6        0.5        0.8  2078600400220 
      1.3       2.3         1.                                    2078600400221 
 6.9100E+00 2.0200E+00 3.2000E+00      0.6        0.5        0.8  2078600400222 
      1.3       2.3         1.                                    2078600400223 
 7.0000E+00 2.0400E+00 3.2000E+00      0.6        0.5        0.8  2078600400224 
      1.3       2.3         1.                                    2078600400225 
 7.0800E+00 2.0200E+00 3.2000E+00      0.6        0.5        0.8  2078600400226 
      1.3       2.3         1.                                    2078600400227 
 7.1700E+00 2.0300E+00 3.2000E+00      0.6        0.5        0.8  2078600400228 
      1.3       2.3         1.                                    2078600400229 
 7.2600E+00 2.0900E+00 3.2000E+00      0.6        0.5        0.8  2078600400230 
      1.3       2.3         1.                                    2078600400231 
 7.3600E+00 2.1200E+00 3.2000E+00      0.6        0.5        0.8  2078600400232 
      1.3       2.3         1.                                    2078600400233 
 7.4500E+00 2.1300E+00 3.2000E+00      0.6        0.5        0.8  2078600400234 
      1.3       2.3         1.                                    2078600400235 
 7.5500E+00 2.1400E+00 3.2000E+00      0.6        0.5        0.8  2078600400236 
      1.3       2.3         1.                                    2078600400237 
 7.6400E+00 2.1700E+00 3.2000E+00      0.6        0.5        0.8  2078600400238 
      1.3       2.3         1.                                    2078600400239 
 7.7400E+00 2.1900E+00 3.2000E+00      0.6        0.5        0.8  2078600400240 
      1.3       2.3         1.                                    2078600400241 
 7.8400E+00 2.2000E+00 3.2000E+00      0.6        0.5        0.8  2078600400242 
      1.3       2.3         1.                                    2078600400243 
 7.9500E+00 2.2400E+00 3.2000E+00      0.6        0.5        0.8  2078600400244 
      1.3       2.3         1.                                    2078600400245 
 8.0500E+00 2.2100E+00 3.2000E+00      0.6        0.5        0.8  2078600400246 
      1.3       2.3         1.                                    2078600400247 
 8.1600E+00 2.2300E+00 3.2000E+00      0.6        0.5        0.8  2078600400248 
      1.3       2.3         1.                                    2078600400249 
 8.2700E+00 2.2400E+00 3.2000E+00      0.6        0.5        0.8  2078600400250 
      1.3       2.3         1.                                    2078600400251 
 8.3800E+00 2.2100E+00 3.2000E+00      0.6        0.5        0.8  2078600400252 
      1.3       2.3         1.                                    2078600400253 
 8.5000E+00 2.2100E+00 3.2000E+00      0.6        0.5        0.8  2078600400254 
      1.3       2.3         1.                                    2078600400255 
 8.6200E+00 2.2200E+00 3.2000E+00      0.6        0.5        0.8  2078600400256 
      1.3       2.3         1.                                    2078600400257 
 8.7300E+00 2.2300E+00 3.2000E+00      0.6        0.5        0.8  2078600400258 
      1.3       2.3         1.                                    2078600400259 
 8.8600E+00 2.2200E+00 3.2000E+00      0.6        0.5        0.8  2078600400260 
      1.3       2.3         1.                                    2078600400261 
 8.9800E+00 2.2200E+00 3.2000E+00      0.6        0.5        0.8  2078600400262 
      1.3       2.3         1.                                    2078600400263 
 9.1100E+00 2.2100E+00 3.2000E+00      0.6        0.5        0.8  2078600400264 
      1.3       2.3         1.                                    2078600400265 
 9.2400E+00 2.2200E+00 3.2000E+00      0.6        0.5        0.8  2078600400266 
      1.3       2.3         1.                                    2078600400267 
 9.3700E+00 2.2300E+00 3.2000E+00      0.6        0.5        0.8  2078600400268 
      1.3       2.3         1.                                    2078600400269 
 9.5100E+00 2.2300E+00 3.2000E+00      0.6        0.5        0.8  2078600400270 
      1.3       2.3         1.                                    2078600400271 
 9.6400E+00 2.2500E+00 3.2000E+00      0.6        0.5        0.8  2078600400272 
      1.3       2.3         1.                                    2078600400273 
 9.7900E+00 2.2200E+00 3.2000E+00      0.6        0.5        0.8  2078600400274 
      1.3       2.3         1.                                    2078600400275 
 9.9300E+00 2.2100E+00 3.2000E+00      0.6        0.5        0.8  2078600400276 
      1.3       2.3         1.                                    2078600400277 
 1.0080E+01 2.2100E+00 3.2000E+00      0.6        0.5        0.8  2078600400278 
      1.3       2.3         1.                                    2078600400279 
 1.0230E+01 2.2300E+00 3.2000E+00      0.6        0.5        0.8  2078600400280 
      1.3       2.3         1.                                    2078600400281 
 1.0380E+01 2.2300E+00 3.2000E+00      0.6        0.5        0.8  2078600400282 
      1.3       2.3         1.                                    2078600400283 
 1.0540E+01 2.2100E+00 3.2000E+00      0.6        0.5        0.8  2078600400284 
      1.3       2.3         1.                                    2078600400285 
 1.0710E+01 2.2000E+00 3.2000E+00      0.6        0.5        0.8  2078600400286 
      1.3       2.3         1.                                    2078600400287 
 1.0870E+01 2.2000E+00 3.2000E+00      0.6        0.5        0.8  2078600400288 
      1.3       2.3         1.                                    2078600400289 
 1.1040E+01 2.2200E+00 3.2000E+00      0.6        0.5        0.8  2078600400290 
      1.3       2.3         1.                                    2078600400291 
 1.1210E+01 2.2100E+00 3.2000E+00      0.6        0.5        0.8  2078600400292 
      1.3       2.3         1.                                    2078600400293 
 1.1390E+01 2.2100E+00 3.2000E+00      0.6        0.5        0.8  2078600400294 
      1.3       2.3         1.                                    2078600400295 
 1.1570E+01 2.2100E+00 3.2000E+00      0.6        0.5        0.8  2078600400296 
      1.3       2.3         1.                                    2078600400297 
 1.1760E+01 2.2000E+00 3.2000E+00      0.6        0.5        0.8  2078600400298 
      1.3       2.3         1.                                    2078600400299 
 1.1950E+01 2.2000E+00 3.2000E+00      0.6        0.5        0.8  2078600400300 
      1.3       2.3         1.                                    2078600400301 
 1.2150E+01 2.2100E+00 3.2000E+00      0.6        0.5        0.8  2078600400302 
      1.3       2.3         1.                                    2078600400303 
 1.2350E+01 2.2100E+00 3.2000E+00      0.6        0.5        0.8  2078600400304 
      1.3       2.3         1.                                    2078600400305 
 1.2550E+01 2.2200E+00 3.2000E+00      0.6        0.5        0.8  2078600400306 
      1.3       2.3         1.                                    2078600400307 
 1.2770E+01 2.2300E+00 3.2000E+00      0.6        0.5        0.8  2078600400308 
      1.3       2.3         1.                                    2078600400309 
 1.2980E+01 2.2500E+00 3.2000E+00      0.6        0.5        0.8  2078600400310 
      1.3       2.3         1.                                    2078600400311 
 1.3200E+01 2.3000E+00 3.2000E+00      0.6        0.5        0.8  2078600400312 
      1.3       2.3         1.                                    2078600400313 
 1.3430E+01 2.2800E+00 3.2000E+00      0.6        0.5        0.8  2078600400314 
      1.3       2.3         1.                                    2078600400315 
 1.3670E+01 2.3000E+00 3.2000E+00      0.6        0.5        0.8  2078600400316 
      1.3       2.3         1.                                    2078600400317 
 1.3910E+01 2.3300E+00 3.2000E+00      0.6        0.5        0.8  2078600400318 
      1.3       2.3         1.                                    2078600400319 
 1.4150E+01 2.3300E+00 3.2000E+00      0.6        0.5        0.8  2078600400320 
      1.3       2.3         1.                                    2078600400321 
 1.4410E+01 2.3400E+00 3.2000E+00      0.6        0.5        0.8  2078600400322 
      1.3       2.3         1.                                    2078600400323 
 1.4670E+01 2.3900E+00 3.2000E+00      0.6        0.5        0.8  2078600400324 
      1.3       2.3         1.                                    2078600400325 
 1.4930E+01 2.3900E+00 3.2000E+00      0.6        0.5        0.8  2078600400326 
      1.3       2.3         1.                                    2078600400327 
 1.5210E+01 2.3900E+00 3.2000E+00      0.6        0.5        0.8  2078600400328 
      1.3       2.3         1.                                    2078600400329 
 1.5490E+01 2.4000E+00 3.2000E+00      0.6        0.5        0.8  2078600400330 
      1.3       2.3         1.                                    2078600400331 
 1.5780E+01 2.3900E+00 3.2000E+00      0.6        0.5        0.8  2078600400332 
      1.3       2.3         1.                                    2078600400333 
 1.6080E+01 2.3800E+00 3.2000E+00      0.6        0.5        0.8  2078600400334 
      1.3       2.3         1.                                    2078600400335 
 1.6390E+01 2.3500E+00 3.5000E+00      0.6        0.5        0.8  2078600400336 
      1.3       2.3         1.                                    2078600400337 
 1.6700E+01 2.3400E+00 3.6000E+00      0.6        0.5        0.8  2078600400338 
      1.3       2.3         1.                                    2078600400339 
 1.7030E+01 2.3200E+00 3.8000E+00      0.4        1.8        1.8  2078600400340 
      1.2       3.3         1.                                    2078600400341 
 1.7360E+01 2.2900E+00 3.9000E+00      0.4        1.8        1.8  2078600400342 
      1.2       3.3         1.                                    2078600400343 
 1.7710E+01 2.2600E+00 4.0000E+00      0.4        1.8        1.8  2078600400344 
      1.2       3.3         1.                                    2078600400345 
 1.8070E+01 2.2400E+00 4.0000E+00      0.4        1.8        1.8  2078600400346 
      1.2       3.3         1.                                    2078600400347 
 1.8430E+01 2.2200E+00 4.0000E+00      0.4        1.8        1.8  2078600400348 
      1.2       3.3         1.                                    2078600400349 
 1.8810E+01 2.2000E+00 4.0000E+00      0.4        1.8        1.8  2078600400350 
      1.2       3.3         1.                                    2078600400351 
 1.9200E+01 2.2200E+00 4.0000E+00      0.4        1.8        1.8  2078600400352 
      1.2       3.3         1.                                    2078600400353 
 1.9600E+01 2.2000E+00 4.0000E+00      0.4        1.8        1.8  2078600400354 
      1.2       3.3         1.                                    2078600400355 
 2.0020E+01 2.2200E+00 4.0000E+00      0.4        1.8        1.8  2078600400356 
      1.2       3.3         1.                                    2078600400357 
 2.0450E+01 2.2200E+00 4.0000E+00      0.4        1.8        1.8  2078600400358 
      1.2       3.3         1.                                    2078600400359 
 2.0890E+01 2.2400E+00 4.0000E+00      0.4        1.8        1.8  2078600400360 
      1.2       3.3         1.                                    2078600400361 
ENDDATA            340          0                                 2078600400362 
ENDSUBENT          361          0                                 2078600499999 
SUBENT        20786005   20071005                             21872078600500001 
BIB                  3          7                                 2078600500002 
REACTION   ((94-PU-239(N,F),,SIG)/(92-U-235(N,F),,SIG))           2078600500003 
SAMPLE     .Oxide Pu-O2 pressed in pellets, thicknesses in Pu-239 2078600500004 
            are 166.1, 149.8, 164.1, 177.3 microgram/cm2, AL      2078600500005 
            backing 20, VYNS backing 100 microgram/cm2. Isotopic  2078600500006 
            content: Pu238 - 0.008%, Pu239 - 96.02%, Pu240  3.86%,2078600500007 
            Pu241 - 0.10%, Pu242 - 0.008%                         2078600500008 
STATUS     (TABLE) .Data from Table 4 in ref. KFK-2673.           2078600500009 
ENDBIB               7          0                                 2078600500010 
NOCOMMON             0          0                                 2078600500011 
DATA                 8        202                                 2078600500012 
EN         DATA       ERR-T      ERR-3      ERR-4      ERR-5      2078600500013 
ERR-6      ERR-9                                                  2078600500014 
MEV        NO-DIM     PER-CENT   PER-CENT   PER-CENT   PER-CENT   2078600500015 
PER-CENT   PER-CENT                                               2078600500016 
 5.0000E-01 1.3100E+00 2.3000E+00      1.4        0.8        0.8  2078600500017 
     2.5         2.                                               2078600500018 
 5.1000E-01 1.3500E+00 2.3000E+00      1.4        0.8        0.8  2078600500019 
     2.5         2.                                               2078600500020 
 5.2000E-01 1.3500E+00 2.3000E+00      1.4        0.8        0.8  2078600500021 
     2.5         2.                                               2078600500022 
 5.3000E-01 1.3400E+00 2.3000E+00      1.4        0.8        0.8  2078600500023 
     2.5         2.                                               2078600500024 
 5.4000E-01 1.3100E+00 2.3000E+00      1.4        0.8        0.8  2078600500025 
     2.5         2.                                               2078600500026 
 5.5000E-01 1.3000E+00 2.3000E+00      1.4        0.8        0.8  2078600500027 
     2.5         2.                                               2078600500028 
 5.6000E-01 1.3300E+00 2.2000E+00      1.4        0.8        0.8  2078600500029 
     2.5         2.                                               2078600500030 
 5.6000E-01 1.3200E+00 2.2000E+00      1.4        0.8        0.8  2078600500031 
     2.5         2.                                               2078600500032 
 5.7000E-01 1.3200E+00 2.2000E+00      1.4        0.8        0.8  2078600500033 
     2.5         2.                                               2078600500034 
 5.9000E-01 1.3100E+00 2.2000E+00      1.4        0.8        0.8  2078600500035 
     2.5         2.                                               2078600500036 
 6.0000E-01 1.3500E+00 2.2000E+00      1.4        0.8        0.8  2078600500037 
     2.5         2.                                               2078600500038 
 6.1000E-01 1.3900E+00 2.2000E+00      1.4        0.8        0.8  2078600500039 
     2.5         2.                                               2078600500040 
 6.2000E-01 1.3800E+00 2.2000E+00      1.4        0.8        0.8  2078600500041 
     2.5         2.                                               2078600500042 
 6.3000E-01 1.3600E+00 2.2000E+00      1.4        0.8        0.8  2078600500043 
     2.5         2.                                               2078600500044 
 6.4000E-01 1.3800E+00 2.2000E+00      1.4        0.8        0.8  2078600500045 
     2.5         2.                                               2078600500046 
 6.5000E-01 1.3800E+00 2.2000E+00      1.4        0.8        0.8  2078600500047 
     2.5         2.                                               2078600500048 
 6.7000E-01 1.3700E+00 2.2000E+00      1.4        0.8        0.8  2078600500049 
     2.5         2.                                               2078600500050 
 6.8000E-01 1.3800E+00 2.2000E+00      1.4        0.8        0.8  2078600500051 
     2.5         2.                                               2078600500052 
 6.9000E-01 1.4000E+00 2.2000E+00      1.4        0.8        0.8  2078600500053 
     2.5         2.                                               2078600500054 
 7.0000E-01 1.4000E+00 2.2000E+00      1.4        0.8        0.8  2078600500055 
     2.5         2.                                               2078600500056 
 7.2000E-01 1.4100E+00 2.2000E+00      1.4        0.8        0.8  2078600500057 
     2.5         2.                                               2078600500058 
 7.3000E-01 1.4300E+00 2.2000E+00      1.4        0.8        0.8  2078600500059 
     2.5         2.                                               2078600500060 
 7.5000E-01 1.4500E+00 2.2000E+00      1.4        0.8        0.8  2078600500061 
     2.5         2.                                               2078600500062 
 7.6000E-01 1.4600E+00 2.2000E+00      1.4        0.8        0.8  2078600500063 
     2.5         2.                                               2078600500064 
 7.8000E-01 1.4600E+00 2.2000E+00      1.4        0.8        0.8  2078600500065 
     2.5         2.                                               2078600500066 
 7.9000E-01 1.4800E+00 2.2000E+00      1.4        0.8        0.8  2078600500067 
     2.5         2.                                               2078600500068 
 8.1000E-01 1.4400E+00 2.2000E+00      1.4        0.8        0.8  2078600500069 
     2.5         2.                                               2078600500070 
 8.3000E-01 1.4600E+00 2.2000E+00      1.4        0.8        0.8  2078600500071 
     2.5         2.                                               2078600500072 
 8.5000E-01 1.4300E+00 2.2000E+00      1.4        0.8        0.8  2078600500073 
     2.5         2.                                               2078600500074 
 8.6000E-01 1.4200E+00 2.2000E+00      1.4        0.8        0.8  2078600500075 
     2.5         2.                                               2078600500076 
 8.8000E-01 1.4400E+00 2.2000E+00      1.4        0.8        0.8  2078600500077 
     2.5         2.                                               2078600500078 
 9.0000E-01 1.4100E+00 2.2000E+00      1.4        0.8        0.8  2078600500079 
     2.5         2.                                               2078600500080 
 9.2000E-01 1.3700E+00 2.1000E+00      1.4        0.8        0.8  2078600500081 
     2.5         2.                                               2078600500082 
 9.4000E-01 1.3700E+00 2.1000E+00      1.4        0.8        0.8  2078600500083 
     2.5         2.                                               2078600500084 
 9.7000E-01 1.3900E+00 2.1000E+00      1.4        0.8        0.8  2078600500085 
     2.5         2.                                               2078600500086 
 9.9000E-01 1.3700E+00 2.2000E+00      1.4        0.8        0.8  2078600500087 
     2.5         2.                                               2078600500088 
 1.0100E+00 1.3900E+00 2.2000E+00      1.4        0.8        0.8  2078600500089 
     2.5         2.                                               2078600500090 
 1.0200E+00 1.3800E+00 2.2000E+00      1.4        0.8        0.8  2078600500091 
     2.5         2.                                               2078600500092 
 1.0400E+00 1.3800E+00 2.2000E+00      1.4        0.8        0.8  2078600500093 
     2.5         2.                                               2078600500094 
 1.0500E+00 1.4100E+00 2.2000E+00      1.4        0.8        0.8  2078600500095 
     2.5         2.                                               2078600500096 
 1.0700E+00 1.4300E+00 2.2000E+00      1.4        0.8        0.8  2078600500097 
     2.5         2.                                               2078600500098 
 1.0800E+00 1.4100E+00 2.2000E+00      1.4        0.8        0.8  2078600500099 
     2.5         2.                                               2078600500100 
 1.1000E+00 1.4200E+00 2.2000E+00      1.4        0.8        0.8  2078600500101 
     2.5         2.                                               2078600500102 
 1.1100E+00 1.4000E+00 2.2000E+00      1.4        0.8        0.8  2078600500103 
     2.5         2.                                               2078600500104 
 1.1300E+00 1.4100E+00 2.2000E+00      1.4        0.8        0.8  2078600500105 
     2.5         2.                                               2078600500106 
 1.1500E+00 1.4300E+00 2.2000E+00      1.4        0.8        0.8  2078600500107 
     2.5         2.                                               2078600500108 
 1.1600E+00 1.4400E+00 2.2000E+00      1.4        0.8        0.8  2078600500109 
     2.5         2.                                               2078600500110 
 1.1800E+00 1.4400E+00 2.2000E+00      1.4        0.8        0.8  2078600500111 
     2.5         2.                                               2078600500112 
 1.2000E+00 1.4500E+00 2.2000E+00      1.4        0.8        0.8  2078600500113 
     2.5         2.                                               2078600500114 
 1.2200E+00 1.4800E+00 2.2000E+00      1.4        0.8        0.8  2078600500115 
     2.5         2.                                               2078600500116 
 1.2400E+00 1.4700E+00 2.2000E+00      1.4        0.8        0.8  2078600500117 
     2.5         2.                                               2078600500118 
 1.2600E+00 1.4800E+00 2.2000E+00      1.4        0.8        0.8  2078600500119 
     2.5         2.                                               2078600500120 
 1.2800E+00 1.5000E+00 2.2000E+00      1.4        0.8        0.8  2078600500121 
     2.5         2.                                               2078600500122 
 1.3000E+00 1.5000E+00 2.2000E+00      1.4        0.8        0.8  2078600500123 
     2.5         2.                                               2078600500124 
 1.3200E+00 1.5200E+00 2.2000E+00      1.4        0.8        0.8  2078600500125 
     2.5         2.                                               2078600500126 
 1.3400E+00 1.5100E+00 2.2000E+00      1.4        0.8        0.8  2078600500127 
     2.5         2.                                               2078600500128 
 1.3600E+00 1.5100E+00 2.2000E+00      1.4        0.8        0.8  2078600500129 
     2.5         2.                                               2078600500130 
 1.3800E+00 1.5300E+00 2.2000E+00      1.4        0.8        0.8  2078600500131 
     2.5         2.                                               2078600500132 
 1.4100E+00 1.5300E+00 2.1000E+00      1.4        0.8        0.8  2078600500133 
     2.5         2.                                               2078600500134 
 1.4300E+00 1.5200E+00 2.1000E+00      1.4        0.8        0.8  2078600500135 
     2.5         2.                                               2078600500136 
 1.4500E+00 1.5000E+00 2.1000E+00      1.4        0.8        0.8  2078600500137 
     2.5         2.                                               2078600500138 
 1.4800E+00 1.5000E+00 2.1000E+00      1.4        0.8        0.8  2078600500139 
     2.5         2.                                               2078600500140 
 1.5000E+00 1.4900E+00 2.1000E+00      1.4        0.8        0.8  2078600500141 
     2.5         2.                                               2078600500142 
 1.5300E+00 1.5000E+00 2.1000E+00      1.4        0.8        0.8  2078600500143 
     2.5         2.                                               2078600500144 
 1.5600E+00 1.4900E+00 2.1000E+00      1.4        0.8        0.8  2078600500145 
     2.5         2.                                               2078600500146 
 1.5800E+00 1.4900E+00 2.1000E+00      1.4        0.8        0.8  2078600500147 
     2.5         2.                                               2078600500148 
 1.6100E+00 1.5000E+00 2.1000E+00      1.4        0.8        0.8  2078600500149 
     2.5         2.                                               2078600500150 
 1.6400E+00 1.4800E+00 2.1000E+00      1.4        0.8        0.8  2078600500151 
     2.5         2.                                               2078600500152 
 1.6700E+00 1.5100E+00 2.1000E+00      1.4        0.8        0.8  2078600500153 
     2.5         2.                                               2078600500154 
 1.7000E+00 1.5100E+00 2.1000E+00      1.4        0.8        0.8  2078600500155 
     2.5         2.                                               2078600500156 
 1.7300E+00 1.5000E+00 2.1000E+00      1.4        0.8        0.8  2078600500157 
     2.5         2.                                               2078600500158 
 1.7700E+00 1.5100E+00 2.1000E+00      1.4        0.8        0.8  2078600500159 
     2.5         2.                                               2078600500160 
 1.8000E+00 1.5100E+00 2.1000E+00      1.4        0.8        0.8  2078600500161 
     2.5         2.                                               2078600500162 
 1.8300E+00 1.5000E+00 2.1000E+00      1.4        0.8        0.8  2078600500163 
     2.5         2.                                               2078600500164 
 1.8700E+00 1.5000E+00 2.1000E+00      1.4        0.8        0.8  2078600500165 
     2.5         2.                                               2078600500166 
 1.9000E+00 1.5000E+00 2.1000E+00      1.4        0.8        0.8  2078600500167 
     2.5         2.                                               2078600500168 
 1.9400E+00 1.4700E+00 2.1000E+00      1.4        0.8        0.8  2078600500169 
     2.5         2.                                               2078600500170 
 1.9800E+00 1.4900E+00 2.1000E+00      1.4        0.8        0.8  2078600500171 
     2.5         2.                                               2078600500172 
 2.0200E+00 1.4800E+00 2.1000E+00      0.5        0.7        0.6  2078600500173 
     2.1         1.                                               2078600500174 
 2.0600E+00 1.4900E+00 2.1000E+00      0.5        0.7        0.6  2078600500175 
     2.1         1.                                               2078600500176 
 2.1000E+00 1.5000E+00 2.1000E+00      0.5        0.7        0.6  2078600500177 
     2.1         1.                                               2078600500178 
 2.1400E+00 1.4900E+00 2.1000E+00      0.5        0.7        0.6  2078600500179 
     2.1         1.                                               2078600500180 
 2.1900E+00 1.4900E+00 2.1000E+00      0.5        0.7        0.6  2078600500181 
     2.1         1.                                               2078600500182 
 2.2400E+00 1.4900E+00 2.1000E+00      0.5        0.7        0.6  2078600500183 
     2.1         1.                                               2078600500184 
 2.2800E+00 1.4900E+00 2.1000E+00      0.5        0.7        0.6  2078600500185 
     2.1         1.                                               2078600500186 
 2.3300E+00 1.5000E+00 2.1000E+00      0.5        0.7        0.6  2078600500187 
     2.1         1.                                               2078600500188 
 2.3800E+00 1.5000E+00 2.1000E+00      0.5        0.7        0.6  2078600500189 
     2.1         1.                                               2078600500190 
 2.4300E+00 1.4900E+00 2.1000E+00      0.5        0.7        0.6  2078600500191 
     2.1         1.                                               2078600500192 
 2.4900E+00 1.5000E+00 2.1000E+00      0.5        0.7        0.6  2078600500193 
     2.1         1.                                               2078600500194 
 2.5400E+00 1.4900E+00 2.1000E+00      0.5        0.7        0.6  2078600500195 
     2.1         1.                                               2078600500196 
 2.6000E+00 1.4800E+00 2.1000E+00      0.5        0.7        0.6  2078600500197 
     2.1         1.                                               2078600500198 
 2.6600E+00 1.4700E+00 2.1000E+00      0.5        0.7        0.6  2078600500199 
     2.1         1.                                               2078600500200 
 2.7200E+00 1.4700E+00 2.1000E+00      0.5        0.7        0.6  2078600500201 
     2.1         1.                                               2078600500202 
 2.7900E+00 1.4900E+00 2.1000E+00      0.5        0.7        0.6  2078600500203 
     2.1         1.                                               2078600500204 
 2.8500E+00 1.5000E+00 2.1000E+00      0.5        0.7        0.6  2078600500205 
     2.1         1.                                               2078600500206 
 2.9200E+00 1.4900E+00 2.1000E+00      0.5        0.7        0.6  2078600500207 
     2.1         1.                                               2078600500208 
 2.9900E+00 1.4900E+00 2.1000E+00      0.5        0.7        0.6  2078600500209 
     2.1         1.                                               2078600500210 
 3.0600E+00 1.4900E+00 2.1000E+00      0.5        0.7        0.6  2078600500211 
     2.1         1.                                               2078600500212 
 3.1400E+00 1.5000E+00 2.1000E+00      0.5        0.7        0.6  2078600500213 
     2.1         1.                                               2078600500214 
 3.2200E+00 1.5100E+00 2.1000E+00      0.5        0.7        0.6  2078600500215 
     2.1         1.                                               2078600500216 
 3.3000E+00 1.4900E+00 2.1000E+00      0.5        0.7        0.6  2078600500217 
     2.1         1.                                               2078600500218 
 3.3900E+00 1.5000E+00 2.1000E+00      0.5        0.7        0.6  2078600500219 
     2.1         1.                                               2078600500220 
 3.4800E+00 1.5000E+00 2.1000E+00      0.5        0.7        0.6  2078600500221 
     2.1         1.                                               2078600500222 
 3.5700E+00 1.5100E+00 2.1000E+00      0.5        0.7        0.6  2078600500223 
     2.1         1.                                               2078600500224 
 3.6600E+00 1.5000E+00 2.1000E+00      0.5        0.7        0.6  2078600500225 
     2.1         1.                                               2078600500226 
 3.7600E+00 1.5000E+00 2.1000E+00      0.5        0.7        0.6  2078600500227 
     2.1         1.                                               2078600500228 
 3.8700E+00 1.5100E+00 2.1000E+00      0.5        0.7        0.6  2078600500229 
     2.1         1.                                               2078600500230 
 3.9800E+00 1.5000E+00 2.1000E+00      0.5        0.7        0.6  2078600500231 
     2.1         1.                                               2078600500232 
 4.0900E+00 1.5100E+00 1.9000E+00      0.5        1.8        0.6  2078600500233 
     2.7         1.                                               2078600500234 
 4.2100E+00 1.5000E+00 1.9000E+00      0.5        1.8        0.6  2078600500235 
     2.7         1.                                               2078600500236 
 4.3300E+00 1.5000E+00 1.9000E+00      0.5        1.8        0.6  2078600500237 
     2.7         1.                                               2078600500238 
 4.4600E+00 1.5100E+00 1.9000E+00      0.5        1.8        0.6  2078600500239 
     2.7         1.                                               2078600500240 
 4.5900E+00 1.5100E+00 1.9000E+00      0.5        1.8        0.6  2078600500241 
     2.7         1.                                               2078600500242 
 4.7300E+00 1.5300E+00 1.9000E+00      0.5        1.8        0.6  2078600500243 
     2.7         1.                                               2078600500244 
 4.8800E+00 1.5300E+00 1.9000E+00      0.5        1.8        0.6  2078600500245 
     2.7         1.                                               2078600500246 
 5.0400E+00 1.5400E+00 1.9000E+00      0.5        1.8        0.6  2078600500247 
     2.7         1.                                               2078600500248 
 5.2000E+00 1.5400E+00 1.9000E+00      0.5        1.8        0.6  2078600500249 
     2.7         1.                                               2078600500250 
 5.3700E+00 1.5600E+00 1.9000E+00      0.5        1.8        0.6  2078600500251 
     2.7         1.                                               2078600500252 
 5.5500E+00 1.5700E+00 1.9000E+00      0.5        1.8        0.6  2078600500253 
     2.7         1.                                               2078600500254 
 5.7300E+00 1.5600E+00 1.9000E+00      0.5        1.8        0.6  2078600500255 
     2.7         1.                                               2078600500256 
 5.9300E+00 1.5100E+00 1.9000E+00      0.5        1.8        0.6  2078600500257 
     2.7         1.                                               2078600500258 
 6.0700E+00 1.4600E+00 2.0000E+00      0.5        0.8        1.3  2078600500259 
     2.3         1.                                               2078600500260 
 6.1400E+00 1.4400E+00 2.0000E+00      0.5        0.8        1.3  2078600500261 
     2.3         1.                                               2078600500262 
 6.2100E+00 1.4200E+00 2.0000E+00      0.5        0.8        1.3  2078600500263 
     2.3         1.                                               2078600500264 
 6.2800E+00 1.3900E+00 2.0000E+00      0.5        0.8        1.3  2078600500265 
     2.3         1.                                               2078600500266 
 6.3500E+00 1.3800E+00 2.0000E+00      0.5        0.8        1.3  2078600500267 
     2.3         1.                                               2078600500268 
 6.4300E+00 1.3500E+00 2.0000E+00      0.5        0.8        1.3  2078600500269 
     2.3         1.                                               2078600500270 
 6.5100E+00 1.3300E+00 2.0000E+00      0.5        0.8        1.3  2078600500271 
     2.3         1.                                               2078600500272 
 6.5800E+00 1.3100E+00 2.0000E+00      0.5        0.8        1.3  2078600500273 
     2.3         1.                                               2078600500274 
 6.6600E+00 1.3100E+00 2.0000E+00      0.5        0.8        1.3  2078600500275 
     2.3         1.                                               2078600500276 
 6.7500E+00 1.2900E+00 2.0000E+00      0.5        0.8        1.3  2078600500277 
     2.3         1.                                               2078600500278 
 6.8300E+00 1.2900E+00 2.0000E+00      0.5        0.8        1.3  2078600500279 
     2.3         1.                                               2078600500280 
 6.9100E+00 1.2700E+00 2.0000E+00      0.5        0.8        1.3  2078600500281 
     2.3         1.                                               2078600500282 
 7.0000E+00 1.2600E+00 2.0000E+00      0.5        0.8        1.3  2078600500283 
     2.3         1.                                               2078600500284 
 7.0800E+00 1.2500E+00 2.0000E+00      0.5        0.8        1.3  2078600500285 
     2.3         1.                                               2078600500286 
 7.1700E+00 1.2400E+00 2.0000E+00      0.5        0.8        1.3  2078600500287 
     2.3         1.                                               2078600500288 
 7.2600E+00 1.2500E+00 2.0000E+00      0.5        0.8        1.3  2078600500289 
     2.3         1.                                               2078600500290 
 7.3600E+00 1.2500E+00 2.0000E+00      0.5        0.8        1.3  2078600500291 
     2.3         1.                                               2078600500292 
 7.4500E+00 1.2400E+00 2.0000E+00      0.5        0.8        1.3  2078600500293 
     2.3         1.                                               2078600500294 
 7.5500E+00 1.2300E+00 1.9000E+00      0.5        0.8        1.3  2078600500295 
     2.3         1.                                               2078600500296 
 7.6400E+00 1.2300E+00 1.9000E+00      0.5        0.8        1.3  2078600500297 
     2.3         1.                                               2078600500298 
 7.7400E+00 1.2300E+00 1.9000E+00      0.5        0.8        1.3  2078600500299 
     2.3         1.                                               2078600500300 
 7.8400E+00 1.2200E+00 1.9000E+00      0.5        0.8        1.3  2078600500301 
     2.3         1.                                               2078600500302 
 7.9500E+00 1.2400E+00 1.9000E+00      0.5        0.8        1.3  2078600500303 
     2.3         1.                                               2078600500304 
 8.0500E+00 1.2200E+00 1.9000E+00      0.5        0.8        1.3  2078600500305 
     2.3         1.                                               2078600500306 
 8.1600E+00 1.2300E+00 1.9000E+00      0.5        0.8        1.3  2078600500307 
     2.3         1.                                               2078600500308 
 8.2700E+00 1.2300E+00 1.9000E+00      0.5        0.8        1.3  2078600500309 
     2.3         1.                                               2078600500310 
 8.3800E+00 1.2200E+00 1.9000E+00      0.5        0.8        1.3  2078600500311 
     2.3         1.                                               2078600500312 
 8.5000E+00 1.2200E+00 1.9000E+00      0.5        0.8        1.3  2078600500313 
     2.3         1.                                               2078600500314 
 8.6200E+00 1.2200E+00 1.9000E+00      0.5        0.8        1.3  2078600500315 
     2.3         1.                                               2078600500316 
 8.7300E+00 1.2300E+00 1.9000E+00      0.5        0.8        1.3  2078600500317 
     2.3         1.                                               2078600500318 
 8.8600E+00 1.2300E+00 1.9000E+00      0.5        0.8        1.3  2078600500319 
     2.3         1.                                               2078600500320 
 8.9800E+00 1.2200E+00 1.9000E+00      0.5        0.8        1.3  2078600500321 
     2.3         1.                                               2078600500322 
 9.1100E+00 1.2300E+00 1.9000E+00      0.5        0.8        1.3  2078600500323 
     2.3         1.                                               2078600500324 
 9.2400E+00 1.2300E+00 1.9000E+00      0.5        0.8        1.3  2078600500325 
     2.3         1.                                               2078600500326 
 9.3700E+00 1.2400E+00 1.9000E+00      0.5        0.8        1.3  2078600500327 
     2.3         1.                                               2078600500328 
 9.5100E+00 1.2400E+00 1.9000E+00      0.5        0.8        1.3  2078600500329 
     2.3         1.                                               2078600500330 
 9.6400E+00 1.2600E+00 1.9000E+00      0.5        0.8        1.3  2078600500331 
     2.3         1.                                               2078600500332 
 9.7900E+00 1.2400E+00 1.9000E+00      0.5        0.8        1.3  2078600500333 
     2.3         1.                                               2078600500334 
 9.9300E+00 1.2400E+00 1.9000E+00      0.5        0.8        1.3  2078600500335 
     2.3         1.                                               2078600500336 
 1.0080E+01 1.2400E+00 1.9000E+00      0.5        0.8        1.3  2078600500337 
     2.3         1.                                               2078600500338 
 1.0230E+01 1.2600E+00 1.9000E+00      0.5        0.8        1.3  2078600500339 
     2.3         1.                                               2078600500340 
 1.0380E+01 1.2600E+00 1.9000E+00      0.5        0.8        1.3  2078600500341 
     2.3         1.                                               2078600500342 
 1.0540E+01 1.2600E+00 1.9000E+00      0.5        0.8        1.3  2078600500343 
     2.3         1.                                               2078600500344 
 1.0710E+01 1.2500E+00 1.9000E+00      0.5        0.8        1.3  2078600500345 
     2.3         1.                                               2078600500346 
 1.0870E+01 1.2500E+00 1.9000E+00      0.5        0.8        1.3  2078600500347 
     2.3         1.                                               2078600500348 
 1.1040E+01 1.2600E+00 1.9000E+00      0.5        0.8        1.3  2078600500349 
     2.3         1.                                               2078600500350 
 1.1210E+01 1.2500E+00 1.9000E+00      0.5        0.8        1.3  2078600500351 
     2.3         1.                                               2078600500352 
 1.1390E+01 1.2500E+00 1.9000E+00      0.5        0.8        1.3  2078600500353 
     2.3         1.                                               2078600500354 
 1.1570E+01 1.2400E+00 1.9000E+00      0.5        0.8        1.3  2078600500355 
     2.3         1.                                               2078600500356 
 1.1760E+01 1.2300E+00 1.9000E+00      0.5        0.8        1.3  2078600500357 
     2.3         1.                                               2078600500358 
 1.1950E+01 1.2200E+00 1.9000E+00      0.5        0.8        1.3  2078600500359 
     2.3         1.                                               2078600500360 
 1.2150E+01 1.2100E+00 1.9000E+00      0.5        0.8        1.3  2078600500361 
     2.3         1.                                               2078600500362 
 1.2350E+01 1.2000E+00 1.9000E+00      0.5        0.8        1.3  2078600500363 
     2.3         1.                                               2078600500364 
 1.2550E+01 1.1800E+00 1.9000E+00      0.5        0.8        1.3  2078600500365 
     2.3         1.                                               2078600500366 
 1.2770E+01 1.1500E+00 1.9000E+00      0.5        0.8        1.3  2078600500367 
     2.3         1.                                               2078600500368 
 1.2980E+01 1.1400E+00 1.9000E+00      0.5        0.8        1.3  2078600500369 
     2.3         1.                                               2078600500370 
 1.3200E+01 1.1400E+00 1.9000E+00      0.5        0.8        1.3  2078600500371 
     2.3         1.                                               2078600500372 
 1.3430E+01 1.1100E+00 1.9000E+00      0.5        0.8        1.3  2078600500373 
     2.3         1.                                               2078600500374 
 1.3670E+01 1.1000E+00 1.9000E+00      0.5        0.8        1.3  2078600500375 
     2.3         1.                                               2078600500376 
 1.3910E+01 1.1000E+00 1.9000E+00      0.5        0.8        1.3  2078600500377 
     2.3         1.                                               2078600500378 
 1.4150E+01 1.0800E+00 1.9000E+00      0.5        0.8        1.3  2078600500379 
     2.3         1.                                               2078600500380 
 1.4410E+01 1.0800E+00 1.9000E+00      0.5        0.8        1.3  2078600500381 
     2.3         1.                                               2078600500382 
 1.4670E+01 1.0800E+00 1.9000E+00      0.5        0.8        1.3  2078600500383 
     2.3         1.                                               2078600500384 
 1.4930E+01 1.0900E+00 1.9000E+00      0.5        0.8        1.3  2078600500385 
     2.3         1.                                               2078600500386 
 1.5210E+01 1.1000E+00 1.9000E+00      0.5        0.8        1.3  2078600500387 
     2.3         1.                                               2078600500388 
 1.5490E+01 1.1000E+00 1.9000E+00      0.5        0.8        1.3  2078600500389 
     2.3         1.                                               2078600500390 
 1.5780E+01 1.1100E+00 1.9000E+00      0.5        0.8        1.3  2078600500391 
     2.3         1.                                               2078600500392 
 1.6080E+01 1.1200E+00 1.9000E+00      0.5        0.8        1.3  2078600500393 
     2.3         1.                                               2078600500394 
 1.6390E+01 1.1200E+00 1.9000E+00      0.5        0.8        1.3  2078600500395 
     2.3         1.                                               2078600500396 
 1.6700E+01 1.1300E+00 1.9000E+00      0.5        0.8        1.3  2078600500397 
     2.3         1.                                               2078600500398 
 1.7030E+01 1.1300E+00 1.8000E+00      1.8        1.8        1.2  2078600500399 
     3.3         1.                                               2078600500400 
 1.7360E+01 1.1400E+00 1.8000E+00      1.8        1.8        1.2  2078600500401 
     3.3         1.                                               2078600500402 
 1.7710E+01 1.1400E+00 1.8000E+00      1.8        1.8        1.2  2078600500403 
     3.3         1.                                               2078600500404 
 1.8070E+01 1.1600E+00 1.8000E+00      1.8        1.8        1.2  2078600500405 
     3.3         1.                                               2078600500406 
 1.8430E+01 1.1600E+00 1.8000E+00      1.8        1.8        1.2  2078600500407 
     3.3         1.                                               2078600500408 
 1.8810E+01 1.1600E+00 1.8000E+00      1.8        1.8        1.2  2078600500409 
     3.3         1.                                               2078600500410 
 1.9200E+01 1.1500E+00 1.8000E+00      1.8        1.8        1.2  2078600500411 
     3.3         1.                                               2078600500412 
 1.9600E+01 1.1500E+00 1.8000E+00      1.8        1.8        1.2  2078600500413 
     3.3         1.                                               2078600500414 
 2.0020E+01 1.1500E+00 1.8000E+00      1.8        1.8        1.2  2078600500415 
     3.3         1.                                               2078600500416 
 2.0450E+01 1.1500E+00 1.8000E+00      1.8        1.8        1.2  2078600500417 
     3.3         1.                                               2078600500418 
 2.0890E+01 1.1500E+00 1.8000E+00      1.8        1.8        1.2  2078600500419 
     3.3         1.                                               2078600500420 
ENDDATA            408          0                                 2078600500421 
ENDSUBENT          420          0                                 2078600599999 
SUBENT        20786006   20071005                             21872078600600001 
BIB                  5         16                                 2078600600002 
REACTION   (92-U-235(N,F),,SIG)                                   2078600600003 
SAMPLE     .Oxide U3-O8 pressed in pellets, thicknesses in U-235  2078600600004 
            are 730, 784, 803 microgram/cm2, AL backing 20, VYNS  2078600600005 
            backing 170 microgram/cm2 - for Pu-239 measurements;  2078600600006 
            And 449 microgram/cm2, AL backing 20, VYNS backing    2078600600007 
            170 microgram/cm2 - for Pu-240 measurements.          2078600600008 
           .Isotopic content for both cases: U-234 - 1.08%,       2078600600009 
            U-235 - 93.33%, U-236 - 0.20%, U-238 - 5.39%.         2078600600010 
ERR-ANALYS (ERR-S)  Statistical error of the U-235 (N,fission)    2078600600011 
                    cross section determination                   2078600600012 
           (ERR-12) Error of the detector efficiency determination2078600600013 
                    for U-235                                     2078600600014 
STATUS     (TABLE) .Table 8 in KFK-2673.                          2078600600015 
HISTORY    (19800917A) Added data from reference KFK-2673.(PN)    2078600600016 
           (19830615A) Bn. C.S.At 2.75 MeV corrected.             2078600600017 
           (20071005U) Last corrections have been done.           2078600600018 
ENDBIB              16          0                                 2078600600019 
COMMON               1          3                                 2078600600020 
ERR-12                                                            2078600600021 
PER-CENT                                                          2078600600022 
        1.8                                                       2078600600023 
ENDCOMMON            3          0                                 2078600600024 
DATA                 9        124                                 2078600600025 
EN         DATA       ERR-T      ERR-S      ERR-3      ERR-4      2078600600026 
ERR-5      ERR-6      ERR-9                                       2078600600027 
MEV        B          PER-CENT   PER-CENT   PER-CENT   PER-CENT   2078600600028 
PER-CENT   PER-CENT   PER-CENT                                    2078600600029 
 1.0000E+00 1.1800E+00 3.9000E+00       0.9        1.4        0.8 2078600600030 
        0.8        2.5         2.                                 2078600600031 
 1.0500E+00 1.2300E+00 3.9000E+00       0.9        1.4        0.8 2078600600032 
        0.8        2.5         2.                                 2078600600033 
 1.1100E+00 1.2300E+00 3.9000E+00       0.9        1.4        0.8 2078600600034 
        0.8        2.5         2.                                 2078600600035 
 1.1700E+00 1.2700E+00 3.9000E+00       0.9        1.4        0.8 2078600600036 
        0.8        2.5         2.                                 2078600600037 
 1.2300E+00 1.2700E+00 3.9000E+00       0.9        1.4        0.8 2078600600038 
        0.8        2.5         2.                                 2078600600039 
 1.3100E+00 1.2400E+00 3.9000E+00       0.9        1.4        0.8 2078600600040 
        0.8        2.5         2.                                 2078600600041 
 1.3800E+00 1.2500E+00 3.9000E+00       0.9        1.4        0.8 2078600600042 
        0.8        2.5         2.                                 2078600600043 
 1.4700E+00 1.3000E+00 3.9000E+00       0.9        1.4        0.8 2078600600044 
        0.8        2.5         2.                                 2078600600045 
 1.5700E+00 1.3000E+00 3.9000E+00       0.9        1.4        0.8 2078600600046 
        0.8        2.5         2.                                 2078600600047 
 1.6700E+00 1.3200E+00 3.9000E+00       0.9        1.4        0.8 2078600600048 
        0.8        2.5         2.                                 2078600600049 
 1.7800E+00 1.3200E+00 3.9000E+00       0.9        1.4        0.8 2078600600050 
        0.8        2.5         2.                                 2078600600051 
 1.8800E+00 1.3200E+00 3.9000E+00       0.9        1.4        0.8 2078600600052 
        0.8        2.5         2.                                 2078600600053 
 1.9400E+00 1.3200E+00 3.8000E+00       0.9        1.4        0.8 2078600600054 
        0.8        2.5         2.                                 2078600600055 
 2.0000E+00 1.3300E+00 3.9000E+00       0.7        0.5        0.7 2078600600056 
        0.6        2.1         1.                                 2078600600057 
 2.0700E+00 1.3300E+00 3.7000E+00       0.7        0.5        0.7 2078600600058 
        0.6        2.1         1.                                 2078600600059 
 2.1400E+00 1.3300E+00 3.6000E+00       0.7        0.5        0.7 2078600600060 
        0.6        2.1         1.                                 2078600600061 
 2.2100E+00 1.3300E+00 3.5000E+00       0.7        0.5        0.7 2078600600062 
        0.6        2.1         1.                                 2078600600063 
 2.2900E+00 1.3300E+00 3.2000E+00       0.7        0.5        0.7 2078600600064 
        0.6        2.1         1.                                 2078600600065 
 2.3700E+00 1.3200E+00 3.2000E+00       0.7        0.5        0.7 2078600600066 
        0.6        2.1         1.                                 2078600600067 
 2.4600E+00 1.3100E+00 3.2000E+00       0.7        0.5        0.7 2078600600068 
        0.6        2.1         1.                                 2078600600069 
 2.5500E+00 1.3000E+00 3.2000E+00       0.7        0.5        0.7 2078600600070 
        0.6        2.1         1.                                 2078600600071 
 2.6400E+00 1.2900E+00 3.2000E+00       0.7        0.5        0.7 2078600600072 
        0.6        2.1         1.                                 2078600600073 
 2.7500E+00 1.2800E+00 3.2000E+00       0.7        0.5        0.7 2078600600074 
        0.6        2.1         1.                                 2078600600075 
 2.8500E+00 1.2800E+00 3.2000E+00       0.7        0.5        0.7 2078600600076 
        0.6        2.1         1.                                 2078600600077 
 2.9500E+00 1.2700E+00 3.2000E+00       0.7        0.5        0.7 2078600600078 
        0.6        2.1         1.                                 2078600600079 
 3.0200E+00 1.2700E+00 3.2000E+00       0.7        0.5        0.7 2078600600080 
        0.6        2.1         1.                                 2078600600081 
 3.0900E+00 1.2500E+00 3.2000E+00       0.7        0.5        0.7 2078600600082 
        0.6        2.1         1.                                 2078600600083 
 3.1700E+00 1.2400E+00 3.2000E+00       0.7        0.5        0.7 2078600600084 
        0.6        2.1         1.                                 2078600600085 
 3.2500E+00 1.2400E+00 3.2000E+00       0.7        0.5        0.7 2078600600086 
        0.6        2.1         1.                                 2078600600087 
 3.3300E+00 1.2400E+00 3.2000E+00       0.7        0.5        0.7 2078600600088 
        0.6        2.1         1.                                 2078600600089 
 3.4100E+00 1.2300E+00 3.2000E+00       0.7        0.5        0.7 2078600600090 
        0.6        2.1         1.                                 2078600600091 
 3.5000E+00 1.2100E+00 3.2000E+00       0.7        0.5        0.7 2078600600092 
        0.6        2.1         1.                                 2078600600093 
 3.6000E+00 1.2100E+00 3.3000E+00       0.7        0.5        0.7 2078600600094 
        0.6        2.1         1.                                 2078600600095 
 3.6900E+00 1.2000E+00 3.4000E+00       0.7        0.5        0.7 2078600600096 
        0.6        2.1         1.                                 2078600600097 
 3.7900E+00 1.2000E+00 3.4000E+00       0.7        0.5        0.7 2078600600098 
        0.6        2.1         1.                                 2078600600099 
 3.9000E+00 1.1900E+00 3.5000E+00       0.7        0.5        0.7 2078600600100 
        0.6        2.1         1.                                 2078600600101 
 4.0000E+00 1.1900E+00 3.6000E+00       0.5        0.5        1.8 2078600600102 
        0.6        2.7         1.                                 2078600600103 
 4.1200E+00 1.1800E+00 3.6000E+00       0.5        0.5        1.8 2078600600104 
        0.6        2.7         1.                                 2078600600105 
 4.2400E+00 1.1800E+00 3.6000E+00       0.5        0.5        1.8 2078600600106 
        0.6        2.7         1.                                 2078600600107 
 4.3600E+00 1.1800E+00 3.6000E+00       0.5        0.5        1.8 2078600600108 
        0.6        2.7         1.                                 2078600600109 
 4.4900E+00 1.1500E+00 3.6000E+00       0.5        0.5        1.8 2078600600110 
        0.6        2.7         1.                                 2078600600111 
 4.6200E+00 1.1400E+00 3.6000E+00       0.5        0.5        1.8 2078600600112 
        0.6        2.7         1.                                 2078600600113 
 4.7600E+00 1.1200E+00 3.6000E+00       0.5        0.5        1.8 2078600600114 
        0.6        2.7         1.                                 2078600600115 
 4.9100E+00 1.0900E+00 3.6000E+00       0.5        0.5        1.8 2078600600116 
        0.6        2.7         1.                                 2078600600117 
 5.0600E+00 1.0700E+00 3.6000E+00       0.5        0.5        1.8 2078600600118 
        0.6        2.7         1.                                 2078600600119 
 5.2300E+00 1.0900E+00 3.6000E+00       0.5        0.5        1.8 2078600600120 
        0.6        2.7         1.                                 2078600600121 
 5.4000E+00 1.0700E+00 3.6000E+00       0.5        0.5        1.8 2078600600122 
        0.6        2.7         1.                                 2078600600123 
 5.5700E+00 1.0700E+00 3.6000E+00       0.5        0.5        1.8 2078600600124 
        0.6        2.7         1.                                 2078600600125 
 5.7600E+00 1.0900E+00 3.6000E+00       0.5        0.5        1.8 2078600600126 
        0.6        2.7         1.                                 2078600600127 
 5.9600E+00 1.1700E+00 3.4000E+00       0.5        0.5        1.8 2078600600128 
        0.6        2.7         1.                                 2078600600129 
 6.1600E+00 1.2500E+00 3.5000E+00       0.4        0.5        0.8 2078600600130 
        1.3        2.3         1.                                 2078600600131 
 6.3800E+00 1.3700E+00 3.4000E+00       0.4        0.5        0.8 2078600600132 
        1.3        2.3         1.                                 2078600600133 
 6.6100E+00 1.4800E+00 3.4000E+00       0.4        0.5        0.8 2078600600134 
        1.3        2.3         1.                                 2078600600135 
 6.8500E+00 1.5700E+00 3.3000E+00       0.4        0.5        0.8 2078600600136 
        1.3        2.3         1.                                 2078600600137 
 7.0200E+00 1.6100E+00 3.3000E+00       0.4        0.5        0.8 2078600600138 
        1.3        2.3         1.                                 2078600600139 
 7.1100E+00 1.6300E+00 3.3000E+00       0.4        0.5        0.8 2078600600140 
        1.3        2.3         1.                                 2078600600141 
 7.2000E+00 1.6500E+00 3.3000E+00       0.4        0.5        0.8 2078600600142 
        1.3        2.3         1.                                 2078600600143 
 7.2900E+00 1.6800E+00 3.3000E+00       0.4        0.5        0.8 2078600600144 
        1.3        2.3         1.                                 2078600600145 
 7.3800E+00 1.7100E+00 3.3000E+00       0.4        0.5        0.8 2078600600146 
        1.3        2.3         1.                                 2078600600147 
 7.4700E+00 1.7300E+00 3.3000E+00       0.4        0.5        0.8 2078600600148 
        1.3        2.3         1.                                 2078600600149 
 7.5700E+00 1.7500E+00 3.3000E+00       0.4        0.5        0.8 2078600600150 
        1.3        2.3         1.                                 2078600600151 
 7.6700E+00 1.7700E+00 3.3000E+00       0.4        0.5        0.8 2078600600152 
        1.3        2.3         1.                                 2078600600153 
 7.7700E+00 1.7800E+00 3.3000E+00       0.4        0.5        0.8 2078600600154 
        1.3        2.3         1.                                 2078600600155 
 7.8700E+00 1.8100E+00 3.3000E+00       0.4        0.5        0.8 2078600600156 
        1.3        2.3         1.                                 2078600600157 
 7.9700E+00 1.8100E+00 3.3000E+00       0.4        0.5        0.8 2078600600158 
        1.3        2.3         1.                                 2078600600159 
 8.0700E+00 1.8100E+00 3.3000E+00       0.4        0.5        0.8 2078600600160 
        1.3        2.3         1.                                 2078600600161 
 8.1800E+00 1.8200E+00 3.3000E+00       0.4        0.5        0.8 2078600600162 
        1.3        2.3         1.                                 2078600600163 
 8.2900E+00 1.8200E+00 3.3000E+00       0.4        0.5        0.8 2078600600164 
        1.3        2.3         1.                                 2078600600165 
 8.4000E+00 1.8100E+00 3.3000E+00       0.4        0.5        0.8 2078600600166 
        1.3        2.3         1.                                 2078600600167 
 8.5200E+00 1.8200E+00 3.3000E+00       0.4        0.5        0.8 2078600600168 
        1.3        2.3         1.                                 2078600600169 
 8.6300E+00 1.8200E+00 3.3000E+00       0.4        0.5        0.8 2078600600170 
        1.3        2.3         1.                                 2078600600171 
 8.7500E+00 1.8100E+00 3.3000E+00       0.4        0.5        0.8 2078600600172 
        1.3        2.3         1.                                 2078600600173 
 8.8700E+00 1.8100E+00 3.3000E+00       0.4        0.5        0.8 2078600600174 
        1.3        2.3         1.                                 2078600600175 
 9.0000E+00 1.8100E+00 3.3000E+00       0.4        0.5        0.8 2078600600176 
        1.3        2.3         1.                                 2078600600177 
 9.1200E+00 1.8000E+00 3.3000E+00       0.4        0.5        0.8 2078600600178 
        1.3        2.3         1.                                 2078600600179 
 9.2500E+00 1.8000E+00 3.3000E+00       0.4        0.5        0.8 2078600600180 
        1.3        2.3         1.                                 2078600600181 
 9.3800E+00 1.8000E+00 3.3000E+00       0.4        0.5        0.8 2078600600182 
        1.3        2.3         1.                                 2078600600183 
 9.5200E+00 1.7900E+00 3.3000E+00       0.4        0.5        0.8 2078600600184 
        1.3        2.3         1.                                 2078600600185 
 9.6600E+00 1.7900E+00 3.3000E+00       0.4        0.5        0.8 2078600600186 
        1.3        2.3         1.                                 2078600600187 
 9.8000E+00 1.7800E+00 3.3000E+00       0.4        0.5        0.8 2078600600188 
        1.3        2.3         1.                                 2078600600189 
 9.9400E+00 1.7800E+00 3.3000E+00       0.4        0.5        0.8 2078600600190 
        1.3        2.3         1.                                 2078600600191 
 1.0090E+01 1.7800E+00 3.3000E+00       0.4        0.5        0.8 2078600600192 
        1.3        2.3         1.                                 2078600600193 
 1.0240E+01 1.7700E+00 3.3000E+00       0.4        0.5        0.8 2078600600194 
        1.3        2.3         1.                                 2078600600195 
 1.0390E+01 1.7700E+00 3.3000E+00       0.4        0.5        0.8 2078600600196 
        1.3        2.3         1.                                 2078600600197 
 1.0550E+01 1.7600E+00 3.3000E+00       0.4        0.5        0.8 2078600600198 
        1.3        2.3         1.                                 2078600600199 
 1.0710E+01 1.7600E+00 3.3000E+00       0.4        0.5        0.8 2078600600200 
        1.3        2.3         1.                                 2078600600201 
 1.0870E+01 1.7600E+00 3.3000E+00       0.4        0.5        0.8 2078600600202 
        1.3        2.3         1.                                 2078600600203 
 1.1040E+01 1.7600E+00 3.3000E+00       0.4        0.5        0.8 2078600600204 
        1.3        2.3         1.                                 2078600600205 
 1.1210E+01 1.7600E+00 3.3000E+00       0.4        0.5        0.8 2078600600206 
        1.3        2.3         1.                                 2078600600207 
 1.1390E+01 1.7700E+00 3.3000E+00       0.4        0.5        0.8 2078600600208 
        1.3        2.3         1.                                 2078600600209 
 1.1570E+01 1.7800E+00 3.3000E+00       0.4        0.5        0.8 2078600600210 
        1.3        2.3         1.                                 2078600600211 
 1.1750E+01 1.7800E+00 3.3000E+00       0.4        0.5        0.8 2078600600212 
        1.3        2.3         1.                                 2078600600213 
 1.1940E+01 1.8000E+00 3.3000E+00       0.4        0.5        0.8 2078600600214 
        1.3        2.3         1.                                 2078600600215 
 1.2140E+01 1.8200E+00 3.3000E+00       0.4        0.5        0.8 2078600600216 
        1.3        2.3         1.                                 2078600600217 
 1.2340E+01 1.8500E+00 3.3000E+00       0.4        0.5        0.8 2078600600218 
        1.3        2.3         1.                                 2078600600219 
 1.2540E+01 1.8900E+00 3.3000E+00       0.4        0.5        0.8 2078600600220 
        1.3        2.3         1.                                 2078600600221 
 1.2750E+01 1.9300E+00 3.3000E+00       0.4        0.5        0.8 2078600600222 
        1.3        2.3         1.                                 2078600600223 
 1.2960E+01 1.9700E+00 3.3000E+00       0.4        0.5        0.8 2078600600224 
        1.3        2.3         1.                                 2078600600225 
 1.3180E+01 2.0100E+00 3.3000E+00       0.4        0.5        0.8 2078600600226 
        1.3        2.3         1.                                 2078600600227 
 1.3410E+01 2.0500E+00 3.3000E+00       0.4        0.5        0.8 2078600600228 
        1.3        2.3         1.                                 2078600600229 
 1.3640E+01 2.0900E+00 3.3000E+00       0.4        0.5        0.8 2078600600230 
        1.3        2.3         1.                                 2078600600231 
 1.3870E+01 2.1200E+00 3.3000E+00       0.4        0.5        0.8 2078600600232 
        1.3        2.3         1.                                 2078600600233 
 1.4120E+01 2.1500E+00 3.3000E+00       0.4        0.5        0.8 2078600600234 
        1.3        2.3         1.                                 2078600600235 
 1.4370E+01 2.1600E+00 3.3000E+00       0.4        0.5        0.8 2078600600236 
        1.3        2.3         1.                                 2078600600237 
 1.4630E+01 2.1800E+00 3.3000E+00       0.4        0.5        0.8 2078600600238 
        1.3        2.3         1.                                 2078600600239 
 1.4890E+01 2.1800E+00 3.3000E+00       0.4        0.5        0.8 2078600600240 
        1.3        2.3         1.                                 2078600600241 
 1.5160E+01 2.1800E+00 3.4000E+00       0.4        0.5        0.8 2078600600242 
        1.3        2.3         1.                                 2078600600243 
 1.5440E+01 2.1800E+00 3.4000E+00       0.4        0.5        0.8 2078600600244 
        1.3        2.3         1.                                 2078600600245 
 1.5720E+01 2.1500E+00 3.7000E+00       0.4        0.5        0.8 2078600600246 
        1.3        2.3         1.                                 2078600600247 
 1.6020E+01 2.1300E+00 3.6000E+00       0.4        0.5        0.8 2078600600248 
        1.3        2.3         1.                                 2078600600249 
 1.6320E+01 2.1000E+00 3.9000E+00       0.4        0.5        0.8 2078600600250 
        1.3        2.3         1.                                 2078600600251 
 1.6630E+01 2.0800E+00 3.8000E+00       0.4        0.5        0.8 2078600600252 
        1.3        2.3         1.                                 2078600600253 
 1.6950E+01 2.0500E+00 4.0000E+00       0.4        1.8        1.8 2078600600254 
        1.2        3.3         1.                                 2078600600255 
 1.7280E+01 2.0200E+00 4.1000E+00       0.3        1.8        1.8 2078600600256 
        1.2        3.3         1.                                 2078600600257 
 1.7620E+01 1.9900E+00 4.1000E+00       0.3        1.8        1.8 2078600600258 
        1.2        3.3         1.                                 2078600600259 
 1.7970E+01 1.9500E+00 4.1000E+00       0.3        1.8        1.8 2078600600260 
        1.2        3.3         1.                                 2078600600261 
 1.8330E+01 1.9200E+00 4.1000E+00       0.3        1.8        1.8 2078600600262 
        1.2        3.3         1.                                 2078600600263 
 1.8710E+01 1.9000E+00 4.1000E+00       0.3        1.8        1.8 2078600600264 
        1.2        3.3         1.                                 2078600600265 
 1.9090E+01 1.9000E+00 4.1000E+00       0.3        1.8        1.8 2078600600266 
        1.2        3.3         1.                                 2078600600267 
 1.9490E+01 1.9100E+00 4.1000E+00       0.3        1.8        1.8 2078600600268 
        1.2        3.3         1.                                 2078600600269 
 1.9890E+01 1.9300E+00 4.1000E+00       0.3        1.8        1.8 2078600600270 
        1.2        3.3         1.                                 2078600600271 
 2.0310E+01 1.9400E+00 4.1000E+00       0.3        1.8        1.8 2078600600272 
        1.2        3.3         1.                                 2078600600273 
 2.0750E+01 1.9400E+00 4.1000E+00       0.3        1.8        1.8 2078600600274 
        1.2        3.3         1.                                 2078600600275 
 2.1200E+01 1.9500E+00 4.1000E+00       0.3        1.8        1.8 2078600600276 
        1.2        3.3         1.                                 2078600600277 
ENDDATA            252          0                                 2078600600278 
ENDSUBENT          277          0                                 2078600699999 
ENDENTRY             6          0                                 2078699999999 
