ENTRY            20864   20200925                             229120864  0    1 
SUBENT        20864001   20200925                             229120864  1    1 
BIB                 14         89                                 20864  1    2 
TITLE       Cross section measurements for the reaction           20864  1    3 
            Rh-103(n,n')Rh-103m                                   20864  1    4 
AUTHOR     (A.Paulsen,R.Widera,R.Vaninbroukx,H.Liskien)           20864  1    5 
REFERENCE  (J,NSE,76,331,1980)                                    20864  1    6 
           (W,PAULSEN,19781025)                                   20864  1    7 
           ((P,INDC(EUR)-10,3,1976)=(P,NEANDC(E)-182,(3),3,1977))-20864  1    8 
                   prelim. data at En=1.80MeV                     20864  1    9 
INSTITUTE  (2ZZZGEL)                                              20864  1   10 
FACILITY   (VDG,2ZZZGEL) 7 MV Van der Graaff of the CBNM.         20864  1   11 
INC-SOURCE (P-LI7) Neutron energies  0.2 MeV to  0.4 MeV          20864  1   12 
           (D-T) neutron energies  0.3 MeV to  2.9 MeV            20864  1   13 
           (D-D) neutron energies  1.9 MeV to  4.1 MeV            20864  1   14 
           (P-T) neutron energies  3.6 MeV to  6.1 MeV            20864  1   15 
           (D-T) neutron energies 13.0 MeV to 16.7 MeV            20864  1   16 
            solid targets of lithium fluoride, deuterium, or      20864  1   17 
            tritium occluded in titanium or yttrium layers,       20864  1   18 
             on a 0.3 mm thick silver or molybdenum backing.      20864  1   19 
SAMPLE      Metallic rhodium-103, 99.9% pure, 20 mm diam.,        20864  1   20 
            5 mm thick used for relative activity                 20864  1   21 
            measurements. 0.1 mm thick samples used for           20864  1   22 
            absolute cross section measurement.                   20864  1   23 
METHOD     (ACTIV) A pair of samples at each neutron emission     20864  1   24 
            angle ( corresponding to nominal neutron energies     20864  1   25 
            in 100 keV steps ) was irradiated for about 1 hour.   20864  1   26 
            1000 sec delay after irradiation allowed for decay    20864  1   27 
            of any Rh-104 present. X-rays then counted for        20864  1   28 
            about 30 periods of 5 minutes. This allowed the       20864  1   29 
            half-life to be checked against the standard used.    20864  1   30 
            Relative cross sections calculated from relative      20864  1   31 
            activities.                                           20864  1   32 
            For absolute cross section measurement three pairs    20864  1   33 
            of rhodium samples irradiated with 1.80 MeV neutrons  20864  1   34 
            from p-t source. Activation of samples measured with  20864  1   35 
            Si-Li counters for at least 5 periods of 1000 to      20864  1   36 
            2000 sec during a period 0.2 to 2 hours after         20864  1   37 
            irradiation. Activities checked after 20 hours to     20864  1   38 
            confirm the absence of long term activity.            20864  1   39 
            Si-Li detectors calibrated against thin 99.9%         20864  1   40 
            pure Rh-103m sources whose activities had been        20864  1   41 
            determined by liquid scintillation counting.          20864  1   42 
            Neutron flux from source measured by a recoil proton  20864  1   43 
            telescope counter 25 m away. Time dependence of       20864  1   44 
            neutron flux during sample irradiation was monitored  20864  1   45 
            with a directional long counter.                      20864  1   46 
DETECTOR   (SCIN ) Na-I(Tl) scintillation crystals used to        20864  1   47 
                   measure relative activities of samples         20864  1   48 
                   irradiated by neutrons of different energy.    20864  1   49 
           (SILI) Si-Li detectors with full-width-half-maximum    20864  1   50 
                   resolution of 600 eV at 20 keV used to measure 20864  1   51 
                   activity of samples for absolute cross         20864  1   52 
                   section measurement.                           20864  1   53 
           (TELES,SOLST,SOLST) Recoil proton telescope counter and20864  1   54 
           (LONGC) long counter used to measure neutron flux      20864  1   55 
                   for absolute cross section measurement         20864  1   56 
DECAY-DATA (45-RH-103-M,56.116MIN,XR) Hl from Appl.Rad.Isot.,24,8720864  1   57 
            E.Gunther+, and confirmed during the measurements.    20864  1   58 
MONITOR    (45-RH-103(N,INL)45-RH-103-M,,SIG) Three irradiations  20864  1   59 
           at 1.80-MeV neutron energy and successive activity     20864  1   60 
           determinations of a sample pair yielded, as an average,20864  1   61 
           817 mb with a standard error of the mean of 1.4%.      20864  1   62 
CORRECTION  Background neutrons produced by target.               20864  1   63 
            Neutron scatter from target backing. (> 2% for        20864  1   64 
            several cases in the range 0.3 to 0.2 MeV )           20864  1   65 
            Multiple scatter in sample.                           20864  1   66 
            Difference between X-ray detection efficiencies       20864  1   67 
            for samples used in relative and absolute             20864  1   68 
            measurements.                                         20864  1   69 
            Self-absorption of X-rays within the active           20864  1   70 
            sample in the absolute cross section measurement.     20864  1   71 
            Correction determined by measuring x-rays from        20864  1   72 
            Pd-103 foils stacked together, and comparing with     20864  1   73 
            simple theory. This is the most important correction. 20864  1   74 
ERR-ANALYS (ERR-T) Total error includes:                          20864  1   75 
           (ERR-1) Error in radiation geometry.                   20864  1   76 
           (ERR-2) Error in angular distribution.                 20864  1   77 
           (ERR-3) Error in neutron flux determination.           20864  1   78 
           (ERR-4) Error in sample purity.                        20864  1   79 
           (ERR-5) Error in detector efficiency.                  20864  1   80 
           (MONIT-ERR) Total error in the monitor value, computed 20864  1   81 
           by quadratically summing the above + stat. error (1.4%)20864  1   82 
HISTORY    (19790319C) WWO.                                       20864  1   83 
           (19820118A) A.P.T. BIB section rewritten after full    20864  1   84 
           paper published. Data, which was arbitrarily normalised20864  1   85 
           replaced by data normalized to a measured value.       20864  1   86 
           (19860227U)N.Ch                                        20864  1   87 
           (20200925A) SD:Updated to new date formats, lower case.20864  1   88 
           Corrections in all Subents. BIB updated. The accuracy  20864  1   89 
           of data presentation  has been revised. Three refs on  20864  1   90 
           progress reports deleted (no data). EN-NRM added.      20864  1   91 
ENDBIB              89          0                                 20864  1   92 
COMMON               8          6                                 20864  1   93 
EN-NRM     MONIT      MONIT-ERR  ERR-1      ERR-2      ERR-3      20864  1   94 
ERR-4      ERR-5                                                  20864  1   95 
MEV        MB         PER-CENT   PER-CENT   PER-CENT   PER-CENT   20864  1   96 
PER-CENT   PER-CENT                                               20864  1   97 
 1.80         817.       3.6      1.5         1.0         2.5     20864  1   98 
  0.1         1.2                                                 20864  1   99 
ENDCOMMON            6          0                                 20864  1  100 
ENDSUBENT           99          0                                 20864  199999 
SUBENT        20864002   20200925                             229120864  2    1 
BIB                  4          5                                 20864  2    2 
REACTION   (45-RH-103(N,INL)45-RH-103-M,,SIG)                     20864  2    3 
INC-SPECT   +-EN-RSL - The total width given, covers the full     20864  2    4 
           range of the neutron energy spectrum seen by the sample20864  2    5 
STATUS     (TABLE) Tbl.III from Nucl.Sci.Eng.,76(1980)331         20864  2    6 
HISTORY    (20200925U) SD: STATUS updated. DATA-ERR -> ERR-T.     20864  2    7 
ENDBIB               5          0                                 20864  2    8 
NOCOMMON             0          0                                 20864  2    9 
DATA                 6         67                                 20864  2   10 
EN         EN-ERR     +EN-RSL    -EN-RSL    DATA       ERR-T      20864  2   11 
MEV        MEV        MEV        MEV        MB         PER-CENT   20864  2   12 
      0.199      0.003      0.023      0.024        74.        8.020864  2   13 
      0.250      0.003      0.024      0.028       103.        7.220864  2   14 
      0.300      0.004      0.025      0.024       119.        7.020864  2   15 
      0.350      0.003      0.021      0.020       124.        7.520864  2   16 
      0.399      0.004      0.029      0.025       129.        7.120864  2   17 
      0.500      0.005      0.063      0.053       151.        6.020864  2   18 
      0.601      0.005      0.042      0.037       238.        5.120864  2   19 
      0.703      0.005      0.070      0.067       368.        4.620864  2   20 
      0.802      0.007      0.058      0.049       525.        4.620864  2   21 
      0.903      0.008      0.095      0.100       593.        4.620864  2   22 
      1.006      0.008      0.114      0.097       613.        4.620864  2   23 
       1.10       0.01       0.11       0.11       576.        4.920864  2   24 
       1.20       0.01       0.11       0.11       631.        4.920864  2   25 
       1.30       0.01       0.11       0.11       619.        4.720864  2   26 
       1.40       0.01       0.14       0.14       726.        4.620864  2   27 
       1.50       0.01       0.09       0.09       729.        4.720864  2   28 
       1.60       0.01       0.08       0.08       718.        4.620864  2   29 
       1.70       0.01       0.17       0.17       805.        4.620864  2   30 
       1.80       0.01       0.18       0.18       817.        3.620864  2   31 
       1.90       0.01       0.12       0.12       800.        4.720864  2   32 
       2.00       0.01       0.10       0.10       844.        4.720864  2   33 
       2.10       0.01       0.18       0.18       867.        4.620864  2   34 
       2.20       0.01       0.10       0.10       885.        4.620864  2   35 
       2.30       0.01       0.14       0.14       916.        4.820864  2   36 
       2.40       0.01       0.17       0.17       927.        4.620864  2   37 
       2.50       0.01       0.16       0.16       898.        4.620864  2   38 
       2.60       0.01       0.15       0.15       994.        4.620864  2   39 
       2.70       0.01       0.13       0.13       974.        4.620864  2   40 
       2.80       0.01       0.17       0.17       950.        4.620864  2   41 
       2.90       0.01       0.18       0.18      1059.        4.520864  2   42 
       3.00       0.02       0.19       0.19      1034.        5.120864  2   43 
       3.10       0.02       0.20       0.20      1039.        4.920864  2   44 
       3.20       0.02       0.21       0.21      1052.        4.820864  2   45 
       3.30       0.02       0.21       0.21      1000.        5.120864  2   46 
       3.40       0.02       0.22       0.22      1038.        4.920864  2   47 
       3.50       0.02       0.23       0.23      1049.        4.920864  2   48 
       3.60       0.02       0.24       0.24      1022.        4.820864  2   49 
       3.70       0.03       0.25       0.25      1031.        4.920864  2   50 
       3.80       0.03       0.26       0.26      1075.        4.820864  2   51 
       3.90       0.03       0.27       0.27      1045.        4.820864  2   52 
       4.00       0.03       0.28       0.28      1077.        4.720864  2   53 
       4.10       0.03       0.29       0.29      1094.        4.720864  2   54 
       4.20       0.03       0.34       0.34      1140.        6.120864  2   55 
       4.30       0.03       0.34       0.34      1250.        5.920864  2   56 
       4.40       0.03       0.34       0.34      1122.        6.320864  2   57 
       4.50       0.03       0.34       0.34      1066.        5.920864  2   58 
       4.60       0.03       0.34       0.34      1064.        5.820864  2   59 
       4.70       0.03       0.33       0.33      1139.        5.820864  2   60 
       4.80       0.03       0.33       0.33      1080.        5.920864  2   61 
       4.90       0.03       0.33       0.33      1194.        5.720864  2   62 
       5.00       0.03       0.32       0.32      1163.        5.820864  2   63 
       5.10       0.03       0.31       0.31      1164.        6.220864  2   64 
       5.20       0.03       0.30       0.30      1017.        5.820864  2   65 
       5.30       0.03       0.29       0.29      1003.        5.720864  2   66 
       5.40       0.03       0.28       0.28      1136.        5.520864  2   67 
       5.50       0.03       0.27       0.27      1117.        5.520864  2   68 
       5.60       0.03       0.25       0.25      1259.        5.720864  2   69 
       5.70       0.02       0.23       0.23      1150.        5.420864  2   70 
       5.80       0.02       0.21       0.21      1077.        5.620864  2   71 
       5.90       0.02       0.19       0.19      1111.        5.420864  2   72 
       6.00       0.01       0.15       0.15      1239.        5.420864  2   73 
       6.10       0.01       0.11       0.11      1207.        5.420864  2   74 
      13.00       0.01       0.18       0.18       398.        9.420864  2   75 
      14.00       0.00       0.25       0.25       286.        9.520864  2   76 
      15.00       0.01       0.29       0.29       244.        9.520864  2   77 
      16.00       0.03       0.31       0.31       222.        9.520864  2   78 
      16.70       0.03       0.30       0.30       226.        9.520864  2   79 
ENDDATA             69          0                                 20864  2   80 
ENDSUBENT           79          0                                 20864  299999 
ENDENTRY             2          0                                 2086499999999 
