ENTRY            20864   19860904                             00002086400000001 
SUBENT        20864001   19860904                             00002086400100001 
BIB                 16         94                                 2086400100002 
INSTITUTE  (2ZZZGEL)                                              2086400100003 
REFERENCE  (J,NSE,76,331,80)                                      2086400100004 
           (W,PAULSEN,781025)                                     2086400100005 
           (P,INDC(EUR)-11,5,7803)                                2086400100006 
           (P,NEANDC(E)-182,3,7702)                               2086400100007 
           (P,NEANDC(E)-172,3,7602)                               2086400100008 
           (P,INDC(EUR)-14,14,8103)                               2086400100009 
AUTHOR     (A.PAULSEN,R.WIDERA,R.VANINBROUKX,H.LISKIEN)           2086400100010 
TITLE      -CROSS SECTION MEASUREMENTS FOR THE REACTION           2086400100011 
            RH-103(N,N')RH-103-M                                  2086400100012 
FACILITY   (VDG  ) 7 MV VAN DER GRAAFF OF THE CBNM.               2086400100013 
INC-SOURCE (P-LI7) NEUTRON ENERGIES  0.2 MEV TO  0.4 MEV          2086400100014 
           (D-T  ) NEUTRON ENERGIES  0.3 MEV TO  2.9 MEV          2086400100015 
           (D-D  ) NEUTRON ENERGIES  1.9 MEV TO  4.1 MEV          2086400100016 
           (P-T  ) NEUTRON ENERGIES  3.6 MEV TO  6.1 MEV          2086400100017 
           (D-T  ) NEUTRON ENERGIES 13.0 MEV TO 16.7 MEV          2086400100018 
           .SOLID TARGETS OF LITHIUM FLUORIDE, DEUTERIUM,OR TRITIU2086400100019 
            OCCLUDED IN TITANIUM OR YTTRIUM LAYERS, ON A 0.3 MM   2086400100020 
            THICK SILVER OR MOLYBDENUM BACKING.                   2086400100021 
SAMPLE     .METALLIC RHODIUM-103, 99.9 PER CENT PURE, 20 MM       2086400100022 
            DIAMETER, 5 MM THICK USED FOR RELATIVE ACTIVITY       2086400100023 
            MEASUREMENTS. 0.1 MM THICK SAMPLES USED FOR           2086400100024 
            ABSOLUTE CROSS SECTION MEASUREMENT.                   2086400100025 
METHOD     (ACTIV) A PAIR OF SAMPLES AT EACH NEUTRON EMISSION     2086400100026 
            ANGLE ( CORRESPONDING TO NOMINAL NEUTRON ENERGIES     2086400100027 
            IN 100 KEV STEPS ) WAS IRRADIATED FOR ABOUT 1 HOUR.   2086400100028 
           .1000 SEC DELAY AFTER IRRADIATION ALLOWED FOR DECAY    2086400100029 
            OF ANY RH-104 PRESENT. X-RAYS THEN COUNTED FOR        2086400100030 
            ABOUT 30 PERIODS OF 5 MINUTES. THIS ALLOWED THE       2086400100031 
            HALF-LIFE TO BE CHECKED AGAINST THE STANDARD USED.    2086400100032 
           .RELATIVE CROSS SECTIONS CALCULATED FROM RELATIVE      2086400100033 
            ACTIVITIES.                                           2086400100034 
           .FOR ABSOLUTE CROSS SECTION MEASUREMENT THREE PAIRS    2086400100035 
            OF RHODIUM SAMPLES IRRADIATED WITH 1.80 MEV NEUTRONS  2086400100036 
            FROM P-T SOURCE. ACTIVATION OF SAMPLES MEASURED WITH  2086400100037 
            SI-LI COUNTERS FOR AT LEAST 5 PERIODS OF 1000 TO      2086400100038 
            2000 SEC DURING A PERIOD 0.2 TO 2 HOURS AFTER         2086400100039 
            IRRADIATION. ACTIVITIES CHECKED AFTER 20 HOURS TO     2086400100040 
            CONFIRM THE ABSENCE OF LONG TERM ACTIVITY.            2086400100041 
           .SI-LI DETECTORS CALIBRATED AGAINST THIN 99.9 PER CENT 2086400100042 
            PURE RH-103-M SOURCES WHOSE ACTIVITIES HAD BEEN       2086400100043 
            DETERMINED BY LIQUID SCINTILLATION COUNTING.          2086400100044 
           .NEUTRON FLUX FROM SOURCE MEASURED BY A RECOIL PROTON  2086400100045 
            TELESCOPE COUNTER 25 M AWAY. TIME DEPENDENCE OF       2086400100046 
            NEUTRON FLUX DURING SAMPLE IRRADIATION WAS MONITORED  2086400100047 
            WITH A DIRECTIONAL LONG COUNTER.                      2086400100048 
DETECTOR   (SCIN ) NA-I(TL) SCINTILLATION CRYSTALS USED TO        2086400100049 
                   MEASURE RELATIVE ACTIVITIES OF SAMPLES         2086400100050 
                   IRRADIATED BY NEUTRONS OF DIFFERENT ENERGY.    2086400100051 
           (SOLST) SI-LI DETECTORS WITH FULL-WIDTH-HALF-MAXIMUM   2086400100052 
                   RESOLUTION OF 600 EV AT 20 KEV USED TO MEASURE 2086400100053 
                   ACTIVITY OF SAMPLES FOR ABSOLUTE CROSS         2086400100054 
                   SECTION MEASUREMENT.                           2086400100055 
           (TELES) RECOIL PROTON TELESCOPE COUNTER AND            2086400100056 
           (LONGC) LONG COUNTER USED TO MEASURE NEUTRON FLUX      2086400100057 
                   FOR ABSOLUTE CROSS SECTION MEASUREMENT         2086400100058 
DECAY-DATA (45-RH-103-M,56.116MIN,XR) HL FROM (J,ARI,87,7300)     2086400100059 
            E.GUNTHER+, AND CONFIRMED DURING THE MEASUREMANTS.    2086400100060 
MONITOR    (45-RH-103(N,INL)45-RH-103-M,,SIG) MEASURED FOR        2086400100061 
            NEUTRON ENERGY OF 1.80 MEV.                           2086400100062 
COMMENT    .DATA NORMALISED TO A MEASURED ABSOLUTE VALUE.         2086400100063 
STATUS     .DATA TAKEN FROM NSE PAPER.                            2086400100064 
HISTORY    (790319C) WWO.                                         2086400100065 
           (790511E)                                              2086400100066 
           (820118A) A.P.T.  BIB SECTION REWRITTEN AFTER FULL     2086400100067 
                     PAPER PUBLISHED. DATA, WHICH WAS             2086400100068 
                     ARBITRARILY NORMALISED, REPLACED BY DATA     2086400100069 
                     NORMALISED TO A MEASURED VALUE.              2086400100070 
           (820217E)                                              2086400100071 
           (860227U)N.CH                                          2086400100072 
           (860411E)                                              2086400100073 
CORRECTION .BACKGROUND NEUTRONS PRODUCED BY TARGET.               2086400100074 
           .NEUTRON SCATTER FROM TARGET BACKING. (GREATER THAN    2086400100075 
            2 PER CENT FOR SEVERAL CASES IN THE RANGE 0.3 TO 0.2  2086400100076 
            MEV )                                                 2086400100077 
           .MULTIPLE SCATTER IN SAMPLE.                           2086400100078 
           .DIFFERENCE BETWEEN X-RAY DETECTION EFFICIENCIES       2086400100079 
            FOR SAMPLES USED IN RELATIVE AND ABSOLUTE             2086400100080 
            MEASUREMENTS.                                         2086400100081 
           .SELF-ABSORPTION OF X-RAYS WITHIN THE ACTIVE           2086400100082 
            SAMPLE IN THE ABSOLUTE CROSS SECTION MEASUREMENT.     2086400100083 
            CORRECTION DETERMINED BY MEASURING X-RAYS FROM        2086400100084 
            PD-103 FOILS STACKED TOGETHER, AND COMPARING WITH     2086400100085 
            SIMPLE THEORY. THIS IS THE MOST IMPORTANT CORRECTION. 2086400100086 
ERR-ANALYS (ERR-1) ERROR IN RADIATION GEOMETRY.                   2086400100087 
           (ERR-2) ERROR IN ANGULAR DISTRIBUTION.                 2086400100088 
           (ERR-3) ERROR IN NEUTRON FLUX DETERMINATION.           2086400100089 
           (ERR-4) ERROR IN SAMPLE PURITY.                        2086400100090 
           (ERR-5) ERROR IN DETECTOR EFFICIENCY.                  2086400100091 
           (ERR-S) UNCORRELATED ERROR.                            2086400100092 
           (MONIT-ERR) TOTAL ERROR IN THE MONITOR VALUE,          2086400100093 
             COMPUTED BY QUADRATICALLY SUMMING THE ABOVE.         2086400100094 
           .THE ABOVE ERRORS ALL REFER TO THE ABSOLUTE            2086400100095 
            CROSS SECTION MEASUREMENT.                            2086400100096 
ENDBIB              94          0                                 2086400100097 
COMMON               4          3                                 2086400100098 
MONIT      MONIT-ERR  ERR-1      ERR-2                            2086400100099 
MB         PER-CENT   PER-CENT   PER-CENT                         2086400100100 
 8.1700E+02 3.6000E+00 1.5000E+00 1.0000E+00                      2086400100101 
ENDCOMMON            3          0                                 2086400100102 
ENDSUBENT          101          0                                 2086400199999 
SUBENT        20864002   19840227                             00002086400200001 
BIB                  2          2                                 2086400200002 
REACTION   (45-RH-103(N,INL)45-RH-103-M,,SIG)                     2086400200003 
STATUS     .DATA TAKEN FROM NSE PAPER.                            2086400200004 
ENDBIB               2          0                                 2086400200005 
NOCOMMON             0          0                                 2086400200006 
DATA                 6         67                                 2086400200007 
EN         EN-ERR     +EN-RSL    -EN-RSL    DATA       DATA-ERR   2086400200008 
MEV        MEV        MEV        MEV        MB         PER-CENT   2086400200009 
 1.9900E-01 3.0000E-03 2.3000E-02 2.4000E-02 7.4000E+01 8.0000E+002086400200010 
 2.5000E-01 3.0000E-03 2.4000E-02 2.8000E-02 1.0300E+02 7.2000E+002086400200011 
 3.0000E-01 4.0000E-03 2.5000E-02 2.4000E-02 1.1900E+02 7.0000E+002086400200012 
 3.5000E-01 3.0000E-03 2.1000E-02 2.0000E-02 1.2400E+02 7.5000E+002086400200013 
 3.9900E-01 4.0000E-03 2.9000E-02 2.5000E-02 1.2900E+02 7.1000E+002086400200014 
 5.0000E-01 5.0000E-03 6.3000E-02 5.3000E-02 1.5100E+02 6.0000E+002086400200015 
 6.0100E-01 5.0000E-03 4.2000E-02 3.7000E-02 2.3800E+02 5.1000E+002086400200016 
 7.0300E-01 5.0000E-03 7.0000E-02 6.7000E-02 3.6800E+02 4.6000E+002086400200017 
 8.0200E-01 7.0000E-03 5.8000E-02 4.9000E-02 5.2500E+02 4.6000E+002086400200018 
 9.0300E-01 8.0000E-03 9.5000E-02 1.0000E-01 5.9300E+02 4.6000E+002086400200019 
 1.0060E+00 8.0000E-03 1.1400E-01 9.7000E-02 6.1300E+02 4.6000E+002086400200020 
 1.1000E+00 1.0000E-02 1.1000E-01 1.1000E-01 5.7600E+02 4.9000E+002086400200021 
 1.2000E+00 1.0000E-02 1.1000E-01 1.1000E-01 6.3100E+02 4.9000E+002086400200022 
 1.3000E+00 1.0000E-02 1.1000E-01 1.1000E-01 6.1900E+02 4.7000E+002086400200023 
 1.4000E+00 1.0000E-02 1.4000E-01 1.4000E-01 7.2600E+02 4.6000E+002086400200024 
 1.5000E+00 1.0000E-02 9.0000E-02 9.0000E-02 7.2900E+02 4.7000E+002086400200025 
 1.6000E+00 1.0000E-02 8.0000E-02 8.0000E-02 7.1800E+02 4.6000E+002086400200026 
 1.7000E+00 1.0000E-02 1.7000E-01 1.7000E-01 8.0500E+02 4.6000E+002086400200027 
 1.8000E+00 1.0000E-02 1.8000E-01 1.8000E-01 8.1700E+02 3.6000E+002086400200028 
 1.9000E+00 1.0000E-02 1.2000E-01 1.2000E-01 8.0000E+02 4.7000E+002086400200029 
 2.0000E+00 1.0000E-02 1.0000E-01 1.0000E-01 8.4400E+02 4.7000E+002086400200030 
 2.1000E+00 1.0000E-02 1.8000E-01 1.8000E-01 8.6700E+02 4.6000E+002086400200031 
 2.2000E+00 1.0000E-02 1.0000E-01 1.0000E-01 8.8500E+02 4.6000E+002086400200032 
 2.3000E+00 1.0000E-02 1.4000E-01 1.4000E-01 9.1600E+02 4.8000E+002086400200033 
 2.4000E+00 1.0000E-02 1.7000E-01 1.7000E-01 9.2700E+02 4.6000E+002086400200034 
 2.5000E+00 1.0000E-02 1.6000E-01 1.6000E-01 8.9800E+02 4.6000E+002086400200035 
 2.6000E+00 1.0000E-02 1.5000E-01 1.5000E-01 9.9400E+02 4.6000E+002086400200036 
 2.7000E+00 1.0000E-02 1.3000E-01 1.3000E-01 9.7400E+02 4.6000E+002086400200037 
 2.8000E+00 1.0000E-02 1.7000E-01 1.7000E-01 9.5000E+02 4.6000E+002086400200038 
 2.9000E+00 1.0000E-02 1.8000E-01 1.8000E-01 1.0590E+03 4.5000E+002086400200039 
 3.0000E+00 2.0000E-02 1.9000E-01 1.9000E-01 1.0340E+03 5.1000E+002086400200040 
 3.1000E+00 2.0000E-02 2.0000E-01 2.0000E-01 1.0390E+03 4.9000E+002086400200041 
 3.2000E+00 2.0000E-02 2.1000E-01 2.1000E-01 1.0520E+03 4.8000E+002086400200042 
 3.3000E+00 2.0000E-02 2.1000E-01 2.1000E-01 1.0000E+03 5.1000E+002086400200043 
 3.4000E+00 2.0000E-02 2.2000E-01 2.2000E-01 1.0380E+03 4.9000E+002086400200044 
 3.5000E+00 2.0000E-02 2.3000E-01 2.3000E-01 1.0490E+03 4.9000E+002086400200045 
 3.6000E+00 2.0000E-02 2.4000E-01 2.4000E-01 1.0220E+03 4.8000E+002086400200046 
 3.7000E+00 3.0000E-02 2.5000E-01 2.5000E-01 1.0310E+03 4.9000E+002086400200047 
 3.8000E+00 3.0000E-02 2.6000E-01 2.6000E-01 1.0750E+03 4.8000E+002086400200048 
 3.9000E+00 3.0000E-02 2.7000E-01 2.7000E-01 1.0450E+03 4.8000E+002086400200049 
 4.0000E+00 3.0000E-02 2.8000E-01 2.8000E-01 1.0770E+03 4.7000E+002086400200050 
 4.1000E+00 3.0000E-02 2.9000E-01 2.9000E-01 1.0940E+03 4.7000E+002086400200051 
 4.2000E+00 3.0000E-02 3.4000E-01 3.4000E-01 1.1400E+03 6.1000E+002086400200052 
 4.3000E+00 3.0000E-02 3.4000E-01 3.4000E-01 1.2500E+03 5.9000E+002086400200053 
 4.4000E+00 3.0000E-02 3.4000E-01 3.4000E-01 1.1220E+03 6.3000E+002086400200054 
 4.5000E+00 3.0000E-02 3.4000E-01 3.4000E-01 1.0660E+03 5.9000E+002086400200055 
 4.6000E+00 3.0000E-02 3.4000E-01 3.4000E-01 1.0640E+03 5.8000E+002086400200056 
 4.7000E+00 3.0000E-02 3.3000E-01 3.3000E-01 1.1390E+03 5.8000E+002086400200057 
 4.8000E+00 3.0000E-02 3.3000E-01 3.3000E-01 1.0800E+03 5.9000E+002086400200058 
 4.9000E+00 3.0000E-02 3.3000E-01 3.3000E-01 1.1940E+03 5.7000E+002086400200059 
 5.0000E+00 3.0000E-02 3.2000E-01 3.2000E-01 1.1630E+03 5.8000E+002086400200060 
 5.1000E+00 3.0000E-02 3.1000E-01 3.1000E-01 1.1640E+03 6.2000E+002086400200061 
 5.2000E+00 3.0000E-02 3.0000E-01 3.0000E-01 1.0170E+03 5.8000E+002086400200062 
 5.3000E+00 3.0000E-02 2.9000E-01 2.9000E-01 1.0030E+03 5.7000E+002086400200063 
 5.4000E+00 3.0000E-02 2.8000E-01 2.8000E-01 1.1360E+03 5.5000E+002086400200064 
 5.5000E+00 3.0000E-02 2.7000E-01 2.7000E-01 1.1170E+03 5.5000E+002086400200065 
 5.6000E+00 3.0000E-02 2.5000E-01 2.5000E-01 1.2590E+03 5.7000E+002086400200066 
 5.7000E+00 2.0000E-02 2.3000E-01 2.3000E-01 1.1500E+03 5.4000E+002086400200067 
 5.8000E+00 2.0000E-02 2.1000E-01 2.1000E-01 1.0770E+03 5.6000E+002086400200068 
 5.9000E+00 2.0000E-02 1.9000E-01 1.9000E-01 1.1110E+03 5.4000E+002086400200069 
 6.0000E+00 1.0000E-02 1.5000E-01 1.5000E-01 1.2390E+03 5.4000E+002086400200070 
 6.1000E+00 1.0000E-02 1.1000E-01 1.1000E-01 1.2070E+03 5.4000E+002086400200071 
 1.3000E+01 6.0000E-03 1.8000E-01 1.8000E-01 3.9800E+02 9.4000E+002086400200072 
 1.4000E+01 4.0000E-03 2.5000E-01 2.5000E-01 2.8600E+02 9.5000E+002086400200073 
 1.5000E+01 1.4000E-02 2.9000E-01 2.9000E-01 2.4400E+02 9.5000E+002086400200074 
 1.6000E+01 2.5000E-02 3.1000E-01 3.1000E-01 2.2200E+02 9.5000E+002086400200075 
 1.6700E+01 3.3000E-02 3.0000E-01 3.0000E-01 2.2600E+02 9.5000E+002086400200076 
ENDDATA             69          0                                 2086400200077 
ENDSUBENT           76          0                                 2086400299999 
ENDENTRY             2          0                                 2086499999999 
