ENTRY            20887   20180310                             226720887  0    1 
SUBENT        20887001   20180310                             226720887  1    1 
BIB                  9         39                                 20887  1    2 
INSTITUTE  (2GERHAM) Institut fur Experimentalphysik, University  20887  1    3 
                     of Hamburg (first 4 authors)                 20887  1    4 
           (2GERFRK) Institut fur Theoretische Physik, University 20887  1    5 
                     of Frankfurt (last 3 authors).               20887  1    6 
REFERENCE  (J,NP,63,438,1965)                                     20887  1    7 
           ((P,EANDC(E)-49,4,1963)=(P,INDC(EUR)-003,4,1963))      20887  1    8 
           (P,EANDC(E)-57,18,1965)                                20887  1    9 
           (P,EANDC(E)-66,42,1966)                                20887  1   10 
AUTHOR     (M.Bormann,E.Fretwurst,P.Schehka,G.Wrege,              20887  1   11 
            H.Buettner,A.Lindner,H.Meldner)                       20887  1   12 
TITLE       Some excitation functions of neutron induced reactions20887  1   13 
            in the energy range 12.6-19.6 MeV                     20887  1   14 
FACILITY   (VDG,2GERHAM) Van de Graaff used at 3MeV               20887  1   15 
           (CCW,2GERHAM) Cockcroft-Walton neutron generator used  20887  1   16 
                   at 180 keV for absolute cross section          20887  1   17 
                   measurement with 14.1 MeV or 14.8 MeV          20887  1   18 
                   neutrons.                                      20887  1   19 
INC-SOURCE (D-T) Titanium-tritium target. Different energies      20887  1   20 
                 obtained using various neutron angles.           20887  1   21 
METHOD     (ACTIV) Activation                                     20887  1   22 
ERR-ANALYS (ERR-T) Errors due to statistics, geometry, counting   20887  1   23 
            efficiency and flux calibration included. Errors      20887  1   24 
            in decay schemes ignored.                             20887  1   25 
           (ERR-1) The total error of the flux measurement was    20887  1   26 
           about 4.5% which essentially comprises of the errors   20887  1   27 
           in the counting efficiency of the stilbene crystal,    20887  1   28 
           in the energy calibration curve for protons in stilbene20887  1   29 
           and in the estimation of edge-effects and multiple n-p 20887  1   30 
           scattering in the crystal                              20887  1   31 
HISTORY    (19790404C)                                            20887  1   32 
           (19790528E)                                            20887  1   33 
           (19800418A) G.C. 4 Data sets added from EANDC(E)-57.   20887  1   34 
            and 2 data sets from EANDC(E)-49.                     20887  1   35 
           (19801127A) G.C., Error analysis changed and monitor   20887  1   36 
            reaction strings corrected.                           20887  1   37 
           (19860321U)N.Ch                                        20887  1   38 
           (20120801U) SD: Updated to new date formats,lower case.20887  1   39 
           (20180310U) SD: Page of ref. corrected (EANDC(E)-57,17 20887  1   40 
           EANDC(E)-57,18). COMMON section added.                 20887  1   41 
ENDBIB              39          0                                 20887  1   42 
COMMON               1          3                                 20887  1   43 
ERR-1                                                             20887  1   44 
PER-CENT                                                          20887  1   45 
  4.5                                                             20887  1   46 
ENDCOMMON            3          0                                 20887  1   47 
ENDSUBENT           46          0                                 20887  199999 
SUBENT        20887002   20120801                             22322088700200001 
BIB                  7         12                                 2088700200002 
REACTION   (7-N-14(N,2N)7-N-13,,SIG)                              2088700200003 
SAMPLE     .NH4-NO3.                                              2088700200004 
DETECTOR   (NAICR) NaI(Tl) well crystal scintillator              2088700200005 
           (SCIN ) Stilbene scintillator used to provide absolute 2088700200006 
                   flux measurement at 14.1 MeV only. Error in    2088700200007 
                   flux calibration 4.5%. Cross sections at other 2088700200008 
                   energy measured relative to the 14.1 MeV point.2088700200009 
DECAY-DATA (7-N-13,10.05MIN,AR)                                   2088700200010 
STATUS     (TABLE) .Data table 2 in NP,63,438,1965.               2088700200011 
HISTORY    (19801127A) G.C., Data headings changed.               2088700200012 
           (19801218E)                                            2088700200013 
CORRECTION .Flux attenuation in sample.                           2088700200014 
ENDBIB              12          0                                 2088700200015 
COMMON               1          3                                 2088700200016 
HL-ERR                                                            2088700200017 
MIN                                                               2088700200018 
 0.05                                                             2088700200019 
ENDCOMMON            3          0                                 2088700200020 
DATA                 4         12                                 2088700200021 
EN         EN-ERR     DATA       ERR-T                            2088700200022 
MEV        MEV        MB         MB                               2088700200023 
 1.3200E+01 2.0000E-01 3.3000E+00 4.0000E-01                      2088700200024 
 1.4000E+01 3.0000E-01 6.0000E+00 3.0000E-01                      2088700200025 
 1.4100E+01 3.0000E-01 6.3000E+00 4.0000E-01                      2088700200026 
 1.5200E+01 3.0000E-01 8.7000E+00 7.0000E-01                      2088700200027 
 1.5800E+01 3.0000E-01 9.6000E+00 7.0000E-01                      2088700200028 
 1.6000E+01 3.0000E-01 9.5000E+00 8.0000E-01                      2088700200029 
 1.7000E+01 3.0000E-01 1.0200E+01 8.0000E-01                      2088700200030 
 1.7500E+01 3.0000E-01 1.0900E+01 8.0000E-01                      2088700200031 
 1.7900E+01 3.0000E-01 1.0900E+01 9.0000E-01                      2088700200032 
 1.8100E+01 3.0000E-01 1.1500E+01 8.0000E-01                      2088700200033 
 1.8500E+01 3.0000E-01 1.0000E+01 8.0000E-01                      2088700200034 
 1.8800E+01 1.0000E-01 1.0700E+01 8.0000E-01                      2088700200035 
ENDDATA             14          0                                 2088700200036 
ENDSUBENT           35          0                                 2088700299999 
SUBENT        20887003   20120801                             22322088700300001 
BIB                  7         12                                 2088700300002 
REACTION   (9-F-19(N,2N)9-F-18,,SIG)                              2088700300003 
SAMPLE     .Ca-F2.                                                2088700300004 
DETECTOR   (NAICR) NaI(Tl) well crystal scintillator              2088700300005 
           (SCIN ) stilbene scintillator used to provide absolute 2088700300006 
                   flux measurement at 14.1 MeV only. Error in    2088700300007 
                   flux calibration 4.5%. Cross sections at other 2088700300008 
                   energy measured relative to the 14.1 MeV point.2088700300009 
DECAY-DATA (9-F-18,111.0MIN,AR)                                   2088700300010 
STATUS     (TABLE) .Data table 2 in NP,63,438,1965.               2088700300011 
HISTORY    (19801127A) G.C., Data headings changed.               2088700300012 
           (19801218E)                                            2088700300013 
CORRECTION .Flux attenuation in sample.                           2088700300014 
ENDBIB              12          0                                 2088700300015 
COMMON               1          3                                 2088700300016 
HL-ERR                                                            2088700300017 
MIN                                                               2088700300018 
 2.0                                                              2088700300019 
ENDCOMMON            3          0                                 2088700300020 
DATA                 4         10                                 2088700300021 
EN         EN-ERR     DATA       ERR-T                            2088700300022 
MEV        MEV        MB         MB                               2088700300023 
 1.2600E+01 2.0000E-01 1.3400E+01 1.2000E+00                      2088700300024 
 1.3200E+01 2.0000E-01 2.5700E+01 2.2000E+00                      2088700300025 
 1.4100E+01 3.0000E-01 4.1200E+01 2.2000E+00                      2088700300026 
 1.5200E+01 3.0000E-01 6.0200E+01 5.2000E+00                      2088700300027 
 1.6000E+01 3.0000E-01 6.8700E+01 5.9000E+00                      2088700300028 
 1.7100E+01 3.0000E-01 7.8800E+01 6.8000E+00                      2088700300029 
 1.7800E+01 3.0000E-01 8.6500E+01 7.4000E+00                      2088700300030 
 1.8500E+01 3.0000E-01 9.4500E+01 8.1000E+00                      2088700300031 
 1.9100E+01 2.0000E-01 9.7700E+01 8.4000E+00                      2088700300032 
 1.9600E+01 1.0000E-01 9.1900E+01 7.9000E+00                      2088700300033 
ENDDATA             12          0                                 2088700300034 
ENDSUBENT           33          0                                 2088700399999 
SUBENT        20887004   20120801                             22322088700400001 
BIB                  7         12                                 2088700400002 
REACTION   (19-K-39(N,2N)19-K-38-G,,SIG)                          2088700400003 
SAMPLE     .K-I.                                                  2088700400004 
DETECTOR   (NAICR) NaI(Tl) well crystal scintillator              2088700400005 
           (SCIN ) stilbene scintillator used to provide absolute 2088700400006 
            flux measurement at 14.1 MeV only. Error in flux      2088700400007 
            calibration 4.5%. Cross sections at other energies    2088700400008 
            measured relative to the 14.1 MeV point.              2088700400009 
DECAY-DATA (19-K-38-G,7.67MIN,AR)                                 2088700400010 
STATUS     (TABLE) .Data table 2 in NP,63,438,1965.               2088700400011 
HISTORY    (19801127A) G.C., Data headings changed.               2088700400012 
           (19801218E)                                            2088700400013 
CORRECTION .Flux attenuation in sample.                           2088700400014 
ENDBIB              12          0                                 2088700400015 
COMMON               1          3                                 2088700400016 
HL-ERR                                                            2088700400017 
MIN                                                               2088700400018 
 0.05                                                             2088700400019 
ENDCOMMON            3          0                                 2088700400020 
DATA                 4          7                                 2088700400021 
EN         EN-ERR     DATA       ERR-T                            2088700400022 
MEV        MEV        MB         MB                               2088700400023 
 1.4100E+01 3.0000E-01 2.7000E+00 2.0000E-01                      2088700400024 
 1.5000E+01 3.0000E-01 6.1000E+00 6.0000E-01                      2088700400025 
 1.5800E+01 3.0000E-01 9.6000E+00 8.0000E-01                      2088700400026 
 1.6700E+01 3.0000E-01 1.5300E+01 1.2000E+00                      2088700400027 
 1.7500E+01 3.0000E-01 1.7600E+01 1.3000E+00                      2088700400028 
 1.8100E+01 3.0000E-01 2.1400E+01 1.6000E+00                      2088700400029 
 1.8800E+01 1.0000E-01 2.3800E+01 1.7000E+00                      2088700400030 
ENDDATA              9          0                                 2088700400031 
ENDSUBENT           30          0                                 2088700499999 
SUBENT        20887005   20120801                             22322088700500001 
BIB                  7         14                                 2088700500002 
REACTION   (31-GA-69(N,2N)31-GA-68,,SIG)                          2088700500003 
SAMPLE     .Ga2-O3.                                               2088700500004 
DETECTOR   (COIN,NAICR,NAICR) Two NaI(Tl) crystals used in        2088700500005 
                   gamma-gamma coincidence arrangement            2088700500006 
           (SCIN) stilbene scintillator used to provide absolute  2088700500007 
            flux measurement at 14.1 MeV only. Error in flux      2088700500008 
            calibration 4.5%. Cross sections at other energies    2088700500009 
            measured relative to the 14.1 MeV point.              2088700500010 
DECAY-DATA (31-GA-68,68.2MIN,AR)                                  2088700500011 
STATUS     (TABLE) .Data table 2 in NP,63,438,1965.               2088700500012 
HISTORY    (19801127A) G.C., Data headings changed.               2088700500013 
           (19801218E)                                            2088700500014 
CORRECTION .Flux attenuation in the sample,self absorption        2088700500015 
            in the sample,accidental coincidences.                2088700500016 
ENDBIB              14          0                                 2088700500017 
COMMON               1          3                                 2088700500018 
HL-ERR                                                            2088700500019 
MIN                                                               2088700500020 
 0.1                                                              2088700500021 
ENDCOMMON            3          0                                 2088700500022 
DATA                 4         12                                 2088700500023 
EN         EN-ERR     DATA       ERR-T                            2088700500024 
MEV        MEV        MB         MB                               2088700500025 
 1.2600E+01 2.0000E-01 6.6000E+02 6.4000E+01                      2088700500026 
 1.3200E+01 2.0000E-01 6.8800E+02 6.6000E+01                      2088700500027 
 1.4100E+01 3.0000E-01 9.2500E+02 7.5000E+01                      2088700500028 
 1.4600E+01 2.0000E-01 9.9400E+02 8.1000E+01                      2088700500029 
 1.4800E+01 2.0000E-01 1.0570E+03 8.6000E+01                      2088700500030 
 1.5200E+01 3.0000E-01 1.0040E+03 9.6000E+01                      2088700500031 
 1.6000E+01 3.0000E-01 1.1430E+03 1.1000E+02                      2088700500032 
 1.6500E+01 3.0000E-01 1.2040E+03 1.1500E+02                      2088700500033 
 1.7400E+01 3.0000E-01 1.1690E+03 1.1200E+02                      2088700500034 
 1.7800E+01 3.0000E-01 1.2860E+03 1.2300E+02                      2088700500035 
 1.8200E+01 2.0000E-01 1.1580E+03 1.1100E+02                      2088700500036 
 1.8700E+01 2.0000E-01 1.1800E+03 1.1300E+02                      2088700500037 
ENDDATA             14          0                                 2088700500038 
ENDSUBENT           37          0                                 2088700599999 
SUBENT        20887006   20120801                             22322088700600001 
BIB                  7         12                                 2088700600002 
REACTION   (38-SR-88(N,2N)38-SR-87-M,,SIG)                        2088700600003 
SAMPLE     .Sr-C-O3.                                              2088700600004 
DETECTOR   (NAICR) NaI(Tl) well crystal scintillator              2088700600005 
           (SCIN ) stilbene scintillator used to provide absolute 2088700600006 
            flux measurement at 14.1 MeV only. Error in flux      2088700600007 
            calibration 4.5%. Cross sections at other energies    2088700600008 
            measured relative to the 14.1 MeV point.              2088700600009 
DECAY-DATA (38-SR-87-M,2.83HR,DG)                                 2088700600010 
STATUS     (TABLE) .Data table 2 in NP,63,438,1965.               2088700600011 
HISTORY    (19801127A) G.C., Data headings changed.               2088700600012 
           (19801218E)                                            2088700600013 
CORRECTION .Flux attenuation in sample.                           2088700600014 
ENDBIB              12          0                                 2088700600015 
COMMON               1          3                                 2088700600016 
HL-ERR                                                            2088700600017 
HR                                                                2088700600018 
 0.02                                                             2088700600019 
ENDCOMMON            3          0                                 2088700600020 
DATA                 4         10                                 2088700600021 
EN         EN-ERR     DATA       ERR-T                            2088700600022 
MEV        MEV        MB         MB                               2088700600023 
 1.2600E+01 2.0000E-01 1.0600E+02 8.0000E+00                      2088700600024 
 1.3200E+01 2.0000E-01 1.6500E+02 1.2000E+01                      2088700600025 
 1.4100E+01 3.0000E-01 2.1300E+02 1.2000E+01                      2088700600026 
 1.5200E+01 3.0000E-01 2.4600E+02 1.9000E+01                      2088700600027 
 1.6000E+01 3.0000E-01 2.4800E+02 1.9000E+01                      2088700600028 
 1.7100E+01 3.0000E-01 2.7900E+02 2.1000E+01                      2088700600029 
 1.8000E+01 3.0000E-01 2.7000E+02 2.0000E+01                      2088700600030 
 1.8700E+01 2.0000E-01 2.6900E+02 2.0000E+01                      2088700600031 
 1.9100E+01 2.0000E-01 2.3500E+02 1.8000E+01                      2088700600032 
 1.9600E+01 1.0000E-01 2.2100E+02 1.7000E+01                      2088700600033 
ENDDATA             12          0                                 2088700600034 
ENDSUBENT           33          0                                 2088700699999 
SUBENT        20887007   20120801                             22322088700700001 
BIB                  7         12                                 2088700700002 
REACTION   (25-MN-55(N,A)23-V-52,,SIG)                            2088700700003 
SAMPLE     .Manganese metal.                                      2088700700004 
DETECTOR   (NAICR) NaI(Tl) well crystal scintillator              2088700700005 
           (SCIN ) stilbene scintillator used to provide absolute 2088700700006 
            flux measurement at 14.1 MeV only. Error in flux      2088700700007 
            calibration 4.5%. Cross sections at other energies    2088700700008 
            measured relative to the 14.1 MeV point.              2088700700009 
DECAY-DATA (23-V-52,3.75MIN,DG)                                   2088700700010 
STATUS     (TABLE) .Data table 2 in NP,63,438,1965.               2088700700011 
HISTORY    (19801127A) G.C., Data headings changed.               2088700700012 
           (19801218E)                                            2088700700013 
CORRECTION .Flux attenuation in sample.                           2088700700014 
ENDBIB              12          0                                 2088700700015 
COMMON               1          3                                 2088700700016 
HL-ERR                                                            2088700700017 
MIN                                                               2088700700018 
 0.01                                                             2088700700019 
ENDCOMMON            3          0                                 2088700700020 
DATA                 4         10                                 2088700700021 
EN         EN-ERR     DATA       ERR-T                            2088700700022 
MEV        MEV        MB         MB                               2088700700023 
 1.2600E+01 2.0000E-01 2.9200E+01 2.1000E+00                      2088700700024 
 1.3200E+01 2.0000E-01 3.3400E+01 2.4000E+00                      2088700700025 
 1.4000E+01 3.0000E-01 3.2600E+01 1.7000E+00                      2088700700026 
 1.5000E+01 3.0000E-01 3.5400E+01 2.6000E+00                      2088700700027 
 1.5800E+01 3.0000E-01 3.4400E+01 2.5000E+00                      2088700700028 
 1.6700E+01 3.0000E-01 3.3700E+01 2.4000E+00                      2088700700029 
 1.7500E+01 3.0000E-01 2.9100E+01 2.1000E+00                      2088700700030 
 1.8100E+01 3.0000E-01 2.7800E+01 2.0000E+00                      2088700700031 
 1.8800E+01 2.0000E-01 2.4700E+01 1.8000E+00                      2088700700032 
 1.8800E+01 1.0000E-01 2.2700E+01 1.6000E+00                      2088700700033 
ENDDATA             12          0                                 2088700700034 
ENDSUBENT           33          0                                 2088700799999 
SUBENT        20887008   20120801                             22322088700800001 
BIB                  7         12                                 2088700800002 
REACTION   (9-F-19(N,P)8-O-19,,SIG)                               2088700800003 
SAMPLE     .Ca-F2.                                                2088700800004 
DETECTOR   (NAICR) NaI(Tl) well crystal scintillator              2088700800005 
           (SCIN ) stilbene scintillator used to provide absolute 2088700800006 
            flux measurement at 14.1 MeV only. Error in flux      2088700800007 
            calibration 4.5%. Cross sections at other energies    2088700800008 
            measured relative to the 14.1 MeV point.              2088700800009 
DECAY-DATA (8-O-19,27.2SEC,DG)                                    2088700800010 
STATUS     (TABLE) .Data table 2 in NP,63,438,1965.               2088700800011 
HISTORY    (19801127A) G.C., Data headings changed.               2088700800012 
           (19801218E)                                            2088700800013 
CORRECTION .Flux attenuation in sample.                           2088700800014 
ENDBIB              12          0                                 2088700800015 
COMMON               1          3                                 2088700800016 
HL-ERR                                                            2088700800017 
SEC                                                               2088700800018 
 0.3                                                              2088700800019 
ENDCOMMON            3          0                                 2088700800020 
DATA                 4         10                                 2088700800021 
EN         EN-ERR     DATA       ERR-T                            2088700800022 
MEV        MEV        MB         MB                               2088700800023 
 1.2600E+01 2.0000E-01 2.6400E+01 2.3000E+00                      2088700800024 
 1.3200E+01 2.0000E-01 2.3500E+01 2.0000E+00                      2088700800025 
 1.4100E+01 3.0000E-01 1.9900E+01 1.3000E+00                      2088700800026 
 1.5200E+01 3.0000E-01 1.7300E+01 1.5000E+00                      2088700800027 
 1.6000E+01 3.0000E-01 1.5700E+01 1.4000E+00                      2088700800028 
 1.7100E+01 3.0000E-01 1.5800E+01 1.4000E+00                      2088700800029 
 1.8000E+01 3.0000E-01 1.4300E+01 1.3000E+00                      2088700800030 
 1.8700E+01 3.0000E-01 1.2800E+01 1.1000E+00                      2088700800031 
 1.9400E+01 1.0000E-01 1.1300E+01 1.0000E+00                      2088700800032 
 1.9600E+01 1.0000E-01 1.0900E+01 9.0000E-01                      2088700800033 
ENDDATA             12          0                                 2088700800034 
ENDSUBENT           33          0                                 2088700899999 
SUBENT        20887009   20120801                             22322088700900001 
BIB                  9         20                                 2088700900002 
REACTION   (30-ZN-66(N,P)29-CU-66,,SIG)                           2088700900003 
SAMPLE     .Zinc metal.                                           2088700900004 
DETECTOR   (GEMUC) End window Geiger counter                      2088700900005 
DECAY-DATA (29-CU-66,5.3MIN,B-) Hl+-0.1min.                       2088700900006 
MONITOR    (3-LI-6(N,T)2-HE-4,,SIG) Lithium-6 iodide(Eu)          2088700900007 
                   scintillator used to give absolute flux        2088700900008 
                   measurement at 14.1 MeV assuming Li-6          2088700900009 
                   reaction cross section of 25.8 mb +-6%         2088700900010 
                   from priv.comm. Other cross sections           2088700900011 
                   measured relative to the 14.8 MeV point.       2088700900012 
MONIT-REF  (,H.Pollelm,W,POLLELM,1965)                            2088700900013 
STATUS     (TABLE) .Data table 2 in NP,63,438,1965.               2088700900014 
CORRECTION .Flux attenuation in the samples, absorption of        2088700900015 
            betas by counter window and air, self absorption      2088700900016 
            and scattering in the sample.                         2088700900017 
HISTORY    (19801127A) G.C., Data headings changed.               2088700900018 
           (19801218E)                                            2088700900019 
           (20120801A) SD: EN-NRM was added, MONIT value was      2088700900020 
           corrected (25.6 => 25.8). EN-NRM value was corrected   2088700900021 
             (14.8 => 14.1)                                       2088700900022 
ENDBIB              20          0                                 2088700900023 
COMMON               4          3                                 2088700900024 
EN-NRM     MONIT      MONIT-ERR  HL-ERR                           2088700900025 
MEV        MB         PER-CENT   MIN                              2088700900026 
 14.1       2.5800E+01 6.0000E+00 0.1                             2088700900027 
ENDCOMMON            3          0                                 2088700900028 
DATA                 4          7                                 2088700900029 
EN         EN-ERR     DATA       ERR-T                            2088700900030 
MEV        MEV        MB         MB                               2088700900031 
 1.3200E+01 5.0000E-01 7.4400E+01 9.7000E+00                      2088700900032 
 1.4800E+01 6.0000E-01 7.7400E+01 6.5000E+00                      2088700900033 
 1.5200E+01 6.0000E-01 7.3500E+01 9.6000E+00                      2088700900034 
 1.7000E+01 6.0000E-01 7.0200E+01 9.1000E+00                      2088700900035 
 1.7900E+01 6.0000E-01 6.0700E+01 7.3000E+00                      2088700900036 
 1.8800E+01 4.0000E-01 6.2000E+01 7.1000E+00                      2088700900037 
 1.9400E+01 2.0000E-01 5.7000E+01 6.8000E+00                      2088700900038 
ENDDATA              9          0                                 2088700900039 
ENDSUBENT           38          0                                 2088700999999 
SUBENT        20887010   20120801                             22322088701000001 
BIB                  5         11                                 2088701000002 
REACTION   (22-TI-46(N,P)21-SC-46,,SIG)                           2088701000003 
DETECTOR   (NAICR) Na-I-(Tl) crystal and                          2088701000004 
           (SCIN ) stilbene crystal for n flux determination.     2088701000005 
PART-DET   (DG   ) Decay gammas.                                  2088701000006 
STATUS     (TABLE) .Data table 2.2 in EANDC(E)-57, p.17 (1965).   2088701000007 
HISTORY    (19800403A) Added data set.                            2088701000008 
           (19800429E)                                            2088701000009 
           (19801127A) G.C., Data headings changed.               2088701000010 
           (19801218E)                                            2088701000011 
           (19860321A)N.Ch                                        2088701000012 
           (19860416E)                                            2088701000013 
ENDBIB              11          0                                 2088701000014 
NOCOMMON             0          0                                 2088701000015 
DATA                 4          6                                 2088701000016 
EN         EN-RSL     DATA       ERR-T                            2088701000017 
MEV        MEV        B          B                                2088701000018 
 1.2500E+01 2.0000E-01 2.5000E-01 3.1000E-02                      2088701000019 
 1.3000E+01 2.0000E-01 2.5100E-01 3.1000E-02                      2088701000020 
 1.4100E+01 3.0000E-01 2.5700E-01 1.7000E-02                      2088701000021 
 1.5000E+01 3.0000E-01 2.4700E-01 3.0000E-02                      2088701000022 
 1.6000E+01 3.0000E-01 2.3400E-01 2.8000E-02                      2088701000023 
 1.7000E+01 3.0000E-01 2.2200E-01 2.7000E-02                      2088701000024 
ENDDATA              8          0                                 2088701000025 
ENDSUBENT           24          0                                 2088701099999 
SUBENT        20887011   20120801                             22322088701100001 
BIB                  5         10                                 2088701100002 
REACTION   (22-TI-48(N,P)21-SC-48,,SIG)                           2088701100003 
DETECTOR   (NAICR) Na-I-(Tl) crystal and                          2088701100004 
           (SCIN ) stilbene crystal for neutron flux              2088701100005 
            determination.                                        2088701100006 
PART-DET   (DG   ) Decay gammas.                                  2088701100007 
STATUS     (TABLE) .Data table 2.2 in EANDC(E)-57, p.17 (1965).   2088701100008 
HISTORY    (19800403A) G.C. Added data set from EANDC(E)-57.      2088701100009 
           (19800429E)                                            2088701100010 
           (19801127A) G.C., Data headings changed.               2088701100011 
           (19801218E)                                            2088701100012 
ENDBIB              10          0                                 2088701100013 
NOCOMMON             0          0                                 2088701100014 
DATA                 4          9                                 2088701100015 
EN         EN-RSL     DATA       ERR-T                            2088701100016 
MEV        MEV        B          B                                2088701100017 
 1.2500E+01 2.0000E-01 5.0800E-02 5.5000E-03                      2088701100018 
 1.3000E+01 2.0000E-01 6.1500E-02 6.4000E-03                      2088701100019 
 1.4100E+01 3.0000E-01 6.2800E-02 4.8000E-03                      2088701100020 
 1.5000E+01 3.0000E-01 6.4000E-02 6.7000E-03                      2088701100021 
 1.6000E+01 3.0000E-01 5.5600E-02 5.8000E-03                      2088701100022 
 1.7000E+01 3.0000E-01 5.1200E-02 5.3000E-03                      2088701100023 
 1.8000E+01 3.0000E-01 4.8300E-02 5.0000E-03                      2088701100024 
 1.8600E+01 3.0000E-01 4.4800E-02 4.7000E-03                      2088701100025 
 1.9600E+01 1.0000E-01 3.3000E-02 4.0000E-03                      2088701100026 
ENDDATA             11          0                                 2088701100027 
ENDSUBENT           26          0                                 2088701199999 
SUBENT        20887012   20120801                             22322088701200001 
BIB                  5         11                                 2088701200002 
REACTION   (22-TI-46(N,2N)22-TI-45,,SIG)                          2088701200003 
DETECTOR   (COIN,NAICR,NAICR) Coincidence arrangement of two      2088701200004 
            Na-I-(Tl) counters, and                               2088701200005 
           (SCIN ) stilbene crystal for neutron flux              2088701200006 
            determination.                                        2088701200007 
PART-DET   (AR   ) Annihilation radiation.                        2088701200008 
STATUS     (TABLE) .Data table 2.2 in EANDC(E)-57, p.17 (1965).   2088701200009 
HISTORY    (19800403A) G.C. Added data set from EANDC(E)-57       2088701200010 
           (19800429E)                                            2088701200011 
           (19801127A) G.C., Data headings changed.               2088701200012 
           (19801218E)                                            2088701200013 
ENDBIB              11          0                                 2088701200014 
NOCOMMON             0          0                                 2088701200015 
DATA                 4          7                                 2088701200016 
EN         EN-RSL     DATA       ERR-T                            2088701200017 
MEV        MEV        B          B                                2088701200018 
 1.4100E+01 3.0000E-01 1.4000E-02 1.0000E-03                      2088701200019 
 1.5000E+01 3.0000E-01 6.9500E-02 8.0000E-03                      2088701200020 
 1.6000E+01 3.0000E-01 1.3700E-01 1.7000E-02                      2088701200021 
 1.7000E+01 3.0000E-01 1.7300E-01 2.2000E-02                      2088701200022 
 1.8000E+01 3.0000E-01 2.0200E-01 2.5000E-02                      2088701200023 
 1.8600E+01 3.0000E-01 2.1300E-01 2.6000E-02                      2088701200024 
 1.9600E+01 1.0000E-01 2.1400E-01 2.6000E-02                      2088701200025 
ENDDATA              9          0                                 2088701200026 
ENDSUBENT           25          0                                 2088701299999 
SUBENT        20887013   20120801                             22322088701300001 
BIB                  5         10                                 2088701300002 
REACTION   (27-CO-59(N,A)25-MN-56,,SIG)                           2088701300003 
DETECTOR   (NAICR) Na-I-(Tl) crystal and                          2088701300004 
           (SCIN) stilbene crystal for neutron flux               2088701300005 
            determination.                                        2088701300006 
PART-DET   (DG) Decay gammas.                                     2088701300007 
STATUS     (TABLE) .Data table 2.1 in EANDC(E)-57, p.17 (1965).   2088701300008 
HISTORY    (19800403A) G.C., Added data set from EANDC(E)-57      2088701300009 
           (19800429E)                                            2088701300010 
           (19801127A) G.C., Data headings changed.               2088701300011 
           (19801218E)                                            2088701300012 
ENDBIB              10          0                                 2088701300013 
NOCOMMON             0          0                                 2088701300014 
DATA                 3          1                                 2088701300015 
EN         DATA       ERR-T                                       2088701300016 
MEV        B          B                                           2088701300017 
 1.4100E+01 2.7000E-02 1.5000E-03                                 2088701300018 
ENDDATA              3          0                                 2088701300019 
ENDSUBENT           18          0                                 2088701399999 
SUBENT        20887014   20120801                             22322088701400001 
BIB                  8         14                                 2088701400002 
REACTION   (13-AL-27(N,A)11-NA-24,,SIG)                           2088701400003 
SAMPLE     .No details.                                           2088701400004 
DETECTOR   (GEMUC) 2*Pi end-window Geiger-Mueller counter.        2088701400005 
           (SCIN) Li-6-I-(Eu) crystal for neutron flux            2088701400006 
            determination.                                        2088701400007 
MONITOR    (3-LI-6(N,T)2-HE-4,,SIG)                               2088701400008 
PART-DET   (B) Decay betas.                                       2088701400009 
CORRECTION .Geometry and beta absorption within the foil,         2088701400010 
            the air and the counter window.                       2088701400011 
STATUS     (TABLE) Data taken from EANDC(E)-49, p.5.              2088701400012 
HISTORY    (19800418A) G.C., Data set added from EANDC(E)-49.     2088701400013 
           (19800429E)                                            2088701400014 
           (19801127A) G.C., Monitor reaction string corrected.   2088701400015 
           (19801218E)                                            2088701400016 
ENDBIB              14          0                                 2088701400017 
NOCOMMON             0          0                                 2088701400018 
DATA                 7          1                                 2088701400019 
EN         EN-RSL     EN-NRM     MONIT      MONIT-ERR  DATA       2088701400020 
ERR-T                                                             2088701400021 
MEV        MEV        MEV        MB         PER-CENT   MB         2088701400022 
PER-CENT                                                          2088701400023 
 1.4800E+01 6.0000E-01 1.4100E+01 2.5800E+01 6.0000E+00 1.2000E+022088701400024 
 7.3000E+00                                                       2088701400025 
ENDDATA              6          0                                 2088701400026 
ENDSUBENT           25          0                                 2088701499999 
SUBENT        20887015   20120801                             22322088701500001 
BIB                  8         14                                 2088701500002 
REACTION   (26-FE-56(N,P)25-MN-56,,SIG)                           2088701500003 
SAMPLE     .No details given.                                     2088701500004 
DETECTOR   (GEMUC) 2*Pi end-window Geiger Mueller counter.        2088701500005 
           (SCIN) Li-6-I-(Eu) crystal for neutron flux            2088701500006 
            determination.                                        2088701500007 
MONITOR    (3-LI-6(N,T)2-HE-4,,SIG)                               2088701500008 
PART-DET   (B) Decay betas.                                       2088701500009 
CORRECTION .For geometry and beta-absorption within the foil,     2088701500010 
            the air and in the counter window.                    2088701500011 
STATUS     (TABLE) Data taken from EANDC(E)-49, p.5.              2088701500012 
HISTORY    (19800418A) G.C., Added data set from EANDC(E)-49.     2088701500013 
           (19800429E)                                            2088701500014 
           (19801127A) G.C., Monitor reaction string corrected.   2088701500015 
           (19801218E)                                            2088701500016 
ENDBIB              14          0                                 2088701500017 
NOCOMMON             0          0                                 2088701500018 
DATA                 7          1                                 2088701500019 
EN         EN-RSL     EN-NRM     MONIT      MONIT-ERR  DATA       2088701500020 
ERR-T                                                             2088701500021 
MEV        MEV        MEV        MB         PER-CENT   MB         2088701500022 
PER-CENT                                                          2088701500023 
 1.4800E+01 6.0000E-01 1.4100E+01 2.5800E+01 6.0000E+00 1.0830E+022088701500024 
 8.0000E+00                                                       2088701500025 
ENDDATA              6          0                                 2088701500026 
ENDSUBENT           25          0                                 2088701599999 
ENDENTRY            15          0                                 2088799999999 
