ENTRY            20975   20060331                             21772097500000001 
SUBENT        20975001   20060331                             21772097500100001 
BIB                 13         48                                 2097500100002 
INSTITUTE  (2UK HAR)                                              2097500100003 
REFERENCE  (J,NP/A,118,313,196810)      Main reference            2097500100004 
           (J,NP,65,353,196503) G.D.James, Gives Details Of The   2097500100005 
                              Experimental Method.                2097500100006 
           (J,NP/A,139,471,196912) G.D.James +, Re-analysis Of    2097500100007 
            The Raw Data In This Work In Conjunction With         2097500100008 
            Transmission Data From The Later Work And A           2097500100009 
            Revised Energy Scale, Giving New Set Of Resonance     2097500100010 
            Parameters (EXFOR 20467).                             2097500100011 
AUTHOR     (G.D.JAMES,E.R.RAE)                                    2097500100012 
TITLE      -FISSION COMPONENTS IN U-234 RESONANCES-               2097500100013 
FACILITY   (LINAC) 45 MEV ELECTRON LINAC.                         2097500100014 
INC-SOURCE .Neutron Booster Source Giving Pulsed Neutrons         2097500100015 
            With Pulse Length 0.26 Microsecs, 192 Pulses          2097500100016 
            Per Second. Neutrons Then Moderated In 2.54 cm        2097500100017 
            Thick Polyethylene Slabs, Traversing A Further        2097500100018 
            Thickness Of 2.54 cm Of Aluminium And 0.0254 cm       2097500100019 
            Of Cadmium Before Reaching The U-234 Chamber.         2097500100020 
SAMPLE     .5.3 mg Of Enriched U-234 Spread Over 3 Foils Each     2097500100021 
            In The Form Of a 2.54 cm Diameter Circle Of Oxide     2097500100022 
            Spread Over a 3.8 cm Diameter And 0.0126 cm Thick     2097500100023 
            Platinum Backing.                                     2097500100024 
           .The Isotopic Composition Of The Material Was-         2097500100025 
            0.007 U-232, 98.92 U-234, 0.023 U-235, 0.003          2097500100026 
            U-236, 1.15 U-238 -all Figures In Percent.            2097500100027 
METHOD     (TOF)                                                  2097500100028 
DETECTOR   (SIBAR) Silicon Gold Surface Barrier Detectors Of      2097500100029 
                   29 mm Diameter Sensitive Area, Resistivity     2097500100030 
                   250 Ohm*cm, To Detect Fission Fragments.       2097500100031 
           (BF3)   BF3 Counter To Measure The Neutron Flux        2097500100032 
                   Spectrum.                                      2097500100033 
MONITOR    ((MONIT)92-U-235(N,F),,ARE) Normalization By Measuring 2097500100034 
                   The Fission Fragment Yield Relative To That Of 2097500100035 
                   U-235 And Equating The U-235 Fission Yield     2097500100036 
                   To The Integral Of The U-235 Cross-section     2097500100037 
                   Between 8 And 10 ev, Given As 212.0 b*ev,      2097500100038 
                   F.J.Shore+,Phys.Rev.,112,(1958),191. Cross-    2097500100039 
                   Section In This Region Is Mainly Due To a      2097500100040 
                   Resonance At 8.8 MeV.                          2097500100041 
PART-DET   (FF) Fission Fragments.                                2097500100042 
STATUS     (NDD) From NEUDADA.                                    2097500100043 
HISTORY    (19790622C)                                            2097500100044 
           (19790716E)                                            2097500100045 
           (19791112A) Reaction String In Subwork 003 Changed.    2097500100046 
           (19791112E)                                            2097500100047 
           (20060331A) Correction in according to Memo CP-E/089 in2097500100048 
            Sub.003. Dates were corrected for 4 digit year.       2097500100049 
            Uppercase corrected.                                  2097500100050 
ENDBIB              48          0                                 2097500100051 
COMMON               1          3                                 2097500100052 
MONIT                                                             2097500100053 
B*EV                                                              2097500100054 
 2.1200E+02                                                       2097500100055 
ENDCOMMON            3          0                                 2097500100056 
ENDSUBENT           55          0                                 2097500199999 
SUBENT        20975002   20060331                             21772097500200001 
BIB                  3          8                                 2097500200002 
REACTION   (92-U-234(N,F),,SIG,,RTE)                              2097500200003 
COMMENT    .The Energy Scale For This Data Set Was Chosen To      2097500200004 
            Agree With The Results Of Harvey And Hughes, Phys.    2097500200005 
            Rev.,109,(1958),471. This Scale Has Subsequently      2097500200006 
            Been Found To Be Incorrect At High Energies By        2097500200007 
            G.D.James And G.G.Slaughter, Nucl.Phys.,A139,         2097500200008 
            (1969),471.                                           2097500200009 
STATUS     (NDD) From NEUDADA.                                    2097500200010 
ENDBIB               8          0                                 2097500200011 
NOCOMMON             0          0                                 2097500200012 
DATA                 2        276                                 2097500200013 
EN         DATA                                                   2097500200014 
EV         B*RT-EV                                                2097500200015 
 5.0000E+00-1.4000E-01                                            2097500200016 
 5.0300E+00 6.7000E-01                                            2097500200017 
 5.0600E+00 1.0700E+00                                            2097500200018 
 5.0800E+00 2.0400E+00                                            2097500200019 
 5.1100E+00 6.2800E+00                                            2097500200020 
 5.1400E+00 1.2800E+01                                            2097500200021 
 5.1700E+00 2.2400E+01                                            2097500200022 
 5.1900E+00 2.4050E+01                                            2097500200023 
 5.2200E+00 1.6850E+01                                            2097500200024 
 5.2500E+00 9.2500E+00                                            2097500200025 
 5.2800E+00 3.9800E+00                                            2097500200026 
 5.3100E+00 1.8300E+00                                            2097500200027 
 5.3400E+00 1.4800E+00                                            2097500200028 
 5.3900E+00 9.9000E-01                                            2097500200029 
 5.3900E+00 9.6000E-01                                            2097500200030 
 5.4200E+00 2.0000E-01                                            2097500200031 
 5.4600E+00 2.3000E-01                                            2097500200032 
 5.4900E+00 0.0000E+00                                            2097500200033 
 5.5200E+00 6.0000E-02                                            2097500200034 
 9.2990E+01 0.0000E+00                                            2097500200035 
 9.3200E+01-1.3700E+00                                            2097500200036 
 9.3430E+01-3.9000E-01                                            2097500200037 
 9.3640E+01 1.9000E-01                                            2097500200038 
 9.3860E+01 0.0000E+00                                            2097500200039 
 9.4090E+01 1.3700E+00                                            2097500200040 
 9.4300E+01 7.8000E-01                                            2097500200041 
 9.4570E+01-1.9000E-01                                            2097500200042 
 9.4750E+01 2.1600E+00                                            2097500200043 
 9.4980E+01 4.9000E+00                                            2097500200044 
 9.5200E+01 5.4900E+00                                            2097500200045 
 9.5410E+01 5.8800E+00                                            2097500200046 
 9.5650E+01 2.3600E+00                                            2097500200047 
 9.5860E+01 2.1600E+00                                            2097500200048 
 9.6100E+01 3.9000E-01                                            2097500200049 
 9.6310E+01 1.1800E+00                                            2097500200050 
 9.6530E+01 2.7400E+00                                            2097500200051 
 9.6730E+01 1.1800E+00                                            2097500200052 
 9.6960E+01 5.9000E-01                                            2097500200053 
 1.0940E+02-1.9000E-01                                            2097500200054 
 1.0960E+02 9.6000E-01                                            2097500200055 
 1.0980E+02 7.7000E-01                                            2097500200056 
 1.1020E+02 1.1500E+00                                            2097500200057 
 1.1050E+02 1.5400E+00                                            2097500200058 
 1.1070E+02 3.8000E-01                                            2097500200059 
 1.1090E+02 2.6900E+00                                            2097500200060 
 1.1130E+02 7.1000E+00                                            2097500200061 
 1.1150E+02 1.0580E+01                                            2097500200062 
 1.1170E+02 2.4600E+01                                            2097500200063 
 1.1210E+02 2.7100E+01                                            2097500200064 
 1.1240E+02 1.9200E+01                                            2097500200065 
 1.1260E+02 1.2300E+01                                            2097500200066 
 1.1300E+02 5.5700E+00                                            2097500200067 
 1.1320E+02 1.1500E+00                                            2097500200068 
 1.1340E+02 7.7000E-01                                            2097500200069 
 1.1360E+02 1.3400E+00                                            2097500200070 
 1.1400E+02 2.5000E+00                                            2097500200071 
 1.1430E+02 5.7000E-01                                            2097500200072 
 1.1470E+02 0.0000E+00                                            2097500200073 
 1.1490E+02 7.6000E-01                                            2097500200074 
 1.7240E+02 0.0000E+00                                            2097500200075 
 1.7320E+02-1.8000E-01                                            2097500200076 
 1.7370E+02 0.0000E+00                                            2097500200077 
 1.7420E+02-5.4000E-01                                            2097500200078 
 1.7480E+02 1.9800E+00                                            2097500200079 
 1.7530E+02 9.0000E-01                                            2097500200080 
 1.7580E+02 1.0800E+00                                            2097500200081 
 1.7660E+02 1.4400E+00                                            2097500200082 
 1.7710E+02 2.7000E+00                                            2097500200083 
 1.7770E+02 2.7000E+00                                            2097500200084 
 1.7820E+02 5.2300E+00                                            2097500200085 
 1.7870E+02 2.5200E+00                                            2097500200086 
 1.7930E+02 2.3400E+00                                            2097500200087 
 1.7980E+02 0.0000E+00                                            2097500200088 
 1.8040E+02-7.2000E-01                                            2097500200089 
 1.8090E+02 3.6000E-01                                            2097500200090 
 1.8140E+02 2.1600E+00                                            2097500200091 
 1.8220E+02 1.6200E+00                                            2097500200092 
 1.8280E+02 2.3400E+00                                            2097500200093 
 1.8330E+02 3.7800E+00                                            2097500200094 
 1.8390E+02 3.6000E+00                                            2097500200095 
 1.8470E+02 5.5800E+00                                            2097500200096 
 1.8520E+02 5.4000E+00                                            2097500200097 
 1.8580E+02 2.1600E+00                                            2097500200098 
 1.8630E+02 5.4000E-01                                            2097500200099 
 1.8690E+02 7.2000E-01                                            2097500200100 
 1.8770E+02 3.6000E-01                                            2097500200101 
 1.8820E+02 2.3400E+00                                            2097500200102 
 1.8880E+02 1.0800E+00                                            2097500200103 
 1.8930E+02 1.8000E+00                                            2097500200104 
 1.8990E+02 1.4400E+00                                            2097500200105 
 1.9070E+02 3.6000E-01                                            2097500200106 
 3.4480E+02-6.6000E-01                                            2097500200107 
 3.4670E+02 4.9000E-01                                            2097500200108 
 3.4820E+02 8.2000E-01                                            2097500200109 
 3.4970E+02 1.6400E+00                                            2097500200110 
 3.5110E+02 9.9000E-01                                            2097500200111 
 3.5270E+02 2.4600E+00                                            2097500200112 
 3.5450E+02 2.8000E+00                                            2097500200113 
 3.5610E+02 1.9700E+00                                            2097500200114 
 3.5760E+02 4.9000E-01                                            2097500200115 
 3.5910E+02 1.6000E-01                                            2097500200116 
 3.6100E+02 1.6000E-01                                            2097500200117 
 3.6250E+02 8.2000E-01                                            2097500200118 
 3.6400E+02-3.3000E-01                                            2097500200119 
 3.6550E+02 4.9000E-01                                            2097500200120 
 3.6750E+02 0.0000E+00                                            2097500200121 
 3.6900E+02 1.6000E-01                                            2097500200122 
 3.7060E+02 4.9000E-01                                            2097500200123 
 3.7250E+02 3.3000E-01                                            2097500200124 
 3.7400E+02-6.5000E-01                                            2097500200125 
 3.7600E+02-6.5000E-01                                            2097500200126 
 3.7750E+02 6.5000E-01                                            2097500200127 
 3.7910E+02-4.8000E-01                                            2097500200128 
 3.8100E+02 1.7800E+00                                            2097500200129 
 3.8300E+02 3.2000E-01                                            2097500200130 
 3.8450E+02 1.6000E-01                                            2097500200131 
 3.8650E+02 8.1000E-01                                            2097500200132 
 3.8810E+02-4.8000E-01                                            2097500200133 
 3.9000E+02 1.4600E+00                                            2097500200134 
 3.9200E+02 1.7800E+00                                            2097500200135 
 3.9360E+02 2.2700E+00                                            2097500200136 
 3.9560E+02 5.3500E+00                                            2097500200137 
 3.9760E+02 4.7000E+00                                            2097500200138 
 3.9920E+02 2.5900E+00                                            2097500200139 
 4.0120E+02 4.9000E-01                                            2097500200140 
 4.0320E+02-1.6000E-01                                            2097500200141 
 4.0480E+02 0.0000E+00                                            2097500200142 
 4.0680E+02 3.2000E-01                                            2097500200143 
 4.0880E+02 9.5000E-01                                            2097500200144 
 4.1090E+02 1.7500E+00                                            2097500200145 
 4.1290E+02 1.5900E+00                                            2097500200146 
 4.1450E+02 0.0000E+00                                            2097500200147 
 4.1660E+02 1.1000E+00                                            2097500200148 
 4.1820E+02 1.5900E+00                                            2097500200149 
 4.2110E+02 9.5000E-01                                            2097500200150 
 4.2310E+02 4.7000E-01                                            2097500200151 
 4.2520E+02 0.0000E+00                                            2097500200152 
 4.2720E+02-6.3000E-01                                            2097500200153 
 4.2930E+02-1.1000E+00                                            2097500200154 
 4.3140E+02 6.3000E-01                                            2097500200155 
 4.3350E+02-3.2000E-01                                            2097500200156 
 4.3630E+02 7.9000E-01                                            2097500200157 
 4.3760E+02 0.0000E+00                                            2097500200158 
 4.4010E+02 6.3000E-01                                            2097500200159 
 4.4230E+02 6.3000E-01                                            2097500200160 
 4.4480E+02 0.0000E+00                                            2097500200161 
 4.4690E+02 1.4300E+00                                            2097500200162 
 4.4900E+02 2.4400E+00                                            2097500200163 
 4.5160E+02 2.0600E+00                                            2097500200164 
 4.5370E+02 2.2200E+00                                            2097500200165 
 4.5620E+02 5.5500E+00                                            2097500200166 
 4.5840E+02 1.2700E+01                                            2097500200167 
 4.6050E+02 2.0600E+01                                            2097500200168 
 4.6310E+02 2.7100E+01                                            2097500200169 
 4.6530E+02 2.0180E+01                                            2097500200170 
 4.6740E+02 4.6000E+00                                            2097500200171 
 4.6960E+02 5.0700E+00                                            2097500200172 
 4.7220E+02 4.4400E+00                                            2097500200173 
 4.7480E+02 1.9000E+00                                            2097500200174 
 4.7700E+02 1.5900E+00                                            2097500200175 
 4.7960E+02 4.7000E-01                                            2097500200176 
 4.8220E+02 6.3000E-01                                            2097500200177 
 4.8490E+02 0.0000E+00                                            2097500200178 
 4.8710E+02 2.6700E+00                                            2097500200179 
 4.8970E+02 3.1400E+00                                            2097500200180 
 4.9240E+02 3.8700E+00                                            2097500200181 
 4.9510E+02 9.1000E+00                                            2097500200182 
 4.9770E+02 1.1300E+01                                            2097500200183 
 5.0040E+02 6.2900E+00                                            2097500200184 
 5.0260E+02 2.8200E+00                                            2097500200185 
 5.0580E+02 3.7400E+00                                            2097500200186 
 5.0850E+02 3.4300E+00                                            2097500200187 
 5.1120E+02 7.3200E+00                                            2097500200188 
 5.1390E+02 6.4000E+00                                            2097500200189 
 5.1660E+02 7.9500E+00                                            2097500200190 
 5.1940E+02 1.6800E+01                                            2097500200191 
 5.2210E+02 2.5200E+01                                            2097500200192 
 5.2490E+02 2.9000E+01                                            2097500200193 
 5.2760E+02 2.2200E+01                                            2097500200194 
 5.3080E+02 1.0750E+01                                            2097500200195 
 5.3410E+02 4.3600E+00                                            2097500200196 
 5.3680E+02 3.1200E+00                                            2097500200197 
 5.3960E+02 2.6500E+00                                            2097500200198 
 5.4240E+02 2.3400E+00                                            2097500200199 
 5.4570E+02 1.8500E+00                                            2097500200200 
 5.4900E+02 2.0500E+00                                            2097500200201 
 5.5190E+02 3.4000E+00                                            2097500200202 
 5.5460E+02 5.4000E+00                                            2097500200203 
 5.5790E+02 7.7200E+00                                            2097500200204 
 5.6120E+02 1.5600E+01                                            2097500200205 
 5.6410E+02 2.8100E+01                                            2097500200206 
 5.6790E+02 2.9700E+01                                            2097500200207 
 5.7020E+02 2.2300E+01                                            2097500200208 
 5.7360E+02 1.3000E+01                                            2097500200209 
 5.7700E+02 7.1000E+00                                            2097500200210 
 5.8030E+02 9.3500E+00                                            2097500200211 
 5.8370E+02 1.3200E+01                                            2097500200212 
 5.8710E+02 1.7200E+01                                            2097500200213 
 5.9050E+02 2.0600E+01                                            2097500200214 
 5.9390E+02 1.9650E+01                                            2097500200215 
 5.9640E+02 1.0300E+01                                            2097500200216 
 6.0090E+02 4.1500E+00                                            2097500200217 
 6.0440E+02 2.3000E+00                                            2097500200218 
 6.0800E+02 3.5300E+00                                            2097500200219 
 6.1150E+02 2.4600E+00                                            2097500200220 
 6.1510E+02 1.8400E+00                                            2097500200221 
 6.1870E+02 2.0000E+00                                            2097500200222 
 6.2240E+02 2.9400E+00                                            2097500200223 
 6.2610E+02 2.6100E+00                                            2097500200224 
 6.2980E+02 2.1500E+00                                            2097500200225 
 6.3360E+02 1.8400E+00                                            2097500200226 
 6.3740E+02 2.2700E+00                                            2097500200227 
 6.4120E+02 3.9300E+00                                            2097500200228 
 6.4510E+02 2.1200E+00                                            2097500200229 
 6.4900E+02 3.6300E+00                                            2097500200230 
 6.5290E+02 9.2200E+00                                            2097500200231 
 6.5690E+02 8.4600E+00                                            2097500200232 
 6.6080E+02 4.2400E+00                                            2097500200233 
 6.6490E+02 1.9700E+00                                            2097500200234 
 6.6900E+02 0.0000E+00                                            2097500200235 
 6.7310E+02 1.9700E+00                                            2097500200236 
 6.7730E+02 1.6500E+00                                            2097500200237 
 6.8150E+02 1.9500E+00                                            2097500200238 
 6.8570E+02 4.0500E+00                                            2097500200239 
 6.9000E+02 3.1500E+00                                            2097500200240 
 6.9430E+02 6.0000E+00                                            2097500200241 
 6.9860E+02 9.7500E+00                                            2097500200242 
 7.0300E+02 1.4250E+01                                            2097500200243 
 7.0750E+02 8.1000E+00                                            2097500200244 
 7.1190E+02 3.7500E+00                                            2097500200245 
 7.1640E+02 1.6500E+00                                            2097500200246 
 7.2100E+02 1.0500E+00                                            2097500200247 
 7.2560E+02 2.9800E+00                                            2097500200248 
 7.3030E+02 2.2300E+00                                            2097500200249 
 7.3500E+02 4.7600E+00                                            2097500200250 
 7.3970E+02 6.7000E+00                                            2097500200251 
 7.4450E+02 3.2700E+00                                            2097500200252 
 7.4930E+02 1.3400E+00                                            2097500200253 
 7.5420E+02 1.5000E-01                                            2097500200254 
 7.5910E+02 3.0000E-01                                            2097500200255 
 7.6410E+02 1.3400E+00                                            2097500200256 
 7.6920E+02 4.5000E-01                                            2097500200257 
 7.7420E+02 4.5000E-01                                            2097500200258 
 7.7940E+02 1.1800E+00                                            2097500200259 
 7.8450E+02 2.0600E+00                                            2097500200260 
 7.8980E+02 2.2200E+00                                            2097500200261 
 7.9500E+02 1.1800E+00                                            2097500200262 
 8.0040E+02 1.7700E+00                                            2097500200263 
 8.0580E+02 2.2200E+00                                            2097500200264 
 8.1120E+02 1.1800E+00                                            2097500200265 
 8.1670E+02 1.9200E+00                                            2097500200266 
 8.2230E+02 1.5000E-01                                            2097500200267 
 7.0570E+03-8.6000E-01                                            2097500200268 
 7.2000E+03 4.3000E-01                                            2097500200269 
 7.3460E+03 1.4000E+00                                            2097500200270 
 7.4980E+03 1.6100E+00                                            2097500200271 
 7.6540E+03 1.0700E+00                                            2097500200272 
 7.8150E+03 2.7900E+00                                            2097500200273 
 7.9810E+03 1.9300E+00                                            2097500200274 
 8.1530E+03 4.6200E+00                                            2097500200275 
 8.3300E+03 7.3000E+00                                            2097500200276 
 8.5130E+03 2.6800E+00                                            2097500200277 
 8.7020E+03 8.6000E-01                                            2097500200278 
 8.8980E+03-4.3000E-01                                            2097500200279 
 9.1000E+03 1.4000E+00                                            2097500200280 
 9.3090E+03-5.4000E-01                                            2097500200281 
 9.5260E+03 3.2000E-01                                            2097500200282 
 9.7500E+03-8.6000E-01                                            2097500200283 
 1.2177E+04-8.0000E-01                                            2097500200284 
 1.2501E+04 8.2000E-01                                            2097500200285 
 1.2839E+04 8.2000E-01                                            2097500200286 
 1.3191E+04 4.0000E-01                                            2097500200287 
 1.3558E+04 2.0600E+00                                            2097500200288 
 1.3939E+04 5.8600E+00                                            2097500200289 
 1.4338E+04 2.0600E+00                                            2097500200290 
 1.4753E+04-4.0000E-01                                            2097500200291 
ENDDATA            278          0                                 2097500200292 
ENDSUBENT          291          0                                 2097500299999 
SUBENT        20975003   20060331                             21772097500300001 
BIB                  4         11                                 2097500300002 
REACTION   (92-U-234(N,F),,WID,,S0)                               2097500300003 
           .Integrated Areas Of Class 2 Resonances Whose          2097500300004 
            Existence And Parameters Were Inferred From           2097500300005 
            The Class 1 Resonance Structure.                      2097500300006 
COMMENT    .EN-RES Gives The Energy Of The Class 1 Resonance      2097500300007 
            Group Corresponding To Each Class 2 Resonance.        2097500300008 
STATUS     (DEP,20467001)Derived From Class 1 Resonance Parameters2097500300009 
                   In Table 1 Of Publication, Revised And With    2097500300010 
                   New Energy Scale In Table 2, NP,A139,(1969),   2097500300011 
                   471 (EXFOR 20467).                             2097500300012 
HISTORY    (19791112A) Reaction String Changed.                   2097500300013 
ENDBIB              11          0                                 2097500300014 
NOCOMMON             0          0                                 2097500300015 
DATA                 3          3                                 2097500300016 
EN-RES     EN-RES-MAX DATA                                        2097500300017 
KEV        KEV        B*EV                                        2097500300018 
            7.4000E-01 9.7700E+01                                 2097500300019 
 8.3300E+00            5.2000E+01                                 2097500300020 
 1.3900E+01            3.2000E+01                                 2097500300021 
ENDDATA              5          0                                 2097500300022 
ENDSUBENT           21          0                                 2097500399999 
ENDENTRY             3          0                                 2097599999999 
