ENTRY            21040   19800228                             00002104000000001 
SUBENT        21040001   19800228                             00002104000100001 
BIB                 11         21                                 2104000100002 
INSTITUTE  (2ITYPAD)                                              2104000100003 
REFERENCE  (P,EANDC(E)-76,68,6701) ABSTRACT OF MEASUREMENTS OF    2104000100004 
            TOTAL CROSS-SECTION OF NEUTRONS ON CA AND TH.         2104000100005 
           (J,NP/A,151,369,7008) GIVES FINAL THORIUM DATA,        2104000100006 
            SEE EXFOR 20500.                                      2104000100007 
           (W,ZAGO,6610) NUMERICAL DATA FOR CA.                   2104000100008 
AUTHOR     (G.ZAGO)                                               2104000100009 
TITLE      -TOTAL CROSS-SECTIONS OF NEUTRONS ON CA AND TH-        2104000100010 
FACILITY   (VDG  ) VAN DE GRAAFF.                                 2104000100011 
INC-SOURCE (D-D  ) DEUTERON-DEUTERIUM.                            2104000100012 
           (P-T  ) PROTON-TRITIUM.                                2104000100013 
           .NEUTRON ENERGY SPREAD (HWHM) IS 30 KEV AT 1.5 MEV     2104000100014 
            AND 100 KEV AT 8.5 MEV.                               2104000100015 
METHOD     (TOF  ) TIME-OF-FLIGHT TRANSMISSION METHOD.            2104000100016 
COMMENT    .FLUCTUATIONS IN CROSS-SECTION OBSERVED.               2104000100017 
STATUS     (NDD  ) FROM NEUDADA. DATA ORIGINALLY FROM PRIVATE     2104000100018 
                   COMMUNICATION, G.ZAGO, OCTOBER 1966.           2104000100019 
HISTORY    (790730C)                                              2104000100020 
           (790831E)                                              2104000100021 
ERR-ANALYS .STATISTICAL ERROR IS 1 TO 2 PERCENT, SYSTEMATIC       2104000100022 
            ERROR BELIEVED NOT LARGER THAN STATISTICAL ERROR.     2104000100023 
ENDBIB              21          0                                 2104000100024 
NOCOMMON             0          0                                 2104000100025 
ENDSUBENT           24          0                                 2104000199999 
SUBENT        21040002   19790831                             00002104000200001 
BIB                  2          3                                 2104000200002 
REACTION   (20-CA-0(N,TOT),,SIG)                                  2104000200003 
STATUS     (NDD  ) FROM NEUDADA. ORIGINAL DATA FROM PRIVATE       2104000200004 
                   COMMUNICATION, G.ZAGO, OCTOBER 1966.           2104000200005 
ENDBIB               3          0                                 2104000200006 
COMMON               1          3                                 2104000200007 
DATA-ERR                                                          2104000200008 
PER-CENT                                                          2104000200009 
 2.0000E+00                                                       2104000200010 
ENDCOMMON            3          0                                 2104000200011 
DATA                 2        282                                 2104000200012 
EN         DATA                                                   2104000200013 
MEV        B                                                      2104000200014 
 1.4010E+00 1.9880E+00                                            2104000200015 
 1.4260E+00 1.9840E+00                                            2104000200016 
 1.4520E+00 2.2540E+00                                            2104000200017 
 1.4820E+00 2.2160E+00                                            2104000200018 
 1.5080E+00 2.0110E+00                                            2104000200019 
 1.5380E+00 2.3880E+00                                            2104000200020 
 1.5640E+00 2.7300E+00                                            2104000200021 
 1.5890E+00 2.9980E+00                                            2104000200022 
 1.6190E+00 3.2050E+00                                            2104000200023 
 1.6450E+00 3.1470E+00                                            2104000200024 
 1.6700E+00 3.1460E+00                                            2104000200025 
 1.6950E+00 2.8570E+00                                            2104000200026 
 1.7260E+00 2.9620E+00                                            2104000200027 
 1.7510E+00 3.4500E+00                                            2104000200028 
 1.7820E+00 3.0440E+00                                            2104000200029 
 1.8070E+00 2.9370E+00                                            2104000200030 
 1.8320E+00 3.0600E+00                                            2104000200031 
 1.8570E+00 3.3640E+00                                            2104000200032 
 1.8830E+00 2.9420E+00                                            2104000200033 
 1.9080E+00 2.9800E+00                                            2104000200034 
 1.9380E+00 3.4090E+00                                            2104000200035 
 1.9640E+00 3.4410E+00                                            2104000200036 
 1.9940E+00 2.9240E+00                                            2104000200037 
 2.0190E+00 2.8460E+00                                            2104000200038 
 2.0440E+00 3.2190E+00                                            2104000200039 
 2.0700E+00 3.3630E+00                                            2104000200040 
 2.1000E+00 3.4150E+00                                            2104000200041 
 2.1250E+00 3.0030E+00                                            2104000200042 
 2.1550E+00 3.1970E+00                                            2104000200043 
 2.1800E+00 2.9800E+00                                            2104000200044 
 2.2060E+00 2.9440E+00                                            2104000200045 
 2.2310E+00 3.1640E+00                                            2104000200046 
 2.2610E+00 3.1260E+00                                            2104000200047 
 2.2860E+00 3.5380E+00                                            2104000200048 
 2.3110E+00 3.8370E+00                                            2104000200049 
 2.3370E+00 3.1640E+00                                            2104000200050 
 2.3670E+00 2.8060E+00                                            2104000200051 
 2.3920E+00 2.9610E+00                                            2104000200052 
 2.4170E+00 3.2550E+00                                            2104000200053 
 2.4420E+00 3.4620E+00                                            2104000200054 
 2.4730E+00 3.5700E+00                                            2104000200055 
 2.4980E+00 3.5360E+00                                            2104000200056 
 2.5230E+00 3.2430E+00                                            2104000200057 
 2.5480E+00 3.1650E+00                                            2104000200058 
 2.5730E+00 3.5680E+00                                            2104000200059 
 2.5980E+00 4.0090E+00                                            2104000200060 
 2.6290E+00 3.8600E+00                                            2104000200061 
 2.6540E+00 3.6440E+00                                            2104000200062 
 2.6790E+00 3.6370E+00                                            2104000200063 
 2.7040E+00 3.8240E+00                                            2104000200064 
 2.7340E+00 3.3330E+00                                            2104000200065 
 2.7590E+00 3.6980E+00                                            2104000200066 
 2.7840E+00 3.7690E+00                                            2104000200067 
 2.8100E+00 3.4050E+00                                            2104000200068 
 2.8350E+00 3.1340E+00                                            2104000200069 
 2.8600E+00 3.3980E+00                                            2104000200070 
 2.8900E+00 3.7640E+00                                            2104000200071 
 2.9150E+00 3.8270E+00                                            2104000200072 
 2.9400E+00 4.0520E+00                                            2104000200073 
 2.9650E+00 4.0470E+00                                            2104000200074 
 2.9960E+00 3.6510E+00                                            2104000200075 
 3.0210E+00 3.4450E+00                                            2104000200076 
 3.0460E+00 3.3940E+00                                            2104000200077 
 3.0710E+00 3.0500E+00                                            2104000200078 
 3.0960E+00 3.4000E+00                                            2104000200079 
 3.1210E+00 3.8800E+00                                            2104000200080 
 3.1510E+00 3.7310E+00                                            2104000200081 
 3.1760E+00 3.3670E+00                                            2104000200082 
 3.2010E+00 3.3540E+00                                            2104000200083 
 3.2270E+00 3.3490E+00                                            2104000200084 
 3.2520E+00 3.1240E+00                                            2104000200085 
 3.2770E+00 3.0390E+00                                            2104000200086 
 3.3020E+00 3.1640E+00                                            2104000200087 
 3.3270E+00 3.5350E+00                                            2104000200088 
 3.3570E+00 3.5940E+00                                            2104000200089 
 3.3820E+00 3.4600E+00                                            2104000200090 
 3.4070E+00 3.5750E+00                                            2104000200091 
 3.4320E+00 3.7250E+00                                            2104000200092 
 3.4570E+00 3.7200E+00                                            2104000200093 
 3.4830E+00 3.6900E+00                                            2104000200094 
 3.5130E+00 3.6500E+00                                            2104000200095 
 3.5380E+00 3.7350E+00                                            2104000200096 
 3.5630E+00 3.8700E+00                                            2104000200097 
 3.5880E+00 4.0000E+00                                            2104000200098 
 3.6130E+00 4.0800E+00                                            2104000200099 
 3.6380E+00 4.0900E+00                                            2104000200100 
 3.6630E+00 3.9400E+00                                            2104000200101 
 3.6880E+00 3.8600E+00                                            2104000200102 
 3.7180E+00 3.7800E+00                                            2104000200103 
 3.7430E+00 3.8120E+00                                            2104000200104 
 3.7680E+00 3.8900E+00                                            2104000200105 
 3.7940E+00 4.0140E+00                                            2104000200106 
 3.8190E+00 3.9130E+00                                            2104000200107 
 3.8440E+00 3.6240E+00                                            2104000200108 
 3.8690E+00 3.4210E+00                                            2104000200109 
 3.8940E+00 3.4960E+00                                            2104000200110 
 3.9190E+00 3.6330E+00                                            2104000200111 
 3.9440E+00 3.7680E+00                                            2104000200112 
 3.9740E+00 3.8890E+00                                            2104000200113 
 3.9990E+00 3.7450E+00                                            2104000200114 
 4.0240E+00 3.7450E+00                                            2104000200115 
 4.0490E+00 4.1000E+00                                            2104000200116 
 4.0740E+00 4.1300E+00                                            2104000200117 
 4.0990E+00 4.1200E+00                                            2104000200118 
 4.1240E+00 3.9500E+00                                            2104000200119 
 4.1490E+00 3.8400E+00                                            2104000200120 
 4.1750E+00 3.5900E+00                                            2104000200121 
 4.2000E+00 3.9700E+00                                            2104000200122 
 4.2250E+00 3.8300E+00                                            2104000200123 
 4.2500E+00 3.6050E+00                                            2104000200124 
 4.2800E+00 3.5850E+00                                            2104000200125 
 4.3050E+00 3.9100E+00                                            2104000200126 
 4.3300E+00 4.0100E+00                                            2104000200127 
 4.3550E+00 3.6700E+00                                            2104000200128 
 4.3780E+00 3.5700E+00                                            2104000200129 
 4.4000E+00 3.1450E+00                                            2104000200130 
 4.4280E+00 3.6700E+00                                            2104000200131 
 4.4560E+00 3.8000E+00                                            2104000200132 
 4.4840E+00 3.9250E+00                                            2104000200133 
 4.5000E+00 3.4850E+00                                            2104000200134 
 4.5300E+00 3.5100E+00                                            2104000200135 
 4.5550E+00 3.5200E+00                                            2104000200136 
 4.5790E+00 3.6000E+00                                            2104000200137 
 4.6060E+00 3.3850E+00                                            2104000200138 
 4.6340E+00 3.7300E+00                                            2104000200139 
 4.6610E+00 3.5950E+00                                            2104000200140 
 4.6890E+00 3.2900E+00                                            2104000200141 
 4.7220E+00 3.2800E+00                                            2104000200142 
 4.7490E+00 3.5500E+00                                            2104000200143 
 4.7760E+00 3.4200E+00                                            2104000200144 
 4.8030E+00 3.2850E+00                                            2104000200145 
 4.8370E+00 3.3300E+00                                            2104000200146 
 4.8630E+00 3.3750E+00                                            2104000200147 
 4.8950E+00 3.7200E+00                                            2104000200148 
 4.9220E+00 3.6100E+00                                            2104000200149 
 4.9490E+00 3.5300E+00                                            2104000200150 
 4.9760E+00 3.5900E+00                                            2104000200151 
 5.0030E+00 3.2900E+00                                            2104000200152 
 5.0290E+00 3.3570E+00                                            2104000200153 
 5.0290E+00 3.3600E+00                                            2104000200154 
 5.0610E+00 3.5530E+00                                            2104000200155 
 5.0880E+00 3.4540E+00                                            2104000200156 
 5.1140E+00 3.5360E+00                                            2104000200157 
 5.1410E+00 3.4210E+00                                            2104000200158 
 5.1740E+00 3.2850E+00                                            2104000200159 
 5.1990E+00 3.2100E+00                                            2104000200160 
 5.2250E+00 3.4540E+00                                            2104000200161 
 5.2510E+00 3.2080E+00                                            2104000200162 
 5.2780E+00 3.4660E+00                                            2104000200163 
 5.3040E+00 3.5350E+00                                            2104000200164 
 5.3350E+00 3.5610E+00                                            2104000200165 
 5.3670E+00 3.4700E+00                                            2104000200166 
 5.3880E+00 3.5010E+00                                            2104000200167 
 5.4140E+00 3.2900E+00                                            2104000200168 
 5.4400E+00 3.1630E+00                                            2104000200169 
 5.4660E+00 3.2020E+00                                            2104000200170 
 5.4970E+00 3.2360E+00                                            2104000200171 
 5.5230E+00 3.3260E+00                                            2104000200172 
 5.5490E+00 3.2850E+00                                            2104000200173 
 5.5750E+00 3.4110E+00                                            2104000200174 
 5.6010E+00 3.4000E+00                                            2104000200175 
 5.6260E+00 3.3940E+00                                            2104000200176 
 5.6570E+00 3.5410E+00                                            2104000200177 
 5.6830E+00 3.4170E+00                                            2104000200178 
 5.7090E+00 3.1230E+00                                            2104000200179 
 5.7400E+00 3.2350E+00                                            2104000200180 
 5.7600E+00 3.1700E+00                                            2104000200181 
 5.7860E+00 3.2210E+00                                            2104000200182 
 5.8110E+00 3.3990E+00                                            2104000200183 
 5.8370E+00 3.3510E+00                                            2104000200184 
 5.8680E+00 3.2530E+00                                            2104000200185 
 5.8930E+00 3.2220E+00                                            2104000200186 
 5.9190E+00 3.2700E+00                                            2104000200187 
 5.9440E+00 3.3630E+00                                            2104000200188 
 5.9700E+00 3.3150E+00                                            2104000200189 
 5.9950E+00 3.1360E+00                                            2104000200190 
 6.0210E+00 3.0210E+00                                            2104000200191 
 6.0460E+00 3.1210E+00                                            2104000200192 
 6.0710E+00 3.2310E+00                                            2104000200193 
 6.0970E+00 3.1980E+00                                            2104000200194 
 6.1270E+00 3.0240E+00                                            2104000200195 
 6.1520E+00 3.0320E+00                                            2104000200196 
 6.1780E+00 3.1940E+00                                            2104000200197 
 6.2030E+00 3.1730E+00                                            2104000200198 
 6.2280E+00 3.2200E+00                                            2104000200199 
 6.2530E+00 3.1000E+00                                            2104000200200 
 6.2780E+00 2.9710E+00                                            2104000200201 
 6.3040E+00 3.1910E+00                                            2104000200202 
 6.3290E+00 3.0650E+00                                            2104000200203 
 6.3540E+00 3.0810E+00                                            2104000200204 
 6.3840E+00 3.1590E+00                                            2104000200205 
 6.4090E+00 3.0420E+00                                            2104000200206 
 6.4340E+00 3.2240E+00                                            2104000200207 
 6.4590E+00 3.0670E+00                                            2104000200208 
 6.4840E+00 3.0790E+00                                            2104000200209 
 6.5100E+00 3.0330E+00                                            2104000200210 
 6.5350E+00 3.0270E+00                                            2104000200211 
 6.5600E+00 3.0830E+00                                            2104000200212 
 6.5900E+00 3.0670E+00                                            2104000200213 
 6.6150E+00 3.1440E+00                                            2104000200214 
 6.6390E+00 3.1910E+00                                            2104000200215 
 6.6640E+00 2.9930E+00                                            2104000200216 
 6.6890E+00 3.1820E+00                                            2104000200217 
 6.7140E+00 3.0410E+00                                            2104000200218 
 6.7390E+00 3.0330E+00                                            2104000200219 
 6.7640E+00 3.0430E+00                                            2104000200220 
 6.7890E+00 2.9970E+00                                            2104000200221 
 6.8140E+00 2.9810E+00                                            2104000200222 
 6.8390E+00 3.0530E+00                                            2104000200223 
 6.8630E+00 3.0600E+00                                            2104000200224 
 6.8930E+00 3.0230E+00                                            2104000200225 
 6.9180E+00 3.0170E+00                                            2104000200226 
 6.9430E+00 2.9630E+00                                            2104000200227 
 6.9680E+00 2.9930E+00                                            2104000200228 
 6.9920E+00 3.1940E+00                                            2104000200229 
 7.0170E+00 3.0200E+00                                            2104000200230 
 7.0420E+00 3.0970E+00                                            2104000200231 
 7.0670E+00 3.1130E+00                                            2104000200232 
 7.0910E+00 3.2110E+00                                            2104000200233 
 7.1160E+00 3.1100E+00                                            2104000200234 
 7.1410E+00 2.9510E+00                                            2104000200235 
 7.1650E+00 3.0260E+00                                            2104000200236 
 7.1900E+00 2.8720E+00                                            2104000200237 
 7.2150E+00 3.1030E+00                                            2104000200238 
 7.2390E+00 3.0700E+00                                            2104000200239 
 7.2640E+00 3.0030E+00                                            2104000200240 
 7.2940E+00 3.1090E+00                                            2104000200241 
 7.3180E+00 2.9440E+00                                            2104000200242 
 7.3430E+00 2.9060E+00                                            2104000200243 
 7.3670E+00 3.0380E+00                                            2104000200244 
 7.3920E+00 3.0030E+00                                            2104000200245 
 7.4170E+00 3.0100E+00                                            2104000200246 
 7.4410E+00 2.9340E+00                                            2104000200247 
 7.4660E+00 3.0210E+00                                            2104000200248 
 7.4900E+00 2.8480E+00                                            2104000200249 
 7.5150E+00 2.8780E+00                                            2104000200250 
 7.5390E+00 2.8660E+00                                            2104000200251 
 7.5640E+00 3.0270E+00                                            2104000200252 
 7.5880E+00 2.9460E+00                                            2104000200253 
 7.6130E+00 2.9440E+00                                            2104000200254 
 7.6370E+00 2.9080E+00                                            2104000200255 
 7.6620E+00 3.0070E+00                                            2104000200256 
 7.6910E+00 3.0290E+00                                            2104000200257 
 7.7160E+00 2.9590E+00                                            2104000200258 
 7.7400E+00 2.9330E+00                                            2104000200259 
 7.7650E+00 2.9280E+00                                            2104000200260 
 7.7890E+00 2.7670E+00                                            2104000200261 
 7.8130E+00 2.8930E+00                                            2104000200262 
 7.8380E+00 2.9200E+00                                            2104000200263 
 7.8630E+00 2.8570E+00                                            2104000200264 
 7.8870E+00 2.8720E+00                                            2104000200265 
 7.9110E+00 2.9000E+00                                            2104000200266 
 7.9350E+00 2.9250E+00                                            2104000200267 
 7.9600E+00 2.7410E+00                                            2104000200268 
 7.9890E+00 2.6740E+00                                            2104000200269 
 8.0130E+00 2.7260E+00                                            2104000200270 
 8.0380E+00 2.8620E+00                                            2104000200271 
 8.0620E+00 2.9590E+00                                            2104000200272 
 8.0870E+00 2.9320E+00                                            2104000200273 
 8.1110E+00 2.8600E+00                                            2104000200274 
 8.1350E+00 2.9010E+00                                            2104000200275 
 8.1600E+00 2.9190E+00                                            2104000200276 
 8.1840E+00 2.8830E+00                                            2104000200277 
 8.2080E+00 2.8330E+00                                            2104000200278 
 8.2330E+00 2.7870E+00                                            2104000200279 
 8.2570E+00 2.7520E+00                                            2104000200280 
 8.2810E+00 2.8080E+00                                            2104000200281 
 8.3050E+00 2.7580E+00                                            2104000200282 
 8.3300E+00 2.7780E+00                                            2104000200283 
 8.3540E+00 2.7970E+00                                            2104000200284 
 8.3830E+00 2.9440E+00                                            2104000200285 
 8.4070E+00 2.7580E+00                                            2104000200286 
 8.4320E+00 2.7010E+00                                            2104000200287 
 8.4560E+00 2.7710E+00                                            2104000200288 
 8.4800E+00 2.6940E+00                                            2104000200289 
 8.5040E+00 2.7590E+00                                            2104000200290 
 8.5280E+00 2.8240E+00                                            2104000200291 
 8.5530E+00 2.8160E+00                                            2104000200292 
 8.5770E+00 2.8550E+00                                            2104000200293 
 8.6010E+00 2.8440E+00                                            2104000200294 
 8.6250E+00 2.9230E+00                                            2104000200295 
 8.6500E+00 2.8410E+00                                            2104000200296 
ENDDATA            284          0                                 2104000200297 
ENDSUBENT          296          0                                 2104000299999 
ENDENTRY             2          0                                 2104099999999 
