ENTRY            21109   19800331                             00002110900000001 
SUBENT        21109001   19800331                             00002110900100001 
BIB                  9         24                                 2110900100002 
INSTITUTE  (2UK HAR)                                              2110900100003 
REFERENCE  (J,NP/A,108,535,6802)                                  2110900100004 
           (P,AERE-PR/NP-9,9,6604) ABSTRACT.                      2110900100005 
           (R,AERE-NP/GEN-47,6704)                                2110900100006 
           (C,66TRIESTE,831,6612) GRAPH.                          2110900100007 
           (C,65ANTWERP,522,6507) PRELIMINARY REPORT.             2110900100008 
           (P,AERE-PR/NP-8,9,6502) ABSTRACT.                      2110900100009 
AUTHOR     (M.ASGHAR,C.M.CHAFFEY,M.C.MOXON)                       2110900100010 
TITLE      -THE NEUTRON RESONANCE PARAMETERS AND AVERAGE CAPTURE  2110900100011 
            CROSS-SECTION OF HO-165-                              2110900100012 
FACILITY   (LINAC) 45 MEV ELECTRON LINAC.                         2110900100013 
INC-SOURCE .PULSED NEUTRON SOURCE USING BOOSTED NEUTRON TARGET.   2110900100014 
METHOD     (TOF  ) TIME-OF-FLIGHT.                                2110900100015 
            FLIGHT PATH OF 50 METERS FOR SCATTERING, AND 32.5     2110900100016 
            FOR CAPTURE MEASUREMENTS.                             2110900100017 
STATUS     (NDD  ) FROM NEUDADA. TABLES AND GRAPHS IN PUBLICATION 2110900100018 
HISTORY    (790903C)                                              2110900100019 
           (791001E)                                              2110900100020 
           (800131A) FULL SET OF REFERENCES ADDED, DATA UNCHANGED 2110900100021 
           (800213E)                                              2110900100022 
           (800227A) REACTION STRINGS CORRECTED.                  2110900100023 
           (800303E)                                              2110900100024 
           (800314A) SUBWORK 003 AND 004 CORRECTED.               2110900100025 
           (800331E)                                              2110900100026 
ENDBIB              24          0                                 2110900100027 
NOCOMMON             0          0                                 2110900100028 
ENDSUBENT           27          0                                 2110900199999 
SUBENT        21109002   19801105                             00002110900200001 
BIB                  8         13                                 2110900200002 
REACTION   (67-HO-165(N,EL),,WID,,S0)                             2110900200003 
SAMPLE     .METALLIC SAMPLE OF THICKNESS 0.9322 E-04 ATOM/BARN.   2110900200004 
DETECTOR   (SCIN ) LITHIUM GLASS SCINTILLATOR PLACED AT FLIGHT    2110900200005 
                   PATH OF 50 METRES. TIMING RESOLUTION 6 NSEC/M. 2110900200006 
ANALYSIS   (AREA ) FROM MEASURED SCATTERING YIELD OF HO IN FIG.3  2110900200007 
                   OF THE PUBLICATION AND OF A 5.48 ATOMS/B       2110900200008 
                   CALIBRATION SAMPLE.                            2110900200009 
STATUS     .TABLE 1.                                              2110900200010 
HISTORY    (800227A)                                              2110900200011 
CORRECTION .RESONANCE SELF SCREENING, DOPPLER BROADENING AND      2110900200012 
            MULTIPLE SCATTERING CORRECTIONS APPLIED TO THE        2110900200013 
            OBSERVED RESONANCE AREAS.                             2110900200014 
ERR-ANALYS .STATISTICAL STANDARD ERROR.                           2110900200015 
ENDBIB              13          0                                 2110900200016 
COMMON               1          3                                 2110900200017 
THICKNESS                                                         2110900200018 
ATOMS/B                                                           2110900200019 
 9.3220E-05                                                       2110900200020 
ENDCOMMON            3          0                                 2110900200021 
DATA                 3         26                                 2110900200022 
EN-RES     DATA       DATA-ERR                                    2110900200023 
EV         B*EV       B*EV                                        2110900200024 
 3.5300E+01 2.9700E+01 5.3000E+00                                 2110900200025 
 3.9400E+01 1.4170E+02 6.0000E+00                                 2110900200026 
 4.7400E+01 1.6100E+02 7.1000E+00                                 2110900200027 
 5.1400E+01 4.6570E+02 1.4000E+01                                 2110900200028 
 6.0000E+01 1.0520E+02 5.6000E+00                                 2110900200029 
 7.1300E+01 1.2760E+02 6.8000E+00                                 2110900200030 
 8.3800E+01 3.0700E+01 5.3000E+00                                 2110900200031 
 8.5500E+01 3.0460E+02 1.5400E+01                                 2110900200032 
 9.3300E+01 8.0020E+02 1.7200E+01                                 2110900200033 
 1.0180E+02 6.3100E+01 6.4000E+00                                 2110900200034 
 1.1780E+02 2.4100E+01 4.0000E+00                                 2110900200035 
 1.2450E+02 1.6830E+02 1.0000E+01                                 2110900200036 
 1.2660E+02 6.9000E+01 7.5000E+00                                 2110900200037 
 1.2810E+02 4.8000E+01 7.5000E+00                                 2110900200038 
 1.5080E+02 1.2720E+02 1.0400E+01                                 2110900200039 
 1.6390E+02 2.2000E+01 8.2000E+00                                 2110900200040 
 1.6950E+02 4.0000E+01 8.8000E+00                                 2110900200041 
 1.8080E+02 4.5100E+01 1.0500E+01                                 2110900200042 
 1.8960E+02 2.5500E+01 9.1000E+00                                 2110900200043 
 2.0190E+02 2.9000E+02 1.3500E+01                                 2110900200044 
 2.1420E+02 1.5580E+02 1.3000E+01                                 2110900200045 
 2.2040E+02 5.1500E+01 1.1400E+01                                 2110900200046 
 2.3920E+02 5.7100E+01 1.1400E+01                                 2110900200047 
 2.5520E+02 3.3640E+02 2.1000E+01                                 2110900200048 
 2.6070E+02 3.8000E+01 1.7500E+01                                 2110900200049 
 2.9900E+02 3.3220E+02 1.9200E+01                                 2110900200050 
ENDDATA             28          0                                 2110900200051 
ENDSUBENT           50          0                                 2110900299999 
SUBENT        21109003   19801104                             00002110900300001 
BIB                  8         14                                 2110900300002 
REACTION   (67-HO-165(N,EL),,WID,,S0)                             2110900300003 
SAMPLE     .METALLIC SAMPLE OF THICKNESS 3.398 E-04 ATOM/BARN.    2110900300004 
DETECTOR   (SCIN ) LITHIUM GLASS SCINTILLATOR PLACED AT FLIGHT    2110900300005 
                   PATH OF 50 METRES. TIMING RESOLUTION 6 NSEC/M. 2110900300006 
ANALYSIS   (AREA ) FROM MEASURED SCATTERING YIELD OF HO IN FIG.3  2110900300007 
                   OF THE PUBLICATION AND OF A 5.48 ATOMS/B       2110900300008 
                   CALIBRATION SAMPLE.                            2110900300009 
STATUS     .TABLE 1.                                              2110900300010 
HISTORY    (800227A)                                              2110900300011 
           (800314A)                                              2110900300012 
CORRECTION .RESONANCE SELF SCREENING, DOPPLER BROADENING AND      2110900300013 
            MULTIPLE SCATTERING CORRECTIONS APPLIED TO THE        2110900300014 
            OBSERVED RESONANCE AREAS.                             2110900300015 
ERR-ANALYS .STATISTICAL STANDARD ERROR.                           2110900300016 
ENDBIB              14          0                                 2110900300017 
COMMON               1          3                                 2110900300018 
THICKNESS                                                         2110900300019 
ATOMS/B                                                           2110900300020 
 3.3980E-04                                                       2110900300021 
ENDCOMMON            3          0                                 2110900300022 
DATA                 3         26                                 2110900300023 
EN-RES     DATA       DATA-ERR                                    2110900300024 
EV         B*EV       B*EV                                        2110900300025 
 3.5300E+01 2.2400E+01 3.0000E+00                                 2110900300026 
 3.9400E+01 1.3060E+02 2.3000E+00                                 2110900300027 
 4.7400E+01 1.6760E+02 3.3000E+00                                 2110900300028 
 5.1400E+01 4.7210E+02 7.2000E+00                                 2110900300029 
 6.0000E+01 1.0970E+02 5.0000E+00                                 2110900300030 
 7.1300E+01 1.2850E+02 3.0000E+00                                 2110900300031 
 8.3800E+01 2.6900E+01 2.3000E+00                                 2110900300032 
 8.5500E+01 2.8250E+02 9.5000E+00                                 2110900300033 
 9.3300E+01 8.1670E+02 1.0000E+01                                 2110900300034 
 1.0180E+02 5.5600E+01 2.6000E+00                                 2110900300035 
 1.1780E+02 2.3000E+01 2.3000E+00                                 2110900300036 
 1.2450E+02 1.6030E+02 4.7000E+00                                 2110900300037 
 1.2660E+02 7.4700E+01 7.6000E+00                                 2110900300038 
 1.2810E+02 4.8300E+01 5.4000E+00                                 2110900300039 
 1.5080E+02 1.3190E+02 5.6000E+00                                 2110900300040 
 1.6390E+02 2.3250E+01 3.1000E+00                                 2110900300041 
 1.6950E+02 3.7000E+01 2.1000E+00                                 2110900300042 
 1.8080E+02 5.3400E+01 4.0000E+00                                 2110900300043 
 1.8960E+02 2.4300E+01 3.4000E+00                                 2110900300044 
 2.0190E+02 2.9210E+02 7.1000E+00                                 2110900300045 
 2.1420E+02 1.5250E+02 5.5000E+00                                 2110900300046 
 2.2040E+02 5.6800E+01 4.3000E+00                                 2110900300047 
 2.3920E+02 5.5000E+01 5.3000E+00                                 2110900300048 
 2.5520E+02 3.5710E+02 8.0000E+00                                 2110900300049 
 2.6070E+02 5.5270E+01 5.2000E+00                                 2110900300050 
 2.9900E+02 3.3110E+02 1.6500E+01                                 2110900300051 
ENDDATA             28          0                                 2110900300052 
ENDSUBENT           51          0                                 2110900399999 
SUBENT        21109004   19801104                             00002110900400001 
BIB                  5          9                                 2110900400002 
REACTION   (67-HO-165(N,G)67-HO-166,,SIG)                         2110900400003 
SAMPLE     .3 METALLIC SAMPLES. TWO 8 CM DIAMETER DISCS OF        2110900400004 
            THICKNESS 0.9322E-04 AND 3.398E-04 ATOMS/B, ONE       2110900400005 
            SQUARE OF SIDE 2.5 CM AND THICKNESS 1.596E-03         2110900400006 
            ATOM/B.                                               2110900400007 
DETECTOR   (MOXR ) MOXON-RAE DETECTOR PLACED AT FLIGHT PATH OF    2110900400008 
                   32.5 METRES. TIMING RESOLUTION 12 NSEC/M.      2110900400009 
STATUS     .GRAPHICAL DATA IN FIG.1 OF THE PUBLICATION.           2110900400010 
HISTORY    (800314A)                                              2110900400011 
ENDBIB               9          0                                 2110900400012 
COMMON               2          3                                 2110900400013 
EN-MIN     EN-MAX                                                 2110900400014 
EV         KEV                                                    2110900400015 
 2.5000E+00 1.0000E+02                                            2110900400016 
ENDCOMMON            3          0                                 2110900400017 
NODATA               0          0                                 2110900400018 
ENDSUBENT           17          0                                 2110900499999 
SUBENT        21109005   19800303                             00002110900500001 
BIB                  9         33                                 2110900500002 
REACTION  1(67-HO-165(N,EL),,WID)                                 2110900500003 
          2(67-HO-165(N,G),,WID)                                  2110900500004 
          3(67-HO-165(N,0),,J)                                    2110900500005 
ANALYSIS   (AREA ) AREA ANALYSIS APPLIED TO CAPTURE DATA AND USED 2110900500006 
                   WITH SCATTERING AREAS TO GIVE RESONANCE WIDTHS 2110900500007 
                   WITH CHI-SQARED FITTING TO SELECT THE SPIN.    2110900500008 
ASSUMED    (ASSUM,67-HO-165(N,0),,J) VALUE OF RESONANCE SPIN FROM 2110900500009 
                   BNL-325, 3RD.EDN., WHERE THIS HAS BEEN ASSUMED 2110900500010 
                   TO SELECT RESONANCE PARAMETERS.                2110900500011 
COMMENT    .WIDTH DATA GIVEN FOR BOTH POSSIBLE SPINS BY AUTHORS.  2110900500012 
            COMPILED DATA IS FOR PREFERRED SPIN VALUES EITHER     2110900500013 
            FROM PUBLICATION OR FROM BNL-325, 3RD.EDN..(COMMENT   2110900500014 
            BY COMPILER).                                         2110900500015 
FLAG       (1.) SPIN VALUE TAKEN FROM BNL-325, 3RD EDN., VOL 1,   2110900500016 
                BY COMPLILER.                                     2110900500017 
           (2.) SPIN VALUE PROVISIONAL IN BNL-325, 3RD EDN.       2110900500018 
           (3.) PREFERRED SPIN VALUE MEASURED IN PUBLICATION.     2110900500019 
           (4.) TENTATIVE SPIN ASSIGNMENT FROM PUBLICATION FROM   2110900500020 
                CHI-SQUARED TEST.                                 2110900500021 
           (5.) TENTATIVE SPIN ASSIGNMENT FROM PUBLICATION        2110900500022 
                ASSUMING GAMMA WIDTH OF 75.7+-2.4 MILLI-EV.       2110900500023 
           (6.) NO PREFERRED SPIN FROM EITHER PUBLICATION OR      2110900500024 
                BNL-325. WIDTHS FOR BOTH POSSIBLE SPINS GIVEN.    2110900500025 
STATUS     .TABLE 2.                                              2110900500026 
HISTORY    (800124A)                                              2110900500027 
           (800129E)                                              2110900500028 
           (800227A)                                              2110900500029 
CORRECTION .MULTIPLE SCATTERING CORRECTIONS APPLIED TO CAPTURE    2110900500030 
            DATA.                                                 2110900500031 
ERR-ANALYS .ERRORS DUE TO MULTIPLE SCATTERING CORRECTIONS, TO     2110900500032 
            THE MEASUREMENT OF THE ENERGY DEPENDENCE OF THE       2110900500033 
            INCIDENT NEUTRON FLUX AND TO ABOUT 3 PERCENT ERROR    2110900500034 
            IN CAPTURE DETECTOR EFFICIENCY.                       2110900500035 
ENDBIB              33          0                                 2110900500036 
NOCOMMON             0          0                                 2110900500037 
DATA                 8         47                                 2110900500038 
EN-RES     DATA      1DATA-ERR  1DATA      2DATA-ERR  2DATA      32110900500039 
ASSUM      FLAG                                                   2110900500040 
EV         MILLI-EV   MILLI-EV   MILLI-EV   MILLI-EV   NO-DIM     2110900500041 
NO-DIM     NO-DIM                                                 2110900500042 
 8.1400E+00 1.7000E-01 6.0000E-02                                 2110900500043 
 3.0000E+00 1.0000E+00                                            2110900500044 
 1.2630E+01 1.5000E+01 1.5000E-01                                 2110900500045 
 4.0000E+00 1.0000E+00                                            2110900500046 
 1.8080E+01 1.3500E+00 1.4000E-01                                 2110900500047 
 3.0000E+00 1.0000E+00                                            2110900500048 
 2.0970E+01 6.3000E-01 2.0000E-01                                 2110900500049 
 4.0000E+00 1.0000E+00                                            2110900500050 
 3.5420E+01 7.4000E+00 1.0000E-01 7.2600E+01 5.5000E+00 3.0000E+002110900500051 
            3.0000E+00                                            2110900500052 
 3.7240E+01 7.5000E-01 3.0000E-01                                 2110900500053 
 3.0000E+00 1.0000E+00                                            2110900500054 
 3.9590E+01 1.9500E+01 2.0000E-01 9.0100E+01 4.5000E+00 4.0000E+002110900500055 
            3.0000E+00                                            2110900500056 
 4.7630E+01 2.6900E+01 3.0000E-01 9.0000E+01 2.1000E+00           2110900500057 
 3.0000E+00 1.0000E+00                                            2110900500058 
 5.1360E+01 5.4000E+01 1.2000E+00 7.9000E+01 2.6000E+00 3.0000E+002110900500059 
            3.0000E+00                                            2110900500060 
 5.4220E+01 3.3000E+00 8.0000E-01                                 2110900500061 
 4.0000E+00 1.0000E+00                                            2110900500062 
 6.4960E+01 2.0600E+01 3.0000E-01 7.4600E+01 2.0000E+00 4.0000E+002110900500063 
            3.0000E+00                                            2110900500064 
 6.8750E+01 1.0000E+00 3.0000E-01                                 2110900500065 
 4.0000E+00 1.0000E+00                                            2110900500066 
 7.1730E+01 2.3700E+01 3.0000E-01 7.4900E+01 1.8000E+00 4.0000E+002110900500067 
            3.0000E+00                                            2110900500068 
 7.9920E+01 1.6000E+00 7.0000E-01                                 2110900500069 
 4.0000E+00 1.0000E+00                                            2110900500070 
 8.3760E+01 1.1200E+01 2.0000E-01 6.6700E+01 4.3000E+00           2110900500071 
 4.0000E+00 1.0000E+00                                            2110900500072 
 9.3340E+01 8.7400E+01 1.0000E+00 7.6700E+01 1.6000E+00 4.0000E+002110900500073 
            3.0000E+00                                            2110900500074 
 1.0170E+02 1.8800E+01 3.0000E-01 7.5900E+01 2.6000E+00 4.0000E+002110900500075 
            3.0000E+00                                            2110900500076 
 1.0610E+02 7.5000E+00 5.0000E-01                                 2110900500077 
 4.0000E+00 1.0000E+00                                            2110900500078 
 1.1780E+02 1.5300E+01 4.0000E-01 8.0100E+01 3.6000E+00           2110900500079 
 3.0000E+00 6.0000E+00                                            2110900500080 
 1.1780E+02 1.2000E+01 3.0000E-01 7.0300E+01 4.2000E+00           2110900500081 
 4.0000E+00 6.0000E+00                                            2110900500082 
 1.2040E+02 7.5000E+00 7.0000E-01                                 2110900500083 
 3.0000E+00 6.0000E+00                                            2110900500084 
 1.2040E+02 5.8000E+00 5.0000E-01                                 2110900500085 
 4.0000E+00 6.0000E+00                                            2110900500086 
 1.2470E+02 3.7100E+01 5.0000E-01 7.4100E+01 1.6000E+00           2110900500087 
 4.0000E+00 1.0000E+00                                            2110900500088 
 1.2660E+02 2.3600E+01 4.0000E-01 7.3000E+01 4.2000E+00 4.0000E+002110900500089 
            5.0000E+00                                            2110900500090 
 1.2810E+02 2.0700E+01 4.0000E-01 6.5000E+01 4.6000E+00 3.0000E+002110900500091 
            3.0000E+00                                            2110900500092 
 1.4100E+02 1.6000E+00 4.0000E-01                                 2110900500093 
 3.0000E+00 6.0000E+00                                            2110900500094 
 1.4100E+02 1.2000E+00 3.0000E-01                                 2110900500095 
 4.0000E+00 6.0000E+00                                            2110900500096 
 1.5080E+02 4.2500E+01 6.0000E-01 7.1700E+01 2.7000E+00           2110900500097 
 3.0000E+00 1.0000E+00                                            2110900500098 
 1.6940E+02 2.2600E+01 5.0000E-01 7.5600E+01 5.6000E+00 3.0000E+002110900500099 
            5.0000E+00                                            2110900500100 
 1.6940E+02 1.7700E+01 4.0000E-01 6.0200E+01 5.0000E+00           2110900500101 
 4.0000E+00 2.0000E+00                                            2110900500102 
 1.8050E+02 3.9600E+01 8.0000E-01 1.6100E+02 9.7000E+00           2110900500103 
 3.0000E+00 6.0000E+00                                            2110900500104 
 1.8050E+02 3.0400E+01 6.0000E-01 1.2160E+02 5.5000E+00           2110900500105 
 4.0000E+00 6.0000E+00                                            2110900500106 
 1.8840E+02 1.6200E+01 5.0000E-01 7.0600E+01 5.3000E+00 4.0000E+002110900500107 
            4.0000E+00                                            2110900500108 
 2.0180E+02 7.5600E+01 1.0000E+00 7.5500E+01 1.7000E+00 4.0000E+002110900500109 
            3.0000E+00                                            2110900500110 
 2.0450E+02 1.2000E+01 1.4000E+00                                 2110900500111 
 3.0000E+00 6.0000E+00                                            2110900500112 
 2.0450E+02 9.5000E+00 1.1000E+00                                 2110900500113 
 4.0000E+00 6.0000E+00                                            2110900500114 
 2.1420E+02 6.0600E+01 1.0000E+00 7.5200E+01 1.7000E+00 3.0000E+002110900500115 
            5.0000E+00                                            2110900500116 
 2.2000E+02 2.9700E+01 7.0000E-01 8.1700E+01 5.0000E+00 4.0000E+002110900500117 
            5.0000E+00                                            2110900500118 
 2.2960E+02 1.1500E+01 1.5000E+00                                 2110900500119 
 3.0000E+00 6.0000E+00                                            2110900500120 
 2.2960E+02 8.5000E+00 1.2000E+00                                 2110900500121 
 4.0000E+00 6.0000E+00                                            2110900500122 
 2.3250E+02 7.0000E+00 1.0000E+00                                 2110900500123 
 3.0000E+00 6.0000E+00                                            2110900500124 
 2.3250E+02 5.5000E+00 7.0000E-01                                 2110900500125 
 4.0000E+00 6.0000E+00                                            2110900500126 
 2.3910E+02 3.1200E+01 8.0000E-01 8.3600E+01 5.0000E+00 4.0000E+002110900500127 
            4.0000E+00                                            2110900500128 
 2.5390E+02 1.6050E+02 2.3000E+00 1.8870E+02 4.2000E+00           2110900500129 
 3.0000E+00 6.0000E+00                                            2110900500130 
 2.5390E+02 1.2500E+02 1.8000E+00 1.4600E+02 3.5000E+00           2110900500131 
 4.0000E+00 6.0000E+00                                            2110900500132 
 2.6100E+02 3.7800E+01 1.0000E+00 8.5800E+01 7.0000E+00           2110900500133 
 3.0000E+00 6.0000E+00                                            2110900500134 
 2.6100E+02 2.9700E+01 9.0000E-01 6.9000E+01 4.3000E+00           2110900500135 
 4.0000E+00 6.0000E+00                                            2110900500136 
ENDDATA             98          0                                 2110900500137 
ENDSUBENT          136          0                                 2110900599999 
ENDENTRY             5          0                                 2110999999999 
