ENTRY            21279   19860915                             00002127900000001 
SUBENT        21279001   19860915                             00002127900100001 
BIB                 12         16                                 2127900100002 
INSTITUTE  (2UK HAR)                                              2127900100003 
REFERENCE  (W,FIRK,58) NUMERICAL VALUES.                          2127900100004 
AUTHOR     (F.W.K.FIRK)                                           2127900100005 
TITLE      -THE TOTAL CROSS SECTION AND RESONANCE PARAMETERS OF   2127900100006 
            MN-55 AND RH-103 -.                                   2127900100007 
FACILITY   (LINAC) LINEAR ACCELERATOR.                            2127900100008 
INC-SOURCE (PHOTO) ELECTRON BEAM ON TA TARGET.                    2127900100009 
METHOD     (TOF  ) TIME OF FLIGHT.                                2127900100010 
DETECTOR   (SCIN ) SCINTILLATOR, NO DETAILS.                      2127900100011 
STATUS     (NDD  )                                                2127900100012 
HISTORY    (800121T) CONVERTED FROM NEUDADA.                      2127900100013 
           (800129E)                                              2127900100014 
           (860310U)N.CH                                          2127900100015 
           (860416E)                                              2127900100016 
CORRECTION .BACKGROUND AND SELF SHIELDING EFFECTS.                2127900100017 
ERR-ANALYS .ONE STANDARD DEVIATION STATISTICAL ERRORS.            2127900100018 
ENDBIB              16          0                                 2127900100019 
NOCOMMON             0          0                                 2127900100020 
ENDSUBENT           19          0                                 2127900199999 
SUBENT        21279002   19800129                             00002127900200001 
BIB                  4          4                                 2127900200002 
REACTION   (25-MN-55(N,TOT),,SIG) TOTAL CROSS SECTION.            2127900200003 
SAMPLE     .MN POWDERED METAL.                                    2127900200004 
STATUS     (NDD  )                                                2127900200005 
HISTORY    (800121T)                                              2127900200006 
ENDBIB               4          0                                 2127900200007 
COMMON               2          3                                 2127900200008 
EN-RSL     DATA-ERR                                               2127900200009 
MICROSEC/M PER-CENT                                               2127900200010 
 1.0000E-01 2.0000E+01                                            2127900200011 
ENDCOMMON            3          0                                 2127900200012 
DATA                 2         96                                 2127900200013 
EN         DATA                                                   2127900200014 
MEV        B                                                      2127900200015 
 8.3900E-04 9.1000E+00                                            2127900200016 
 8.5200E-04 1.8100E+01                                            2127900200017 
 8.6400E-04 1.0500E+01                                            2127900200018 
 8.7700E-04 1.6500E+01                                            2127900200019 
 8.9000E-04 1.6300E+01                                            2127900200020 
 9.0300E-04 1.7900E+01                                            2127900200021 
 9.1700E-04 1.6300E+01                                            2127900200022 
 9.3100E-04 2.1200E+01                                            2127900200023 
 9.4500E-04 1.8900E+01                                            2127900200024 
 9.6000E-04 2.1100E+01                                            2127900200025 
 9.7500E-04 2.2500E+01                                            2127900200026 
 9.9000E-04 2.4200E+01                                            2127900200027 
 1.0100E-03 2.9700E+01                                            2127900200028 
 1.0200E-03 3.5200E+01                                            2127900200029 
 1.0400E-03 6.5400E+01                                            2127900200030 
 1.0500E-03 7.3600E+01                                            2127900200031 
 1.0700E-03 9.3700E+01                                            2127900200032 
 1.1300E-03 1.0990E+02                                            2127900200033 
 1.1500E-03 3.3400E+01                                            2127900200034 
 1.1700E-03 1.2600E+01                                            2127900200035 
 1.1900E-03 4.1000E+00                                            2127900200036 
 1.2100E-03 4.0000E+00                                            2127900200037 
 1.2300E-03 4.7000E+00                                            2127900200038 
 1.2500E-03 3.7000E+00                                            2127900200039 
 1.2700E-03 5.6000E+00                                            2127900200040 
 1.3000E-03 8.8000E+00                                            2127900200041 
 1.3200E-03 5.4000E+00                                            2127900200042 
 1.3400E-03 9.4000E+00                                            2127900200043 
 1.3700E-03 7.3000E+00                                            2127900200044 
 1.3900E-03 1.3100E+01                                            2127900200045 
 1.4200E-03 1.5200E+01                                            2127900200046 
 1.4500E-03 1.4300E+01                                            2127900200047 
 1.4700E-03 1.3100E+01                                            2127900200048 
 1.5000E-03 1.6800E+01                                            2127900200049 
 1.5300E-03 1.6200E+01                                            2127900200050 
 1.5600E-03 2.3800E+01                                            2127900200051 
 1.5900E-03 2.5900E+01                                            2127900200052 
 1.6400E-03 2.8400E+01                                            2127900200053 
 1.6600E-03 2.8300E+01                                            2127900200054 
 1.6900E-03 3.3700E+01                                            2127900200055 
 1.7300E-03 3.8300E+01                                            2127900200056 
 1.7600E-03 4.3500E+01                                            2127900200057 
 1.8000E-03 5.5200E+01                                            2127900200058 
 1.8400E-03 4.9400E+01                                            2127900200059 
 1.8800E-03 6.7900E+01                                            2127900200060 
 1.9200E-03 7.2500E+01                                            2127900200061 
 1.9600E-03 9.4600E+01                                            2127900200062 
 2.0000E-03 1.0080E+02                                            2127900200063 
 2.0500E-03 1.4080E+02                                            2127900200064 
 2.1000E-03 1.4620E+02                                            2127900200065 
 2.1400E-03 1.5750E+02                                            2127900200066 
 2.1900E-03 2.5460E+02                                            2127900200067 
 2.2500E-03 1.6320E+02                                            2127900200068 
 2.3000E-03 1.5040E+02                                            2127900200069 
 2.3600E-03 1.5750E+02                                            2127900200070 
 2.4100E-03 3.6900E+02                                            2127900200071 
 2.4700E-03 1.6990E+02                                            2127900200072 
 2.5400E-03 1.6030E+02                                            2127900200073 
 2.6000E-03 1.3760E+02                                            2127900200074 
 2.6700E-03 1.6030E+02                                            2127900200075 
 2.7400E-03 1.7380E+02                                            2127900200076 
 2.8100E-03 1.9560E+02                                            2127900200077 
 2.8900E-03 9.6600E+01                                            2127900200078 
 2.9600E-03 9.1800E+01                                            2127900200079 
 3.0500E-03 7.9500E+01                                            2127900200080 
 3.1300E-03 6.1100E+01                                            2127900200081 
 3.2200E-03 4.5800E+01                                            2127900200082 
 3.3100E-03 4.6500E+01                                            2127900200083 
 3.4100E-03 3.8000E+01                                            2127900200084 
 3.5100E-03 3.5500E+01                                            2127900200085 
 3.6200E-03 3.1600E+01                                            2127900200086 
 3.7300E-03 2.6200E+01                                            2127900200087 
 3.8400E-03 2.4200E+01                                            2127900200088 
 3.9600E-03 1.9800E+01                                            2127900200089 
 4.0900E-03 1.6900E+01                                            2127900200090 
 4.2200E-03 1.7300E+01                                            2127900200091 
 4.3600E-03 1.4100E+01                                            2127900200092 
 4.5100E-03 1.6900E+01                                            2127900200093 
 4.6600E-03 1.1800E+01                                            2127900200094 
 4.8200E-03 1.1600E+01                                            2127900200095 
 5.0000E-03 1.1700E+01                                            2127900200096 
 5.1800E-03 8.7000E+00                                            2127900200097 
 5.3700E-03 8.6000E+00                                            2127900200098 
 5.7800E-03 2.8000E+00                                            2127900200099 
 6.0000E-03 1.7000E+01                                            2127900200100 
 6.2400E-03 8.4000E+00                                            2127900200101 
 6.4900E-03 7.2000E+00                                            2127900200102 
 6.7600E-03 1.5900E+01                                            2127900200103 
 7.0400E-03 4.2100E+01                                            2127900200104 
 7.3500E-03 8.4800E+01                                            2127900200105 
 7.6700E-03 5.8900E+01                                            2127900200106 
 8.0100E-03 2.6300E+01                                            2127900200107 
 8.3800E-03 2.0700E+01                                            2127900200108 
 8.7800E-03 3.9900E+01                                            2127900200109 
 9.2000E-03 8.1500E+01                                            2127900200110 
 9.6600E-03 4.0100E+01                                            2127900200111 
ENDDATA             98          0                                 2127900200112 
ENDSUBENT          111          0                                 2127900299999 
SUBENT        21279003   19800129                             00002127900300001 
BIB                  4          4                                 2127900300002 
REACTION   (45-RH-103(N,TOT),,SIG) TOTAL CROSS SECTION.           2127900300003 
SAMPLE     .POWDERED METAL.                                       2127900300004 
STATUS     (NDD  )                                                2127900300005 
HISTORY    (800121T)                                              2127900300006 
ENDBIB               4          0                                 2127900300007 
COMMON               2          3                                 2127900300008 
EN-RSL     DATA-ERR                                               2127900300009 
MICROSEC/M PER-CENT                                               2127900300010 
 1.0000E-01 2.0000E+01                                            2127900300011 
ENDCOMMON            3          0                                 2127900300012 
DATA                 2         95                                 2127900300013 
EN         DATA                                                   2127900300014 
MEV        B                                                      2127900300015 
 2.9540E-05 5.3700E+00                                            2127900300016 
 2.9970E-05 4.8800E+00                                            2127900300017 
 3.0400E-05 5.0900E+00                                            2127900300018 
 3.0870E-05 4.9600E+00                                            2127900300019 
 3.1330E-05 4.7200E+00                                            2127900300020 
 3.1800E-05 4.7300E+00                                            2127900300021 
 3.2280E-05 4.9200E+00                                            2127900300022 
 3.2780E-05 6.2100E+00                                            2127900300023 
 3.3280E-05 5.8600E+00                                            2127900300024 
 3.3800E-05 5.4800E+00                                            2127900300025 
 3.4330E-05 6.6600E+00                                            2127900300026 
 3.4880E-05 5.6600E+00                                            2127900300027 
 3.5430E-05 4.6000E+00                                            2127900300028 
 3.6000E-05 5.3700E+00                                            2127900300029 
 3.6580E-05 4.6500E+00                                            2127900300030 
 3.7180E-05 4.7700E+00                                            2127900300031 
 3.7790E-05 4.8100E+00                                            2127900300032 
 3.8420E-05 4.1100E+00                                            2127900300033 
 3.9060E-05 4.4300E+00                                            2127900300034 
 3.9720E-05 4.5900E+00                                            2127900300035 
 4.0400E-05 4.7000E+00                                            2127900300036 
 4.1090E-05 4.7000E+00                                            2127900300037 
 4.1800E-05 4.4900E+00                                            2127900300038 
 4.2550E-05 4.8000E+00                                            2127900300039 
 4.3280E-05 4.7700E+00                                            2127900300040 
 4.4040E-05 4.6200E+00                                            2127900300041 
 4.4850E-05 4.9700E+00                                            2127900300042 
 4.5660E-05 6.2400E+00                                            2127900300043 
 4.6510E-05 1.6370E+01                                            2127900300044 
 4.7360E-05 1.0630E+01                                            2127900300045 
 4.8250E-05 5.2500E+00                                            2127900300046 
 4.9140E-05 4.8000E+00                                            2127900300047 
 5.0080E-05 4.4000E+00                                            2127900300048 
 5.1010E-05 4.5700E+00                                            2127900300049 
 5.1990E-05 4.5200E+00                                            2127900300050 
 5.3010E-05 4.5200E+00                                            2127900300051 
 5.4070E-05 4.5300E+00                                            2127900300052 
 5.5140E-05 4.3700E+00                                            2127900300053 
 5.6240E-05 4.4900E+00                                            2127900300054 
 5.7390E-05 4.4900E+00                                            2127900300055 
 5.8580E-05 4.2400E+00                                            2127900300056 
 5.9770E-05 4.4100E+00                                            2127900300057 
 6.1040E-05 4.3400E+00                                            2127900300058 
 6.2320E-05 4.5200E+00                                            2127900300059 
 6.3680E-05 4.5900E+00                                            2127900300060 
 6.5040E-05 4.8100E+00                                            2127900300061 
 6.6440E-05 4.8000E+00                                            2127900300062 
 6.7930E-05 8.1600E+00                                            2127900300063 
 6.9460E-05 5.5200E+00                                            2127900300064 
 7.1030E-05 4.8000E+00                                            2127900300065 
 7.2650E-05 4.3600E+00                                            2127900300066 
 7.4310E-05 4.4700E+00                                            2127900300067 
 7.6050E-05 4.4300E+00                                            2127900300068 
 7.7880E-05 4.5000E+00                                            2127900300069 
 7.9710E-05 4.6000E+00                                            2127900300070 
 8.1660E-05 4.4000E+00                                            2127900300071 
 8.3660E-05 4.4100E+00                                            2127900300072 
 8.5740E-05 4.4100E+00                                            2127900300073 
 8.7910E-05 4.1600E+00                                            2127900300074 
 9.0120E-05 4.9300E+00                                            2127900300075 
 9.2500E-05 4.7300E+00                                            2127900300076 
 9.4900E-05 1.1500E+01                                            2127900300077 
 9.7400E-05 7.2400E+00                                            2127900300078 
 1.0000E-04 4.7800E+00                                            2127900300079 
 1.0270E-04 4.6800E+00                                            2127900300080 
 1.0560E-04 4.4100E+00                                            2127900300081 
 1.0850E-04 4.7500E+00                                            2127900300082 
 1.1180E-04 5.6100E+00                                            2127900300083 
 1.1480E-04 4.9300E+00                                            2127900300084 
 1.1810E-04 4.1600E+00                                            2127900300085 
 1.2170E-04 4.5200E+00                                            2127900300086 
 1.2530E-04 1.2120E+01                                            2127900300087 
 1.2910E-04 5.4100E+00                                            2127900300088 
 1.3310E-04 4.4800E+00                                            2127900300089 
 1.3730E-04 4.0000E+00                                            2127900300090 
 1.4170E-04 3.9300E+00                                            2127900300091 
 1.4630E-04 4.5000E+00                                            2127900300092 
 1.5120E-04 1.2720E+01                                            2127900300093 
 1.5630E-04 1.8370E+01                                            2127900300094 
 1.6160E-04 8.0200E+00                                            2127900300095 
 1.6720E-04 5.8300E+00                                            2127900300096 
 1.7310E-04 5.2100E+00                                            2127900300097 
 1.7940E-04 5.4800E+00                                            2127900300098 
 1.8600E-04 1.2610E+01                                            2127900300099 
 1.9290E-04 7.1300E+00                                            2127900300100 
 2.0030E-04 5.5500E+00                                            2127900300101 
 2.0800E-04 4.9200E+00                                            2127900300102 
 2.1630E-04 4.8700E+00                                            2127900300103 
 2.2500E-04 4.8800E+00                                            2127900300104 
 2.3430E-04 4.4700E+00                                            2127900300105 
 2.4410E-04 4.3500E+00                                            2127900300106 
 2.5460E-04 9.1200E+00                                            2127900300107 
 2.6580E-04 8.0000E+00                                            2127900300108 
 2.7780E-04 8.2300E+00                                            2127900300109 
 2.9060E-04 7.6000E+00                                            2127900300110 
ENDDATA             97          0                                 2127900300111 
ENDSUBENT          110          0                                 2127900399999 
SUBENT        21279004   19800129                             00002127900400001 
BIB                  5          6                                 2127900400002 
REACTION  1(45-RH-103(N,TOT),,SIG,,RES) CROSS SECTION.            2127900400003 
          2(45-RH-103(N,TOT),,WID,,SQ/S0) TOT WIDTH * SIG**2.     2127900400004 
SAMPLE     .METAL POWDER.                                         2127900400005 
ANALYSIS   (AREA ) AREA ANALYSIS.                                 2127900400006 
STATUS     (NDD  )                                                2127900400007 
HISTORY    (800121T)                                              2127900400008 
ENDBIB               6          0                                 2127900400009 
NOCOMMON             0          0                                 2127900400010 
DATA                 6          6                                 2127900400011 
EN-RES     EN-RES-ERR DATA      1DATA-ERR  1DATA      2DATA-ERR  22127900400012 
EV         EV         B          B          B*EV-SQ    B*EV-SQ    2127900400013 
 4.6500E+01 1.0000E-01 2.2000E+01 1.5000E+00                      2127900400014 
 6.8000E+01 2.0000E+00 5.0000E+00 1.0000E+00                      2127900400015 
 9.5000E+01 2.0000E+00 5.8000E+01 1.0000E+01                      2127900400016 
 1.2500E+02 3.0000E+00                       1.0500E+02 2.5000E+012127900400017 
 1.5400E+02 4.0000E+00                       3.7000E+02 3.0000E+012127900400018 
 1.8600E+02 5.0000E+00                       1.4500E+02 2.5000E+012127900400019 
ENDDATA              8          0                                 2127900400020 
ENDSUBENT           19          0                                 2127900499999 
ENDENTRY             4          0                                 2127999999999 
