ENTRY            22068   19871211                             00002206800000001 
SUBENT        22068001   19871211                             00002206800100001 
BIB                 15         58                                 2206800100002 
REFERENCE  (J,RCA,40,113,86)                                      2206800100003 
TITLE      -MEASUREMENT OF B-10(N,T)2ALPHA REACTION CROSS SECTION 2206800100004 
            IN THE ENERGY RANGE OF 2.5 TO 10.6 MEV -  DIFFUSION OF2206800100005 
            TRITIUM IN BORON CARBIDE.                             2206800100006 
AUTHOR     (A.SUHAIMI,R.WOELFE,S.M.QAIM,G.STOECKLIN)              2206800100007 
INSTITUTE  (2GERJUL)                                              2206800100008 
FACILITY   (CYCLO) JULICH VARIABLE ENERGY COMPACT CYCLOTRON CV 28.2206800100009 
INC-SOURCE (D-D  ) DEUTERIUM GAS TARGET, 37 MILLI-M LONG.         2206800100010 
            DEUTERON ENERGIES BETWEEN 3.0 AND 8 MEV, BEAM CURRENT 2206800100011 
            OF 4 MICRO-AMPS.                                      2206800100012 
            NEUTRON ENERGY RANGE 2.5 TO 10.6 MEV.                 2206800100013 
            SAMPLE IRRADIATION TIME BETWEEN 2 AND 12 HOURS.       2206800100014 
METHOD     (ACTIV)                                                2206800100015 
           .THE TRITIUM PRODUCED IN EACH SAMPLE WAS SEPARATED IN  2206800100016 
            A VACUUM APPARATUS AT 1150 C AND ITS ACTIVITY DETER-  2206800100017 
            MINED IN AN ANTICOINCIDENCE PROPORTIONAL GAS COUNTER. 2206800100018 
           .CROSS SECTIONS WERE DETERMINED RELATIVE TO ACTIVATION 2206800100019 
            MONITOR REACTION CROSS SECTIONS.                      2206800100020 
DETECTOR   (PROPC) ANTICOINCIDENCE PROPORTIONAL GAS COUNTER, WITH 2206800100021 
            AN EFFICIENCY OF 65 PER CENT.                         2206800100022 
           (GELI ) ACTIVATION FROM MONITOR FOILS WERE DETECTED    2206800100023 
            WITH A GE(LI) GAMMA SPECTROMETER. THE COUNTING        2206800100024 
            EFFICIENCY WAS KNOWN TO +/- 3 PER CENT.               2206800100025 
PART-DET   (B-   ) BETA MINUS FROM TRITIUM DECAY.                 2206800100026 
MONITOR    (26-FE-54(N,P)25-MN-54,,SIG)                           2206800100027 
           (28-NI-58(N,P)27-CO-58,,SIG)                           2206800100028 
           .CROSS SECTIONS TAKEN FROM ENDF/B-V WITH ERRORS OF     2206800100029 
            +/- 8 PER CENT.                                       2206800100030 
SAMPLE     .B-10 SAMPLE, ENRICHMENT 94.35 PER CENT, CHEMICAL      2206800100031 
            PURITY 99.998 PER CENT, GRAIN SIZE LESS THAN 420      2206800100032 
            MICRO-M. NOMINAL DIMENSIONS 15 MILLI-M DIAMETER BY    2206800100033 
            6 MILLI-M THICK. DISTANCE BETWEEN GAS TARGET BEAM     2206800100034 
            STOP AND SAMPLE FRONT END 6.5 MILLI-M. SAMPLE WEIGHT  2206800100035 
            ABOUT 1 G.                                            2206800100036 
           .BORON CARBIDE (B4C), NATURAL ISOTOPIC COMPOSITION,    2206800100037 
            TECHNICAL GRADE, GRAIN SIZE LESS THAN 250 MICRO-M.    2206800100038 
            NOMINAL DIMENSIONS 24.5 MILLI-M DIAMETER BY 21.2      2206800100039 
            MILLI-M THICK. DISTANCE BETWEEN GAS TARGET BEAM STOP  2206800100040 
            AND SAMPLE FRONT END 10 MILLI-M. SAMPLE WEIGHT ABOUT  2206800100041 
            12 G.                                                 2206800100042 
           .TWO MONITOR FOILS, IRON AND NICKEL, EACH 250 MICRO-   2206800100043 
            M THICK, WERE PLACED ON EITHER SIDE OF EACH SAMPLE.   2206800100044 
CORRECTION .IN THE TRITIUM COUNTING MEASUREMENTS WERE CORRECTED   2206800100045 
            FOR TRITIUM LOSS DURING HEATING, FOR RESIDUAL TRITIUM 2206800100046 
            CONTENT IN THE SAMPLES AND FOR NEUTRON BACKGROUND.    2206800100047 
           .IN THE MONITOR FOIL MEASUREMENTS, CORRECTIONS WERE    2206800100048 
            APPLIED FOR DEAD TIME, PILE UP, COINCIDENCE LOSSES,   2206800100049 
            DECAY AND GAMMA-RAY ABUNDANCE, AS WELL AS FOR BACK-   2206800100050 
            GROUND NEUTRONS.                                      2206800100051 
ERR-ANALYS (DATA-ERR)                                             2206800100052 
           .MONITOR COUNTING STATISTICS      0.5 - 2.0 PER CENT   2206800100053 
            TRITIUM COUNTING STATISTICS   BELOW  1.0   PER CENT   2206800100054 
            MONITOR CROSS SECTION ERROR          8.0   PER CENT   2206800100055 
           .NO OTHER DETAILS GIVEN. TOTAL ERROR BETWEEN 13 AND    2206800100056 
            21 PER CENT.                                          2206800100057 
STATUS     .DATA TAKEN FROM MAIN REFERENCE.                       2206800100058 
HISTORY    (871026C) N.O.                                         2206800100059 
           (871211E)                                              2206800100060 
ENDBIB              58          0                                 2206800100061 
NOCOMMON             0          0                                 2206800100062 
ENDSUBENT           61          0                                 2206800199999 
SUBENT        22068002   19871211                             00002206800200001 
BIB                  3          4                                 2206800200002 
REACTION   (5-B-10(N,T+A)2-HE-4,,SIG) ENRICHED BORON SAMPLES.     2206800200003 
STATUS     .DATA TAKEN FROM MAIN REFERENCE.                       2206800200004 
HISTORY    (871026C) N.O.                                         2206800200005 
           (871211E)                                              2206800200006 
ENDBIB               4          0                                 2206800200007 
NOCOMMON             0          0                                 2206800200008 
DATA                 4         10                                 2206800200009 
EN         EN-RSL     DATA       DATA-ERR                         2206800200010 
MEV        MEV        MB         MB                               2206800200011 
 2.5600E+00 2.6000E-01 3.9000E+01 5.0000E+00                      2206800200012 
 3.4800E+00 3.1000E-01 8.2000E+01 1.1000E+01                      2206800200013 
 4.6000E+00 2.0000E-01 1.6800E+02 2.2000E+01                      2206800200014 
 5.2600E+00 1.7000E-01 2.0900E+02 2.7000E+01                      2206800200015 
 8.0200E+00 2.2000E-01 1.3900E+02 2.0000E+01                      2206800200016 
 8.5200E+00 2.3000E-01 1.2800E+02 1.9000E+01                      2206800200017 
 9.0000E+00 2.4000E-01 1.1900E+02 2.2000E+01                      2206800200018 
 9.5700E+00 1.8000E-01 1.1200E+02 2.3000E+01                      2206800200019 
 1.0090E+01 2.6000E-01 9.7000E+01 1.3000E+01                      2206800200020 
 1.0570E+01 2.7000E-01 1.0800E+02 1.4000E+01                      2206800200021 
ENDDATA             12          0                                 2206800200022 
ENDSUBENT           21          0                                 2206800299999 
SUBENT        22068003   19871211                             00002206800300001 
BIB                  3          4                                 2206800300002 
REACTION   (5-B-10(N,T+A)2-HE-4,,SIG) BORON CARBIDE SAMPLES.      2206800300003 
STATUS     .DATA TAKEN FROM MAIN REFERENCE.                       2206800300004 
HISTORY    (871026C) N.O.                                         2206800300005 
           (871211E)                                              2206800300006 
ENDBIB               4          0                                 2206800300007 
NOCOMMON             0          0                                 2206800300008 
DATA                 4         14                                 2206800300009 
EN         EN-RSL     DATA       DATA-ERR                         2206800300010 
MEV        MEV        MB         MB                               2206800300011 
 3.3800E+00 2.2000E-01 8.1000E+01 1.1000E+01                      2206800300012 
 3.9100E+00 2.6000E-01 1.4700E+02 1.9000E+01                      2206800300013 
 4.4200E+00 2.0000E-01 1.5200E+02 2.0000E+01                      2206800300014 
 4.7300E+00 1.7000E-01 1.9500E+02 2.5000E+01                      2206800300015 
 5.2800E+00 1.7000E-01 2.1500E+02 2.8000E+01                      2206800300016 
 5.8800E+00 1.7000E-01 2.0200E+02 2.6000E+01                      2206800300017 
 6.4300E+00 1.8000E-01 1.8600E+02 2.5000E+01                      2206800300018 
 6.4400E+00 1.8000E-01 1.7600E+02 2.4000E+01                      2206800300019 
 6.9800E+00 1.8000E-01 1.7600E+02 2.4000E+01                      2206800300020 
 7.5100E+00 1.9000E-01 1.7900E+02 2.5000E+01                      2206800300021 
 8.0100E+00 2.1000E-01 1.4700E+02 2.1000E+01                      2206800300022 
 8.0200E+00 2.2000E-01 1.3500E+02 1.9000E+01                      2206800300023 
 8.5400E+00 1.8000E-01 1.3500E+02 2.0000E+01                      2206800300024 
 9.5200E+00 2.2000E-01 1.1400E+02 2.3000E+01                      2206800300025 
ENDDATA             16          0                                 2206800300026 
ENDSUBENT           25          0                                 2206800399999 
ENDENTRY             3          0                                 2206899999999 
