ENTRY            22233   19961225                             00002223300000001 
SUBENT        22233001   19961225                             00002223300100001 
BIB                  8         18                                 2223300100002 
INSTITUTE  (2FR ILL) EXPERIMENTAL SITE FOR ENERGY AND INTENSITY   2223300100003 
                     DETERMINATIONS.                              2223300100004 
REFERENCE  (J,NP/A,534,255,91)                                    2223300100005 
AUTHOR     (H.G.BORNER,RF.CASTEN,I.FORSTER,D.LIEBERZ,             2223300100006 
            P.VON BRENTANO,S.J.ROBINSON,T.VON EGIDY,G.HLAWATCH,   2223300100007 
            H.LINDNER,P.GELTENBORNT,F.HOYLER,H.FAUST,G.COLVIN,    2223300100008 
            W.R.KANE,M.MACPHAL)                                   2223300100009 
TITLE      -LEVEL STRUCTURE OF OS191,COEXISTENCE OBLATE AND       2223300100010 
            PROLATE CONFIGURATIONS                                2223300100011 
FACILITY   (REAC ) THE HIGH FLUX REACTOR AT ILL, GRENOBLE.        2223300100012 
INC-SOURCE (REAC )                                                2223300100013 
INC-SPECT  .THERMAL NEUTRON SPECTRUM. THE NEUTRON FLUX AT ILL WAS 2223300100014 
            5.5E+14 NEUTRONS/CM2/SEC.                             2223300100015 
HISTORY    (930909C) N.O.                                         2223300100016 
           (931129E)                                              2223300100017 
           (961225A)   *  *  CORRECTED BY S.MAEV                  2223300100018 
                       .FACILITY, INC-SOURCE, INC-SPECT KEYWORDS  2223300100019 
                        MOVED FROM SUBENT 002            *  *     2223300100020 
ENDBIB              18          0                                 2223300100021 
NOCOMMON             0          0                                 2223300100022 
ENDSUBENT           21          0                                 2223300199999 
SUBENT        22233002   19961225                             00002223300200001 
BIB                  8         23                                 2223300200002 
REACTION   (76-OS-190(N,G)76-OS-191-G,,SPC,,REL/MXW) SECONDARY    2223300200003 
            GAMMA TRANSITIONS.                                    2223300200004 
SAMPLE     .30 MG OF OS POWDER, ENRICHED TO 89.9 PERCENT IN       2223300200005 
            OS-190 WITH SMALL AMOUNTS OF OS-189 (4 PERCENT) AND   2223300200006 
            OS-192 (5.2PERCENT)                                   2223300200007 
METHOD     (GSPEC) IN-BEAM GAMMA SPECTROSCOPY.                    2223300200008 
DETECTOR   .BENT-CRYSTAL DIFFRACTION SPECTROMETERS GAMS1 AND      2223300200009 
            GAMS2/3 AT ILL.                                       2223300200010 
           .SECONDARY GAMMA-RAYS BETWEEN 30 AND 150 KEV WERE DE-  2223300200011 
            TECTED WITH GAMS1. THE GAMS2 WAS USED FOR THE ENERGY  2223300200012 
            REGION FROM 150 TO 2000 KEV.                          2223300200013 
PART-DET   (G    )                                                2223300200014 
ERR-ANALYS (E-ERR)  GAMMA ENERGIES WITH RECOIL CORRECTION         2223300200015 
                    ONLY STATISTICAL ERRORS ARE GIVEN             2223300200016 
           (ERR-S)  ONLY STATISTICAL ERRORS ARE GIVEN FOR         2223300200017 
                    INTENSITIES                                   2223300200018 
STATUS     .DATA TAKEN FROM TABLE 2 OF MAIN REF.                  2223300200019 
HISTORY    (930909C) N.O.                                         2223300200020 
           (931129E)                                              2223300200021 
           (961225A) .INCIDENT NEUTRON ENERGY IS GIVEN            2223300200022 
                      FACILITY KEYWORD MOVED TO SUBENT 001        2223300200023 
                     .EN-ERR CORRECTED TO E-ERR                   2223300200024 
                     .COLUMNS IN DATA SECTION ARE REARRANGED      2223300200025 
ENDBIB              23          0                                 2223300200026 
COMMON               1          3                                 2223300200027 
EN-DUMMY                                                          2223300200028 
EV                                                                2223300200029 
   2.53E-02                                                       2223300200030 
ENDCOMMON            3          0                                 2223300200031 
DATA                 6        196                                 2223300200032 
E          E-ERR      E-LVL-INI  E-LVL-FIN  DATA       ERR-S      2223300200033 
KEV        KEV        KEV        KEV        ARB-UNITS  ARB-UNITS  2223300200034 
 1268.067  0.067                             125.       16.       2223300200035 
 1267.672  0.063                             118.       15.       2223300200036 
 1265.700  0.063                             134.       15.       2223300200037 
 1263.826  0.077                             137.       18.       2223300200038 
 1259.503  0.053                             134.       15.       2223300200039 
 1257.397  0.047                             128.       15.       2223300200040 
 1255.200  0.039                             145.       19.       2223300200041 
 1233.420  0.056                              92.       15.       2223300200042 
 1221.251  0.077                              58.       17.       2223300200043 
 1214.007  0.048      1298.433    84.457     101.       18.       2223300200044 
 1156.456  0.033      1298.433   141.935     121.       14.       2223300200045 
 1111.648  0.043                              69.       12.       2223300200046 
 1102.680  0.021                             149.       20.       2223300200047 
 1089.538  0.051                              59.        8.       2223300200048 
 1069.007  0.037                              69.        8.       2223300200049 
 1060.110  0.048                              56.       13.       2223300200050 
 1050.570  0.034                              63.        7.       2223300200051 
 1030.623  0.088                              37.        6.       2223300200052 
 1003.451  0.052      1077.800    74.383      42.        5.       2223300200053 
  993.282  0.061      1077.800    84.457      42.        7.       2223300200054 
  950.790  0.029      1092.738   141.935      59.        7.       2223300200055 
  922.707  0.041                              35.        7.       2223300200056 
  919.924  0.068                              28.        5.       2223300200057 
  916.297  0.113                              37.        5.       2223300200058 
  899.732  0.053                              41.       11.       2223300200059 
 896.380   0.038                              33.        5.       2223300200060 
 889.383   0.038                              38.        5.       2223300200061 
 881.308   0.030      1298.433   417.152      44.        5.       2223300200062 
 874.541   0.028      959.014    84.457       64.        7.       2223300200063 
 847.339   0.020                              42.        6.       2223300200064 
 837.079   0.033                              39.        5.       2223300200065 
 826.770   0.046      1298.433   471.649      18.        6.       2223300200066 
 818.277   0.027      1280.845   462.531      39.        5.       2223300200067 
 817.076   0.023      959.014    141.935      71.        8.       2223300200068 
 804.474   0.035      804.541    0.000        27.        4.       2223300200069 
 793.291   0.133      1280.845   487.610      24.        4.       2223300200070 
 787.358   0.038                              49.        8.       2223300200071 
 785.102   0.025      1202.263   417.152      36.        5.       2223300200072 
 773.532   0.086                              27.        3.       2223300200073 
 768.664   0.020      1202.263   433.590      23.        5.       2223300200074 
 767.828   0.008                              64.        6.       2223300200075 
 726.397   0.020      1143.542   417.152      31.        6.       2223300200076 
 720.276   0.011      794.660    74.383       88.       14.       2223300200077 
 719.525   0.013                              54.       10.       2223300200078 
 710.202   0.017      794.660    84.457       33.        4.       2223300200079 
 706.649   0.017      1280.845   574.166      44.        6.       2223300200080 
 695.357   0.030                              20.        3.       2223300200081 
 694.094   0.040      1202.263   508.147      21.        6.       2223300200082 
 690.727   0.069                              20.        3.       2223300200083 
 683.493   0.029      815.429    131.938      19.        4.       2223300200084 
 673.938   0.028      748.344    74.383       39.        6.       2223300200085 
 669.513   0.015                              29.        5.       2223300200086 
 668.516   0.039      1176.693   508.147      21.        3.       2223300200087 
 667.669   0.032                              35.        5.       2223300200088 
 663.883   0.004      748.344    84.457      138.       21.       2223300200089 
 662.671   0.069      794.660    131.938      12.        3.       2223300200090 
 655.441   0.021      1118.001   462.531      29.        6.       2223300200091 
 652.728   0.007      794.660    141.935      46.        7.       2223300200092 
 647.051   0.017      721.431    74.383       25.        4.       2223300200093 
 644.772   0.031      959.014    314.267      13.        3.       2223300200094 
 638.444   0.014                              22.        4.       2223300200095 
 636.974   0.004      721.431    84.457      100.       13.       2223300200096 
 622.699   0.021      764.660    141.935      14.        3.       2223300200097 
 614.436   0.011      688.817    74.383       22.        3.       2223300200098 
 604.406   0.026      688.817    84.457       13.        5.       2223300200099 
 603.459   0.022                              17.        3.       2223300200100 
 600.576   0.008      1108.728   508.147      31.        4.       2223300200101 
 590.190   0.008      1077.800   487.610      25.        4.       2223300200102 
 589.386   0.063      721.431    131.938      12.        2.       2223300200103 
 579.494   0.005      721.431    141.935      53.        8.       2223300200104 
 564.654   0.033      1202.263   637.617      15.        2.       2223300200105 
 563.789   0.025      974.539    410.820      16.        2.       2223300200106 
 556.857   0.021      688.817    131.938      19.        4.       2223300200107 
 556.317   0.028      630.717    74.383       60.        8.       2223300200108 
 553.158   0.010      637.617    84.457       20.        2.       2223300200109 
 546.871   0.013      688.817    141.935      21.        6.       2223300200110 
 546.055   0.010                              25.        4.       2223300200111 
 544.821   0.005      619.204    74.383       68.        8.       2223300200112 
 542.706   0.017      815.429    272.753      21.        3.       2223300200113 
 539.101   0.013      1176.693   637.617      28.        4.       2223300200114 
 537.574   0.005      611.958    74.383      385.       39.       2223300200115 
 531.580   0.016      1143.542   611.958      14.        3.       2223300200116 
 527.498   0.002      611.958    84.457     1000.      105.       2223300200117 
 518.481   0.007      1280.845   762.371      34.        6.       2223300200118 
 499.778   0.006      574.166    74.383      144.       16.       2223300200119 
 495.679   0.003      637.617    141.935      85.       11.       2223300200120 
 489.706   0.013      574.166    84.457       24.        4.       2223300200121 
 488.563   0.010                              24.        5.       2223300200122 
 487.271   0.018      619.204    131.938      12.        2.       2223300200123 
 486.215   0.023      1280.845   794.660      14.        3.       2223300200124 
 480.781   0.009      1092.738   611.958      18.        2.       2223300200125 
 480.034   0.017      611.958    131.938      11.        2.       2223300200126 
 477.266   0.011      619.204    141.935      33.        4.       2223300200127 
 475.579   0.065      748.344    272.753      17.        2.       2223300200128 
 470.028   0.014      611.958    141.935      12.        2.       2223300200129 
 462.954   0.008                              17.        3.       2223300200130 
 462.536   0.005                              38.        5.       2223300200131 
 453.876   0.033      1202.263   748.344       9.        2.       2223300200132 
 448.670   0.010      721.431    272.753      23.        4.       2223300200133 
 446.935   0.024      446.926     0.000       13.        2.       2223300200134 
 442.226   0.006      574.166    131.938      54.        7.       2223300200135 
 434.086   0.005      748.344    314.267      35.        5.       2223300200136 
 433.768   0.003      508.147    74.383       59.        7.       2223300200137 
 432.242   0.012      574.166    141.935      30.        5.       2223300200138 
 428.340   0.019      1176.693   748.334      18.        3.       2223300200139 
 423.693   0.002      508.147    84.457      124.       15.       2223300200140 
 414.310   0.009      1176.693   762.371      24.        3.       2223300200141 
 413.228   0.006      487.610    74.383      154.       24.       2223300200142 
 413.070   0.003      823.889    410.820     112.       12.       2223300200143 
 412.033   0.004      1176.693   764.660      35.        5.       2223300200144 
 410.811   0.013      410.820     0.000       13.        2.       2223300200145 
 403.157   0.002      487.610    84.457      185.       19.       2223300200146 
 397.273   0.005       471.649    74.383      72.        8.       2223300200147 
 387.200   0.007       471.649    84.457      22.        3.       2223300200148 
 386.847   0.012      1202.263   815.429      15.        2.       2223300200149 
 378.468   0.038       815.429   436.970      15.        3.       2223300200150 
 376.208   0.009       508.147   131.938      23.        5.       2223300200151 
 370.981   0.023       804.541   433.590      14.        3.       2223300200152 
 370.237   0.009                              23.        3.       2223300200153 
 366.210   0.001       508.147   141.935     362.       50.       2223300200154 
 364.864   0.003       637.617   272.753     115.       16.       2223300200155 
 362.588   0.002       436.970    74.383     111.       16.       2223300200156 
 359.210   0.003       433.590    74.383      74.       10.       2223300200157 
 358.781   0.016                              14.        3.       2223300200158 
 355.670   0.002       487.610   131.938     101.       12.       2223300200159 
 353.841   0.001       764.660   410.820     391.       62.       2223300200160 
 352.512   0.005       436.970    84.457     147.       20.       2223300200161 
 349.135   0.002       433.590    84.457     168.       24.       2223300200162 
 347.512   0.004       764.660   417.152      43.        6.       2223300200163 
 345.674   0.002       487.610   141.935     104.       15.       2223300200164 
 343.712   0.009       519.396   175.678      19.        3.       2223300200165 
 342.769   0.004       417.152    74.383      31.        4.       2223300200166 
 339.706   0.004       471.649   131.938     105.       14.       2223300200167 
 339.206   0.002       611.958   272.753      72.        9.       2223300200168 
 332.691   0.003       417.152    84.457     153.       18.       2223300200169 
 331.191   0.008       748.344   417.152      22.        3.       2223300200170 
 330.577   0.018       462.531   131.938      15.        2.       2223300200171 
 329.713   0.008       471.649   141.935      49.        6.       2223300200172 
 327.833   0.010       815.429   487.610      19.        3.       2223300200173 
 320.594   0.014       462.531   141.935      16.        3.       2223300200174 
 316.452   0.011       630.717   314.267      86.       11.       2223300200175 
 315.714   0.020                               9.        3.       2223300200176 
 314.988   0.003       446.926   131.938      53.        7.       2223300200177 
 314.750   0.017       748.344   433.590      11.        3.       2223300200178 
 314.307   0.014                              12.        3.       2223300200179 
 314.082   0.012      1108.728   794.660      16.        3.       2223300200180 
 311.375   0.026       748.344   436.970      11.        2.       2223300200181 
 308.501   0.016                              20.        3.       2223300200182 
 307.275   0.008       815.429   508.147      17.        2.       2223300200183 
 305.020   0.002       436.970   131.938      80.       16.       2223300200184 
 304.951   0.018       619.958   314.266      40.       15.       2223300200185 
 304.488   0.007       823.839   519.396      43.        6.       2223300200186 
 304.279   0.003       721.431   417.152      75.       10.       2223300200187 
 302.670   0.038      1118.001   815.429      12.        2.       2223300200188 
 301.837   0.005                              35.        4.       2223300200189 
 295.034   0.003       436.970   141.935     108.       14.       2223300200190 
 291.654   0.002       433.590   141.935     105.       15.       2223300200191 
 287.846   0.016       721.431   433.590      17.        2.       2223300200192 
 284.468   0.010       721.431   436.970      16.        2.       2223300200193 
 278.940   0.018                              15.        2.       2223300200194 
 275.219   0.001       417.152   141.935     513.       64.       2223300200195 
 272.754   0.002       272.753     0.000     703.       85.       2223300200196 
 250.533   0.010                              20.        4.       2223300200197 
 242.211   0.002                             109.       15.       2223300200198 
 241.893   0.005       688.817   446.926      27.        4.       2223300200199 
 240.194   0.004       748.344   508.147      36.        5.       2223300200200 
 239.886   0.002       314.267    74.383     194.       25.       2223300200201 
 235.140   0.004       410.820   175.678     558.       67.       2223300200202 
 229.810   0.003       314.267    84.457     207.       28.       2223300200203 
 220.467   0.007       637.61    417.152      25.        3.       2223300200204 
 204.345   0.008                              20.        4.       2223300200205 
 204.037   0.005       637.61    433.590      16.        4.       2223300200206 
 198.381   0.010       272.753    74.383       8.        2.       2223300200207 
 198.056   0.006                              15.        3.       2223300200208 
 194.808   0.003       611.958   417.152      37.        5.       2223300200209 
 193.879   0.002       508.147   314.267      63.        8.       2223300200210 
 189.776   0.003       462.531   272.753      16.        4.       2223300200211 
 184.649   0.002                              34.        5.       2223300200212 
 182.321   0.003       314.267   131.938      26.        6.       2223300200213 
 180.675   0.011       688.817   508.147      17.        6.       2223300200214 
 178.373   0.003       611.958   433.590      16.        4.       2223300200215 
 175.678   0.001       175.678     0.000     749.       98.       2223300200216 
 172.884   0.021                              21.        7.       2223300200217 
 172.328   0.003       314.267   141.935      81.       11.       2223300200218 
 160.050   0.016                              12.        2.       2223300200219 
 157.385   0.010       471.649   314.267       5.        2.       2223300200220 
 150.637   0.011       974.539   823.889     110.        4.       2223300200221 
 138.068   0.003       410.820   272.753      96.       23.       2223300200222 
 108.573   0.018       519.396   410.820      10.        3.       2223300200223 
 74.379    0.009        74.383     0.000       5.        1.       2223300200224 
 67.550    0.002       141.935    74.383      65.       19.       2223300200225 
 57.551    0.001       131.938    74.383      37.        6.       2223300200226 
 57.478    0.001       141.935    84.457     292.       76.       2223300200227 
 49.584    0.005                              10.        6.       2223300200228 
 47.486    0.005       131.938    84.457      10.        6.       2223300200229 
 41.489    0.005                              10.        6.       2223300200230 
ENDDATA            198          0                                 2223300200231 
ENDSUBENT          230          0                                 2223300299999 
ENDENTRY             2          0                                 2223399999999 
