ENTRY            22259   20170820                             226522259  0    1 
SUBENT        22259001   20170820                             226522259  1    1 
BIB                 13         57                                 22259  1    2 
TITLE       Resonance parameters of Ni-58 + n and Ni-60 + n from  22259  1    3 
            very high resolution transmission measurements        22259  1    4 
REFERENCE  (C,91JUELIC,,71,1991) Main ref.                        22259  1    5 
           (W,BRUSEGAN,19940204) Data submitted on diskette by    22259  1    6 
            a Brusegan. Updated with two new measurements at 100  22259  1    7 
            and 400 m for Ni-58. new analysis for both Ni-58 and  22259  1    8 
            Ni-60.                                                22259  1    9 
AUTHOR     (A.Brusegan,G.Rohr,R.Shelley,C.Van der Vorst,          22259  1   10 
            C.Baracca,Z.Enchen,F.Poortmans,L.Mewissen,G.Vanpraet) 22259  1   11 
INSTITUTE  (2ZZZGEL) A.B., G.R., R.S., C.V der V., C.B., Z.E. and 22259  1   12 
            experimental site.                                    22259  1   13 
           (2BLGMOL) F.P.,L.M.                                    22259  1   14 
           (2BLGBLG) University of Antwerp, G.V.                  22259  1   15 
FACILITY   (LINAC,2ZZZGEL) The 150 MeV Geel Linac, Gelina,        22259  1   16 
            operated with burst width of 1 ns and a frequency     22259  1   17 
            of 800 Hz, was used for the measurements.             22259  1   18 
INC-SOURCE .Uranium target, bombarded with 150 MeV electrons. The 22259  1   19 
            neutrons were moderated immediately after the target  22259  1   20 
            for the 50, 100 and 200 m transmission measurements.  22259  1   21 
INC-SPECT  .White neutron source.                                 22259  1   22 
SAMPLE     .Three different samples were used. They were          22259  1   23 
                  sample        enrichment         thickness      22259  1   24 
                                (per-cent)           (at/b)       22259  1   25 
            ---------------------------------------------------   22259  1   26 
                   Ni-58           99.93             0.044        22259  1   27 
                   Ni-60           99.07             0.0185       22259  1   28 
                   Ni-60           99.07             0.0746       22259  1   29 
           .                                                      22259  1   30 
METHOD     (TOF) Time-of-flight techniques, with four neutron     22259  1   31 
            flight paths with lengths ranging fron 50 to 400 m.   22259  1   32 
DETECTOR   (SCIN) A B4C slab, containing 10-B, being 5 mm thick,  22259  1   33 
            was used together with four 4 inch by 2 inch C6d6     22259  1   34 
            scintillators to detect the neutrons in the 50 m      22259  1   35 
            transmission measurements.                            22259  1   36 
           (GLASD) A 0.25 inch by 6 inch Li-glass detector, moun- 22259  1   37 
            ted on a 5 inch EMI9823KQB PM tube, was used to detect22259  1   38 
            the neutrons in the 100 m transmission measurements.  22259  1   39 
           (SCIN) One inch NE110 plastic scintillator, viewed by  22259  1   40 
            four RCA 4516 PM tubes, was used to detect the neu-   22259  1   41 
            trons in the 200 and 400 m transmission measurements. 22259  1   42 
           .A B4C anti-overlap filter was permanently in the beam 22259  1   43 
            to absorb low energy neutron from the previous burst. 22259  1   44 
            In addition, the beam was filtered with 0.37 g/cm2 of 22259  1   45 
            uranium at 100, 200 and 400 m.                        22259  1   46 
           (BF3) A BF3 detector was used to normalize the         22259  1   47 
            sample-in and sample-out runs.                        22259  1   48 
ANALYSIS   .The experimental data were analysed with REFIT and    22259  1   49 
            MULTI, using new potential scattering lengths and the 22259  1   50 
            new resolution function calculated by Coceva (to be   22259  1   51 
            published).                                           22259  1   52 
CORRECTION .The data were corrected for background and dead-time. 22259  1   53 
HISTORY    (19940206C) N.O.                                       22259  1   54 
           (19961021A) SM: Subents 003,004,006,007 corrected.     22259  1   55 
           (20170820A) SD:Updated to new date formats,lower case. 22259  1   56 
           Meaningless zeros were deleted from the data. Illegal  22259  1   57 
           space from author's name deleted. ERR-ANALYS moved to  22259  1   58 
           Subents 002,005.                                       22259  1   59 
ENDBIB              57          0                                 22259  1   60 
NOCOMMON             0          0                                 22259  1   61 
ENDSUBENT           60          0                                 22259  199999 
SUBENT        22259002   20170820                             226522259  2    1 
BIB                  5         30                                 22259  2    2 
REACTION  1(28-NI-58(N,0),,EN)                                    22259  2    3 
          2(28-NI-58(N,0),,J)                                     22259  2    4 
          3(28-NI-58(N,0),,L)                                     22259  2    5 
          4(28-NI-58(N,EL),,WID)                                  22259  2    6 
FLAG       (1.) The error is 15% of the quoted neutron width.     22259  2    7 
           (2.) Spin J and angular momentum L is uncertain.       22259  2    8 
           (3.) The neutron width was kept fixed in the analysis. 22259  2    9 
           (4.) Spin and parity was taken from ORNL/TM-10841      22259  2   10 
                ENDF-347 by C.M. Perey et al.                     22259  2   11 
           (5.) Combination of flag 2 and 4.                      22259  2   12 
ANALYSIS   .REFIT was used to fit the energy region between 700 eV22259  2   13 
            and 30 keV, i.e. to determine the parameters of the   22259  2   14 
            -105. keV, -11.8 keV, 13.3 keV, 13.6 keV and 15.3 keV 22259  2   15 
            resonances and the S-wave radius. The P-wave radius   22259  2   16 
            has been estimated in the minima of the cross-section 22259  2   17 
            at about 400 keV and the D-wave radius in the minima  22259  2   18 
            between 700 keV and 2 MeV.                            22259  2   19 
ERR-ANALYS (DATA-ERR) The error of the resonance energies are     22259  2   20 
            given by MULTI to about 1.0e-05 * En(resonance), which22259  2   21 
            is of the order of the uncertainty in the moderation  22259  2   22 
            distance.                                             22259  2   23 
            The error in the neutron widths contain               22259  2   24 
            1) the statistical error given by MULTI,              22259  2   25 
            2) one half of the max. Variation of the width        22259  2   26 
               observed when the timing component of the          22259  2   27 
               resolution is adjusted,                            22259  2   28 
            3) one half of the max. Variation of the width        22259  2   29 
               observed when nearby resonances are adjusted.      22259  2   30 
STATUS     (TABLE) Data submitted on diskette by A. Brusegan.     22259  2   31 
            Similar data in the Tbl. 3 of 91JUELIC,71.            22259  2   32 
ENDBIB              30          0                                 22259  2   33 
NOCOMMON             0          0                                 22259  2   34 
DATA                 6        378                                 22259  2   35 
DATA      1DATA      2DATA      3DATA      4DATA-ERR  4FLAG       22259  2   36 
EV         NO-DIM     NO-DIM     EV         EV         NO-DIM     22259  2   37 
-1.0508E+05        0.5         0.  3.997E+04                      22259  2   38 
-1.1785E+04        0.5         0.  4.847E+03                      22259  2   39 
 1.3307E+04        0.5         1.  8.470E+00  2.500E-01           22259  2   40 
 1.3625E+04        0.5         1.  2.450E+00  1.000E-01           22259  2   41 
 1.5289E+04        0.5         0.  1.325E+03  5.100E+00           22259  2   42 
 2.0002E+04        0.5         1.  1.320E+00  1.000E-01         2.22259  2   43 
 2.1124E+04        0.5         1.  4.180E+00  1.100E-01           22259  2   44 
 2.6637E+04        0.5         1.  3.500E+00  2.000E-01         2.22259  2   45 
 3.2387E+04        1.5         1.  1.130E+01  1.300E+00           22259  2   46 
 3.4225E+04        0.5         1.  3.200E+00  5.000E-01           22259  2   47 
 3.6125E+04        0.5         0.  1.767E+01  7.700E-01           22259  2   48 
 3.9550E+04        0.5         1.  2.500E+00  4.000E-01           22259  2   49 
 4.7898E+04        1.5         1.  4.940E+00  3.100E-01         4.22259  2   50 
 6.0144E+04        1.5         1.  1.690E+01  6.300E-01         4.22259  2   51 
 6.1798E+04        0.5         1.  1.960E+01  1.500E+00           22259  2   52 
 6.3272E+04        0.5         0.  3.549E+03  3.900E+01           22259  2   53 
 6.9880E+04        0.5         1.  8.400E+00  1.000E+00           22259  2   54 
 8.2886E+04        1.5         1.  4.760E+01  2.100E+00           22259  2   55 
 8.3408E+04        0.5         0.  1.200E+01  3.000E+00           22259  2   56 
 8.3857E+04        0.5         1.  4.040E+01  1.900E+00           22259  2   57 
 9.0030E+04        0.5         1.  4.280E+00  9.500E-01           22259  2   58 
 9.7643E+04        0.5         1.  2.310E+01  1.300E+00           22259  2   59 
 1.0144E+05        0.5         1.  1.290E+01  1.600E+00           22259  2   60 
 1.0546E+05        1.5         2.  1.320E+01  1.100E+00         5.22259  2   61 
 1.0778E+05        0.5         1.  1.180E+01  2.300E+00           22259  2   62 
 1.0832E+05        0.5         0.  9.450E+02  2.400E+01           22259  2   63 
 1.1078E+05        0.5         1.  1.080E+01  2.300E+00           22259  2   64 
 1.1791E+05        1.5         1.  8.000E+00  2.000E+00         4.22259  2   65 
 1.1982E+05        0.5         1.  1.250E+01  2.100E+00           22259  2   66 
 1.2142E+05        1.5         2.  9.500E+00  2.000E+00         4.22259  2   67 
 1.2399E+05        0.5         0.  4.370E+02  1.400E+01           22259  2   68 
 1.2998E+05        1.5         1.  1.450E+01  1.000E+00         4.22259  2   69 
 1.3754E+05        0.5         0.  2.114E+03  3.100E+01           22259  2   70 
 1.4021E+05        0.5         0.  2.851E+03  6.200E+01           22259  2   71 
 1.4189E+05        0.5         1.  3.620E+01  2.100E+00           22259  2   72 
 1.4527E+05        1.5         1.  7.820E+01  2.200E+00           22259  2   73 
 1.4883E+05        1.5         1.  8.010E+01  2.300E+00           22259  2   74 
 1.5139E+05        0.5         1.  3.300E+01  1.600E+00           22259  2   75 
 1.5701E+05        1.5         1.  2.680E+01  2.100E+00         4.22259  2   76 
 1.5787E+05        0.5         0.  4.714E+03  3.600E+01           22259  2   77 
 1.5985E+05        0.5         1.  1.200E+01  4.000E+00           22259  2   78 
 1.6131E+05        2.5         2.  1.380E+01  2.900E+00         4.22259  2   79 
 1.6611E+05        0.5         1.  4.710E+01  2.300E+00         2.22259  2   80 
 1.6714E+05        0.5         1.  2.800E+01  3.000E+00           22259  2   81 
 1.6862E+05        0.5         1.  1.300E+01  3.000E+00           22259  2   82 
 1.6896E+05        0.5         0.  3.700E+02  1.800E+01           22259  2   83 
 1.7253E+05        0.5         1.  2.000E+01  3.000E+00           22259  2   84 
 1.7525E+05        1.5         1.  5.030E+01  2.600E+00           22259  2   85 
 1.8071E+05        1.5         2.  2.090E+01  1.600E+00         4.22259  2   86 
 1.8138E+05        0.5         1.  2.500E+01  4.000E+00           22259  2   87 
 1.8400E+05        0.5         1.  1.500E+01  4.000E+00           22259  2   88 
 1.8461E+05        1.5         1.  3.600E+01  1.000E+01         2.22259  2   89 
 1.8468E+05        0.5         1.  1.620E+02  1.000E+01           22259  2   90 
 1.8606E+05        1.5         1.  3.030E+01  2.200E+00           22259  2   91 
 1.9153E+05        0.5         1.  2.000E+01  3.000E+00           22259  2   92 
 1.9188E+05        0.5         0.  2.445E+03  3.000E+01           22259  2   93 
 1.9636E+05        0.5         1.  2.830E+01  2.600E+00           22259  2   94 
 1.9822E+05        0.5         1.  2.290E+01  2.500E+00           22259  2   95 
 2.0257E+05        0.5         1.  2.160E+01  2.100E+00           22259  2   96 
 2.0641E+05        0.5         0.  6.788E+03  5.200E+01           22259  2   97 
 2.0727E+05        1.5         1.  6.500E+01  2.000E+01           22259  2   98 
 2.0738E+05        0.5         1.  1.200E+02  2.000E+01           22259  2   99 
 2.1111E+05        0.5         0.  5.220E+01  4.700E+00           22259  2  100 
 2.1664E+05        1.5         2.  9.000E+00  5.000E+00         5.22259  2  101 
 2.1676E+05        0.5         1.  2.200E+02  1.500E+01           22259  2  102 
 2.1819E+05        0.5         1.  3.280E+01  2.500E+00           22259  2  103 
 2.3118E+05        1.5         1.  5.010E+01  3.600E+00         4.22259  2  104 
 2.3284E+05        0.5         0.  4.810E+03  7.900E+01           22259  2  105 
 2.3421E+05        0.5         1.  5.090E+01  4.700E+00           22259  2  106 
 2.4285E+05        0.5         1.  4.300E+01  6.000E+00           22259  2  107 
 2.4401E+05        0.5         1.  3.200E+01  5.000E+00           22259  2  108 
 2.4563E+05        0.5         0.  2.190E+02  2.000E+01           22259  2  109 
 2.4569E+05        0.5         1.  3.060E+01  5.100E+00           22259  2  110 
 2.4961E+05        1.5         1.  1.430E+02  1.000E+01           22259  2  111 
 2.4974E+05        0.5         1.  4.400E+01  1.000E+01           22259  2  112 
 2.5088E+05        1.5         1.  3.450E+01  2.900E+00           22259  2  113 
 2.5438E+05        0.5         1.  3.800E+01  6.000E+00           22259  2  114 
 2.5779E+05        0.5         1.  2.800E+01  5.000E+00           22259  2  115 
 2.5929E+05        0.5         1.  2.200E+01  4.000E+00           22259  2  116 
 2.5964E+05        2.5         2.  1.900E+01  3.000E+00         4.22259  2  117 
 2.6568E+05        0.5         1.  2.900E+01  6.000E+00           22259  2  118 
 2.6800E+05        0.5         1.  5.990E+01  3.900E+00           22259  2  119 
 2.6958E+05        1.5         1.  3.410E+01  3.200E+00           22259  2  120 
 2.7235E+05        0.5         0.  5.225E+03  1.420E+02           22259  2  121 
 2.7372E+05        0.5         1.  6.450E+01  6.300E+00           22259  2  122 
 2.7754E+05        1.5         2.  3.970E+01  3.100E+00         4.22259  2  123 
 2.7873E+05        1.5         1.  7.500E+01  4.200E+00           22259  2  124 
 2.8158E+05        0.5         0.  1.861E+03  1.400E+01           22259  2  125 
 2.8959E+05        1.5         1.  1.072E+02  7.300E+00           22259  2  126 
 2.9773E+05        0.5         1.  3.700E+01  4.000E+00           22259  2  127 
 3.0031E+05        0.5         1.  4.800E+01  6.000E+00         2.22259  2  128 
 3.0143E+05        0.5         1.  5.570E+01  4.400E+00           22259  2  129 
 3.0175E+05        1.5         2.  5.700E+01  3.600E+00         4.22259  2  130 
 3.0530E+05        1.5         1.  1.026E+02  6.700E+00           22259  2  131 
 3.0548E+05        0.5         0.  6.700E+02  1.100E+01           22259  2  132 
 3.0742E+05        1.5         1.  8.000E+00                    3.22259  2  133 
 3.0758E+05        0.5         1.  1.697E+02  9.400E+00           22259  2  134 
 3.1730E+05        1.5         1.  4.100E+01  5.000E+00           22259  2  135 
 3.2141E+05        1.5         2.  2.900E+01  5.000E+00         4.22259  2  136 
 3.2598E+05        0.5         1.  5.200E+01  8.000E+00           22259  2  137 
 3.2600E+05        0.5         0.  1.630E+03  4.600E+01           22259  2  138 
 3.2973E+05        0.5         1.  4.100E+01  6.000E+00           22259  2  139 
 3.3502E+05        1.5         1.  3.180E+02  1.600E+01           22259  2  140 
 3.3530E+05        0.5         0.  1.441E+02  7.900E+00           22259  2  141 
 3.4276E+05        0.5         1.  3.100E+01  8.000E+00           22259  2  142 
 3.4369E+05        1.5         1.  8.760E+01  6.300E+00           22259  2  143 
 3.4444E+05        1.5         2.  1.310E+02  1.000E+01           22259  2  144 
 3.4966E+05        0.5         0.  1.799E+03  5.500E+01           22259  2  145 
 3.5791E+05        1.5         1.  1.615E+02  7.800E+00           22259  2  146 
 3.6003E+05        1.5         1.  6.390E+01  4.200E+00           22259  2  147 
 3.6026E+05        0.5         1.  2.700E+01  6.000E+00           22259  2  148 
 3.6074E+05        1.5         1.  3.100E+01  5.000E+00           22259  2  149 
 3.6359E+05        0.5         1.  3.400E+01  5.000E+00           22259  2  150 
 3.6448E+05        0.5         1.  3.900E+01  6.000E+00           22259  2  151 
 3.6547E+05        0.5         1.  7.690E+01  7.700E+00           22259  2  152 
 3.6786E+05        0.5         0.  1.352E+02  6.600E+00           22259  2  153 
 3.7134E+05        1.5         1.  5.340E+01  4.300E+00         4.22259  2  154 
 3.7647E+05        0.5         1.  3.100E+01  5.000E+00           22259  2  155 
 3.7727E+05        0.5         1.  1.052E+02  9.700E+00           22259  2  156 
 3.7905E+05        0.5         1.  3.400E+01  6.000E+00           22259  2  157 
 3.7915E+05        1.5         1.  1.260E+02  1.200E+01           22259  2  158 
 3.8007E+05        0.5         1.  2.320E+02  1.800E+01           22259  2  159 
 3.9508E+05        0.5         0.  7.630E+02  1.700E+01           22259  2  160 
 3.9545E+05        1.5         1.  4.650E+01  4.800E+00           22259  2  161 
 3.9754E+05        1.5         1.  1.540E+02  1.500E+01           22259  2  162 
 3.9801E+05        0.5         1.  3.020E+02  1.600E+01           22259  2  163 
 4.0612E+05        0.5         1.  4.200E+01  6.000E+00           22259  2  164 
 4.0717E+05        0.5         1.  1.110E+02  1.000E+01           22259  2  165 
 4.0970E+05        0.5         1.  8.160E+01  7.800E+00           22259  2  166 
 4.1014E+05        0.5         1.  6.400E+01  6.000E+00           22259  2  167 
 4.1369E+05        1.5         1.  8.980E+01  4.500E+00           22259  2  168 
 4.1638E+05        1.5         1.  8.390E+01  6.600E+00           22259  2  169 
 4.1655E+05        0.5         1.  3.220E+02  2.000E+01           22259  2  170 
 4.1683E+05        0.5         0.  1.190E+04  2.310E+02           22259  2  171 
 4.2077E+05        0.5         1.  6.370E+01  6.200E+00           22259  2  172 
 4.2415E+05        0.5         0.  6.719E+03  1.020E+02           22259  2  173 
 4.2689E+05        0.5         1.  2.000E+02  1.900E+01           22259  2  174 
 4.2696E+05        1.5         1.  7.600E+01  1.100E+01           22259  2  175 
 4.2813E+05        0.5         0.  7.600E+02  2.200E+01           22259  2  176 
 4.3000E+05        1.5         1.  9.350E+01  4.600E+00           22259  2  177 
 4.3325E+05        1.5         1.  1.330E+02  1.300E+01           22259  2  178 
 4.3518E+05        0.5         1.  3.800E+02  2.600E+01           22259  2  179 
 4.3605E+05        1.5         2.  8.700E+01  7.500E+00         2.22259  2  180 
 4.3674E+05        1.5         1.  9.650E+01  7.300E+00           22259  2  181 
 4.3939E+05        1.5         2.  7.000E+01  9.000E+00         4.22259  2  182 
 4.4698E+05        0.5         1.  4.100E+01  1.000E+01           22259  2  183 
 4.4714E+05        2.5         2.  9.100E+01  1.000E+01         4.22259  2  184 
 4.5234E+05        1.5         1.  1.720E+02  2.000E+01           22259  2  185 
 4.5252E+05        0.5         1.  1.800E+01  5.000E+00           22259  2  186 
 4.5549E+05        0.5         0.  1.703E+03  5.600E+01           22259  2  187 
 4.5570E+05        0.5         1.  7.120E+01  7.100E+00           22259  2  188 
 4.5771E+05        1.5         1.  5.700E+01  6.000E+00           22259  2  189 
 4.5983E+05        1.5         1.  2.700E+02  1.900E+01           22259  2  190 
 4.6007E+05        1.5         2.  1.500E+01  4.000E+00         2.22259  2  191 
 4.6239E+05        0.5         0.  3.920E+02  1.500E+01           22259  2  192 
 4.6349E+05        1.5         2.  1.474E+02  7.500E+00           22259  2  193 
 4.6639E+05        0.5         1.  3.100E+01  4.000E+00           22259  2  194 
 4.6945E+05        1.5         1.  1.850E+02  1.200E+01           22259  2  195 
 4.7053E+05        0.5         0.  5.080E+02  1.900E+01           22259  2  196 
 4.7625E+05        1.5         2.  7.610E+01  4.700E+00           22259  2  197 
 4.7745E+05        0.5         1.  2.120E+02  1.400E+01           22259  2  198 
 4.8007E+05        1.5         2.  5.940E+01  7.900E+00           22259  2  199 
 4.8292E+05        0.5         1.  1.400E+01  5.000E+00           22259  2  200 
 4.8592E+05        0.5         1.  1.900E+01  6.000E+00           22259  2  201 
 4.9164E+05        1.5         1.  1.110E+02  1.100E+01           22259  2  202 
 4.9196E+05        0.5         0.  2.310E+02  1.800E+01           22259  2  203 
 4.9333E+05        0.5         1.  3.920E+02  3.300E+01           22259  2  204 
 4.9392E+05        1.5         2.  1.210E+02  1.000E+01           22259  2  205 
 4.9634E+05        0.5         0.  1.533E+03  4.400E+01           22259  2  206 
 4.9707E+05        0.5         1.  2.360E+02  1.600E+01           22259  2  207 
 4.9911E+05        0.5         1.  7.200E+01  1.000E+01           22259  2  208 
 5.0402E+05        0.5         1.  1.100E+02  1.100E+01           22259  2  209 
 5.0702E+05        0.5         1.  9.400E+01  1.200E+01           22259  2  210 
 5.0779E+05        0.5         0.  1.702E+03  3.500E+01           22259  2  211 
 5.0840E+05        1.5         2.  6.700E+01  4.200E+00         2.22259  2  212 
 5.0879E+05        0.5         1.  1.340E+02  1.400E+01           22259  2  213 
 5.0903E+05        1.5         1.  4.000E+01  5.000E+00           22259  2  214 
 5.1129E+05        0.5         1.  3.300E+01  1.000E+01           22259  2  215 
 5.1141E+05        1.5         1.  1.100E+02  1.000E+01           22259  2  216 
 5.1339E+05        0.5         1.  3.000E+01  6.000E+00           22259  2  217 
 5.1358E+05        1.5         1.  1.670E+02  1.800E+01           22259  2  218 
 5.1866E+05        1.5         2.  7.800E+01  8.000E+00           22259  2  219 
 5.2190E+05        0.5         1.  1.550E+02  1.200E+01           22259  2  220 
 5.2358E+05        0.5         0.  1.458E+03  3.200E+01           22259  2  221 
 5.2430E+05        1.5         2.  1.050E+02  1.000E+01           22259  2  222 
 5.2801E+05        1.5         2.  6.710E+01  8.400E+00         2.22259  2  223 
 5.2942E+05        0.5         0.  2.010E+02  1.100E+01           22259  2  224 
 5.2962E+05        1.5         1.  9.360E+01  5.700E+00           22259  2  225 
 5.3089E+05        0.5         1.  8.120E+01  6.600E+00           22259  2  226 
 5.4003E+05        1.5         1.  8.060E+01  3.800E+00           22259  2  227 
 5.4019E+05        0.5         1.  1.600E+01  4.000E+00           22259  2  228 
 5.4138E+05        0.5         0.  5.360E+02  1.400E+01           22259  2  229 
 5.4208E+05        1.5         1.  4.400E+01  6.000E+00           22259  2  230 
 5.4395E+05        0.5         1.  6.400E+01  7.000E+00           22259  2  231 
 5.4501E+05        1.5         1.  4.800E+01  5.000E+00           22259  2  232 
 5.4601E+05        0.5         1.  2.500E+01  7.000E+00           22259  2  233 
 5.4808E+05        0.5         1.  8.190E+01  6.600E+00           22259  2  234 
 5.5032E+05        1.5         2.  3.100E+01  4.000E+00         2.22259  2  235 
 5.5047E+05        1.5         1.  2.400E+01  3.000E+00         2.22259  2  236 
 5.5275E+05        0.5         1.  1.690E+02  1.200E+01           22259  2  237 
 5.5368E+05        0.5         0.  2.907E+03  3.600E+01           22259  2  238 
 5.5411E+05        0.5         1.  5.700E+01  7.000E+00           22259  2  239 
 5.5579E+05        1.5         1.  6.070E+01  4.400E+00           22259  2  240 
 5.5853E+05        0.5         1.  2.400E+01  5.000E+00           22259  2  241 
 5.5990E+05        0.5         0.  9.350E+02  3.500E+01           22259  2  242 
 5.6068E+05        0.5         1.  4.440E+02  2.600E+01           22259  2  243 
 5.6656E+05        0.5         1.  5.000E+01  6.000E+00           22259  2  244 
 5.6708E+05        0.5         0.  9.681E+03  1.050E+02           22259  2  245 
 5.6962E+05        1.5         1.  1.500E+01  5.000E+00           22259  2  246 
 5.6983E+05        0.5         1.  6.800E+01  8.000E+00           22259  2  247 
 5.7441E+05        0.5         1.  1.300E+02  1.100E+01           22259  2  248 
 5.7610E+05        1.5         1.  1.810E+02  2.500E+01           22259  2  249 
 5.7612E+05        0.5         1.  4.890E+02  2.200E+01           22259  2  250 
 5.8276E+05        1.5         1.  5.200E+01  4.600E+00           22259  2  251 
 5.8577E+05        0.5         1.  2.020E+02  1.400E+01           22259  2  252 
 5.8777E+05        0.5         1.  5.000E+01  1.000E+01           22259  2  253 
 5.8794E+05        1.5         1.  1.000E+02  1.200E+01           22259  2  254 
 5.8884E+05        0.5         0.  2.612E+03  9.500E+01           22259  2  255 
 5.9211E+05        0.5         1.  5.600E+01  9.000E+00           22259  2  256 
 5.9563E+05        0.5         1.  4.000E+01  1.500E+01           22259  2  257 
 5.9588E+05        1.5         1.  1.070E+02  1.500E+01           22259  2  258 
 5.9963E+05        0.5         1.  9.500E+01  8.500E+00           22259  2  259 
 6.0002E+05        0.5         0.  8.303E+03  1.200E+02           22259  2  260 
 6.0177E+05        1.5         2.  2.060E+02  1.400E+01           22259  2  261 
 6.0452E+05        0.5         1.  2.020E+02  2.700E+01           22259  2  262 
 6.0466E+05        1.5         2.  3.640E+02  2.300E+01           22259  2  263 
 6.0966E+05        1.5         2.  2.050E+02  1.300E+01           22259  2  264 
 6.1121E+05        2.5         2.  2.520E+02  1.400E+01           22259  2  265 
 6.1670E+05        1.5         1.  3.600E+01  5.000E+00           22259  2  266 
 6.1834E+05        0.5         0.  3.350E+02  3.800E+01           22259  2  267 
 6.2238E+05        1.5         1.  8.510E+01  6.200E+00           22259  2  268 
 6.2533E+05        1.5         1.  1.230E+02  1.200E+01           22259  2  269 
 6.2735E+05        1.5         2.  1.020E+03  5.900E+01         4.22259  2  270 
 6.2858E+05        0.5         1.  4.850E+02  2.800E+01           22259  2  271 
 6.2983E+05        1.5         1.  1.040E+02  7.000E+00           22259  2  272 
 6.3132E+05        0.5         1.  1.400E+02  1.500E+01           22259  2  273 
 6.3154E+05        0.5         0.  1.854E+03  8.500E+01           22259  2  274 
 6.3200E+05        1.5         1.  3.500E+01  1.300E+01         2.22259  2  275 
 6.3325E+05        2.5         2.  2.680E+02  2.200E+01           22259  2  276 
 6.3335E+05        0.5         1.  2.400E+02  2.300E+01           22259  2  277 
 6.3569E+05        0.5         0.  8.152E+03  4.010E+02           22259  2  278 
 6.3600E+05        1.5         1.  8.050E+01  8.300E+00           22259  2  279 
 6.3664E+05        1.5         1.  7.030E+01  6.400E+00         2.22259  2  280 
 6.3730E+05        1.5         2.  1.110E+02  1.100E+01           22259  2  281 
 6.4070E+05        2.5         2.  7.240E+01  6.700E+00         4.22259  2  282 
 6.4423E+05        1.5         2.  5.400E+01  7.000E+00         2.22259  2  283 
 6.4445E+05        1.5         1.  2.100E+01  3.000E+00         2.22259  2  284 
 6.4636E+05        0.5         1.  1.470E+02  1.200E+01           22259  2  285 
 6.5002E+05        2.5         2.  1.600E+02  1.500E+01           22259  2  286 
 6.5072E+05        1.5         1.  1.120E+02  1.100E+01           22259  2  287 
 6.5098E+05        0.5         1.  8.490E+02  4.800E+01           22259  2  288 
 6.5506E+05        0.5         1.  4.300E+02  3.100E+01           22259  2  289 
 6.5529E+05        1.5         2.  9.100E+01  1.300E+01           22259  2  290 
 6.6042E+05        0.5         0.  1.282E+03  4.400E+01           22259  2  291 
 6.6134E+05        0.5         1.  6.150E+02  3.200E+01           22259  2  292 
 6.6520E+05        0.5         1.  2.800E+01  6.000E+00           22259  2  293 
 6.6578E+05        1.5         1.  2.270E+02  1.000E+01           22259  2  294 
 6.6808E+05        1.5         2.  1.500E+02  1.300E+01           22259  2  295 
 6.6965E+05        0.5         0.  5.875E+03  1.970E+02           22259  2  296 
 6.7093E+05        2.5         2.  1.720E+02  1.500E+01           22259  2  297 
 6.7307E+05        1.5         1.  2.500E+02  1.200E+01           22259  2  298 
 6.7385E+05        1.5         2.  1.370E+02  1.400E+01           22259  2  299 
 6.7515E+05        0.5         1.  4.130E+02  4.300E+01           22259  2  300 
 6.7531E+05        1.5         1.  5.000E+01  1.200E+01           22259  2  301 
 6.7777E+05        1.5         1.  9.590E+01  7.300E+00           22259  2  302 
 6.7881E+05        1.5         1.  5.000E+01  6.000E+00           22259  2  303 
 6.8089E+05        0.5         1.  1.160E+02  1.100E+01           22259  2  304 
 6.8186E+05        0.5         1.  1.250E+02  1.100E+01           22259  2  305 
 6.8701E+05        0.5         1.  2.270E+02  3.200E+01           22259  2  306 
 6.9035E+05        0.5         1.  2.500E+01  8.000E+00           22259  2  307 
 6.9065E+05        0.5         1.  9.100E+01  1.100E+01           22259  2  308 
 6.9152E+05        1.5         2.  4.500E+02  4.200E+01           22259  2  309 
 6.9345E+05        1.5         1.  1.410E+02  1.300E+01           22259  2  310 
 6.9378E+05        2.5         2.  1.720E+02  1.500E+01           22259  2  311 
 6.9401E+05        1.5         1.  1.100E+02  1.200E+01           22259  2  312 
 6.9571E+05        0.5         0.  9.970E+02  7.200E+01           22259  2  313 
 6.9645E+05        1.5         1.  3.750E+02  1.900E+01           22259  2  314 
 6.9828E+05        0.5         1.  6.000E+01  1.500E+01           22259  2  315 
 6.9921E+05        0.5         0.  1.397E+03  7.900E+01           22259  2  316 
 7.0340E+05        0.5         1.  8.500E+02  8.000E+01           22259  2  317 
 7.0565E+05        0.5         1.  2.950E+02  1.900E+01           22259  2  318 
 7.0569E+05        0.5         0.  1.290E+02  2.500E+01           22259  2  319 
 7.0739E+05        1.5         1.  3.100E+02  1.500E+01           22259  2  320 
 7.0869E+05        1.5         2.  2.800E+02  2.600E+01         2.22259  2  321 
 7.0892E+05        0.5         1.  5.600E+01  1.000E+01           22259  2  322 
 7.1127E+05        1.5         1.  1.940E+02  1.300E+01           22259  2  323 
 7.1244E+05        0.5         0.  8.800E+01  1.100E+01           22259  2  324 
 7.1263E+05        1.5         1.  1.400E+01  7.000E+00         2.22259  2  325 
 7.1497E+05        1.5         2.  1.610E+02  1.500E+01           22259  2  326 
 7.1599E+05        1.5         1.  1.330E+02  1.600E+01           22259  2  327 
 7.1888E+05        0.5         1.  5.500E+01  8.000E+00           22259  2  328 
 7.1998E+05        1.5         2.  1.000E+02  1.200E+01           22259  2  329 
 7.2013E+05        0.5         0.  5.498E+03  2.250E+02           22259  2  330 
 7.2123E+05        1.5         1.  8.600E+01  9.000E+00           22259  2  331 
 7.2845E+05        0.5         1.  3.800E+01  1.000E+01           22259  2  332 
 7.3240E+05        1.5         2.  2.340E+02  2.100E+01           22259  2  333 
 7.3290E+05        0.5         1.  2.300E+01  9.000E+00           22259  2  334 
 7.3418E+05        0.5         1.  2.030E+02  1.600E+01           22259  2  335 
 7.3443E+05        1.5         2.  4.980E+02  2.500E+01           22259  2  336 
 7.3536E+05        0.5         1.  1.900E+01  6.000E+00           22259  2  337 
 7.3756E+05        0.5         1.  1.730E+02  1.200E+01           22259  2  338 
 7.3793E+05        0.5         0.  6.034E+03  2.150E+02           22259  2  339 
 7.4123E+05        0.5         1.  2.960E+02  1.500E+01           22259  2  340 
 7.4478E+05        0.5         1.  6.100E+01  8.000E+00           22259  2  341 
 7.4544E+05        1.5         2.  3.650E+02  1.500E+01           22259  2  342 
 7.4571E+05        0.5         1.  1.030E+02  1.400E+01           22259  2  343 
 7.4610E+05        0.5         0.  1.918E+04  6.600E+02           22259  2  344 
 7.4656E+05        1.5         2.  3.120E+02  1.700E+01           22259  2  345 
 7.4690E+05        0.5         1.  1.600E+01  5.000E+00           22259  2  346 
 7.4832E+05        0.5         1.  8.600E+01  1.000E+01           22259  2  347 
 7.5022E+05        0.5         1.  2.940E+02  1.800E+01           22259  2  348 
 7.5060E+05        1.5         1.  2.200E+01  6.000E+00         2.22259  2  349 
 7.5192E+05        0.5         1.  2.590E+02  2.100E+01           22259  2  350 
 7.5240E+05        1.5         1.  2.410E+02  2.000E+01           22259  2  351 
 7.5389E+05        0.5         0.  6.040E+02  4.100E+01           22259  2  352 
 7.5932E+05        0.5         1.  1.140E+02  1.200E+01           22259  2  353 
 7.6137E+05        0.5         1.  1.290E+02  1.300E+01           22259  2  354 
 7.6257E+05        0.5         1.  2.580E+02  1.600E+01           22259  2  355 
 7.6437E+05        0.5         1.  5.200E+01  9.000E+00           22259  2  356 
 7.6536E+05        0.5         1.  8.200E+01  1.000E+01           22259  2  357 
 7.6864E+05        0.5         0.  3.546E+03  9.600E+01           22259  2  358 
 7.7536E+05        1.5         2.  4.000E+01                    3.22259  2  359 
 7.7547E+05        0.5         0.  4.590E+02  2.700E+01           22259  2  360 
 7.7637E+05        1.5         2.  5.100E+02  3.000E+01           22259  2  361 
 7.7842E+05        0.5         1.  7.000E+01  9.000E+00           22259  2  362 
 7.7866E+05        2.5         2.  5.000E+01  9.000E+00           22259  2  363 
 7.8035E+05        1.5         2.  1.600E+02  1.300E+01           22259  2  364 
 7.8245E+05        1.5         2.  2.290E+02  1.500E+01           22259  2  365 
 7.8427E+05        0.5         1.  3.660E+02  2.800E+01           22259  2  366 
 7.8436E+05        0.5         0.  6.310E+03  1.750E+02           22259  2  367 
 7.8457E+05        1.5         1.  3.000E+01  1.000E+01         2.22259  2  368 
 7.9133E+05        0.5         1.  2.310E+02  1.800E+01           22259  2  369 
 7.9158E+05        2.5         2.  9.600E+01  1.000E+01         2.22259  2  370 
 7.9259E+05        0.5         1.  1.990E+02  2.100E+01           22259  2  371 
 7.9298E+05        2.5         2.  1.140E+02  1.600E+01           22259  2  372 
 7.9377E+05        1.5         1.  8.300E+01  1.000E+01           22259  2  373 
 7.9674E+05        0.5         1.  2.900E+02  1.600E+01           22259  2  374 
 7.9779E+05        0.5         0.  3.960E+02  9.800E+01           22259  2  375 
 7.9851E+05        0.5         0.  4.123E+03  1.790E+02           22259  2  376 
 8.0087E+05        0.5         0.  8.500E+01  2.500E+01           22259  2  377 
 8.0098E+05        1.5         2.  4.880E+02  2.700E+01           22259  2  378 
 8.0185E+05        1.5         1.  8.400E+01  1.200E+01           22259  2  379 
 8.0510E+05        0.5         1.  1.490E+02  1.300E+01           22259  2  380 
 8.0726E+05        0.5         1.  1.250E+02  1.200E+01           22259  2  381 
 8.0965E+05        1.5         1.  1.640E+02  1.400E+01           22259  2  382 
 8.1429E+05        2.5         2.  1.070E+02  1.500E+01           22259  2  383 
 8.1435E+05        0.5         0.  1.320E+02  1.600E+01           22259  2  384 
 8.1493E+05        1.5         1.  8.200E+01  1.200E+01           22259  2  385 
 8.1642E+05        0.5         1.  2.250E+02  3.100E+01           22259  2  386 
 8.1975E+05        0.5         1.  5.800E+01  1.100E+01           22259  2  387 
 8.1998E+05        0.5         0.  5.452E+03  1.440E+02           22259  2  388 
 8.2206E+05        1.5         1.  1.310E+02  1.500E+01           22259  2  389 
 8.2282E+05        0.5         1.  9.500E+01  1.100E+01           22259  2  390 
 8.2306E+05        1.5         2.  8.600E+01  1.200E+01           22259  2  391 
 8.2492E+05        1.5         1.  3.460E+02  2.500E+01           22259  2  392 
 8.2928E+05        0.5         1.  1.100E+02  2.000E+01           22259  2  393 
 8.2957E+05        1.5         1.  1.800E+02  2.800E+01           22259  2  394 
 8.3122E+05        0.5         1.  2.320E+02  2.900E+01           22259  2  395 
 8.3425E+05        0.5         0.  4.000E+02                    1.22259  2  396 
 8.4077E+05        0.5         0.  8.040E+02                    1.22259  2  397 
 8.4496E+05        0.5         0.  5.850E+02                    1.22259  2  398 
 8.6712E+05        0.5         0.  1.798E+04                    1.22259  2  399 
 8.8268E+05        0.5         0.  6.611E+03                    1.22259  2  400 
 8.9297E+05        0.5         0.  2.850E+02                    1.22259  2  401 
 8.9830E+05        0.5         0.  3.080E+02                    1.22259  2  402 
 9.0414E+05        0.5         0.  1.640E+02                    1.22259  2  403 
 9.2057E+05        0.5         0.  5.580E+02                    1.22259  2  404 
 9.3064E+05        0.5         0.  3.334E+03                    1.22259  2  405 
 9.4286E+05        0.5         0.  1.433E+03                    1.22259  2  406 
 9.5288E+05        0.5         0.  3.466E+03                    1.22259  2  407 
 9.5906E+05        0.5         0.  1.518E+03                    1.22259  2  408 
 9.7449E+05        0.5         0.  1.190E+04                    1.22259  2  409 
 9.8750E+05        0.5         0.  1.550E+03                    1.22259  2  410 
 9.9892E+05        0.5         0.  7.400E+02                      22259  2  411 
 1.0072E+06        0.5         0.  2.250E+03                      22259  2  412 
 1.0243E+06        0.5         0.  5.884E+03                      22259  2  413 
 1.0414E+06        0.5         0.  5.933E+03                      22259  2  414 
 1.0585E+06        0.5         0.  1.800E+05                      22259  2  415 
ENDDATA            380          0                                 22259  2  416 
ENDSUBENT          415          0                                 22259  299999 
SUBENT        22259003   20170820                             226522259  3    1 
BIB                  5          8                                 22259  3    2 
REACTION   (28-NI-58(N,0),,D)                                     22259  3    3 
CORRECTION .The data were not corrected for missing levels.       22259  3    4 
ERR-ANALYS (DATA-ERR) The quoted errors are (0.273N)0.6,          22259  3    5 
            where N is the number of resonances.                  22259  3    6 
STATUS     (TABLE) Tbl.4 from 91JUELIC,,71.                       22259  3    7 
           (DEP,22259002)                                         22259  3    8 
HISTORY    (19961021A)  *  * Neutron energy range introduced *   *22259  3    9 
           (20170820U) SD: ERR-ANALYS was added.                  22259  3   10 
ENDBIB               8          0                                 22259  3   11 
NOCOMMON             0          0                                 22259  3   12 
DATA                 5          1                                 22259  3   13 
EN-RES-MIN EN-RES-MAX MOMENTUM L DATA       DATA-ERR              22259  3   14 
EV         EV         NO-DIM     KEV        KEV                   22259  3   15 
    1.4E+01    7.5E+06 0.0          17.1       2.1                22259  3   16 
ENDDATA              3          0                                 22259  3   17 
ENDSUBENT           16          0                                 22259  399999 
SUBENT        22259004   20170820                             226522259  4    1 
BIB                  5          9                                 22259  4    2 
REACTION   (28-NI-58(N,EL),,STF)                                  22259  4    3 
CORRECTION .The data were not corrected for missing levels.       22259  4    4 
ERR-ANALYS (DATA-ERR) The quoted errors are sqrt(2/N),            22259  4    5 
            where N is the number of resonances.                  22259  4    6 
STATUS     (TABLE) Tbl.4 from 91JUELIC,,71.                       22259  4    7 
           (DEP,22259002)                                         22259  4    8 
HISTORY    (19961021A)  *  * Neutron energy range introduced *   *22259  4    9 
           (20170820A) SD: DATA(/ERR) /10**4 as it is given in Tbl22259  4   10 
           ERR-ANALYS was added.                                  22259  4   11 
ENDBIB               9          0                                 22259  4   12 
NOCOMMON             0          0                                 22259  4   13 
DATA                 5          1                                 22259  4   14 
EN-RES-MIN EN-RES-MAX MOMENTUM L DATA       DATA-ERR              22259  4   15 
EV         EV         NO-DIM     NO-DIM     NO-DIM                22259  4   16 
    1.4E+01    7.5E+06 0.0          3.40E-04   1.13E-04           22259  4   17 
ENDDATA              3          0                                 22259  4   18 
ENDSUBENT           17          0                                 22259  499999 
SUBENT        22259005   20170820                             226522259  5    1 
BIB                  5         24                                 22259  5    2 
REACTION  1(28-NI-60(N,0),,EN)                                    22259  5    3 
          2(28-NI-60(N,0),,J)                                     22259  5    4 
          3(28-NI-60(N,0),,L)                                     22259  5    5 
          4(28-NI-60(N,EL),,WID)                                  22259  5    6 
FLAG       (1.) Spin J and angular momentum L is uncertain.       22259  5    7 
ANALYSIS   .Radiation widths have been taken from ORNL (1983) or  22259  5    8 
            fixed at 1 eV, except for the 2.2 keV resonance. REFIT22259  5    9 
            was used to analyse this resonance and to determine   22259  5   10 
            the negative energy resonance and S-wave radius. The  22259  5   11 
            P-wave radius was determined by the best fit of high  22259  5   12 
            energy minima.                                        22259  5   13 
ERR-ANALYS (DATA-ERR) The error of the resonance energies are     22259  5   14 
            given by MULTI to about 1.0e-05 * En(resonance), which22259  5   15 
            is of the order of the uncertainty in the moderation  22259  5   16 
            distance.                                             22259  5   17 
            The error in the neutron widths contain               22259  5   18 
            1) the statistical error given by MULTI,              22259  5   19 
            2) one half of the max. Variation of the width        22259  5   20 
               observed when the timing component of the          22259  5   21 
               resolution is adjusted,                            22259  5   22 
            3) one half of the max. Variation of the width        22259  5   23 
               observed when nearby resonances are adjusted.      22259  5   24 
STATUS     (TABLE) Data submitted on diskette by A. Brusegan.     22259  5   25 
            Similar data in the Tbl. 2 of 91JUELIC,71.            22259  5   26 
ENDBIB              24          0                                 22259  5   27 
NOCOMMON             0          0                                 22259  5   28 
DATA                 6        367                                 22259  5   29 
DATA      1DATA      2DATA      3DATA      4DATA-ERR  4FLAG       22259  5   30 
EV         NO-DIM     NO-DIM     EV         EV         NO-DIM     22259  5   31 
-5.0000E+04        0.5         0.  9.600E+03                      22259  5   32 
 2.2553E+03        1.5         1.  3.100E-02  2.000E-03           22259  5   33 
 5.5330E+03        0.5         1.  4.500E-02  5.000E-03           22259  5   34 
 1.2513E+04        0.5         0.  2.350E+03  7.000E+01           22259  5   35 
 1.3627E+04        0.5         1.  1.000E+00  4.000E-01         1.22259  5   36 
 2.3796E+04        0.5         1.  5.800E+00  4.000E-01           22259  5   37 
 2.3904E+04        0.5         1.  1.500E+00  2.000E-01         1.22259  5   38 
 2.8707E+04        0.5         0.  6.830E+02  2.200E+01           22259  5   39 
 3.0272E+04        0.5         1.  7.000E-01  3.000E-01         1.22259  5   40 
 3.3030E+04        0.5         1.  8.800E+00  6.000E-01           22259  5   41 
 3.3405E+04        0.5         1.  9.400E+00  7.000E-01           22259  5   42 
 3.9550E+04        0.5         1.  2.300E+00  5.000E-01         1.22259  5   43 
 4.2736E+04        0.5         1.  1.200E+00  3.000E-01         1.22259  5   44 
 4.3117E+04        0.5         0.  1.030E+02  3.000E+00           22259  5   45 
 4.7643E+04        0.5         1.  2.000E+00  4.000E-01         1.22259  5   46 
 5.1608E+04        0.5         1.  1.500E+00  5.000E-01         1.22259  5   47 
 5.6306E+04        0.5         1.  6.000E-01  2.000E-01         1.22259  5   48 
 6.5243E+04        0.5         0.  4.520E+02  1.400E+01           22259  5   49 
 7.3226E+04        0.5         1.  2.000E+00  1.000E+00         1.22259  5   50 
 8.6195E+04        0.5         1.  5.000E+00  2.000E+00         1.22259  5   51 
 8.6870E+04        0.5         0.  3.840E+02  1.300E+01           22259  5   52 
 8.7965E+04        0.5         1.  2.140E+01  2.700E+00           22259  5   53 
 9.1727E+04        0.5         1.  1.100E+01  2.000E+00         1.22259  5   54 
 9.3841E+04        0.5         1.  8.000E+00  2.000E+00         1.22259  5   55 
 9.7128E+04        0.5         1.  8.000E+00  2.000E+00         1.22259  5   56 
 9.8125E+04        0.5         0.  9.880E+02  3.200E+01           22259  5   57 
 9.9463E+04        0.5         1.  1.300E+01  4.000E+00           22259  5   58 
 1.0790E+05        0.5         0.  6.430E+02  2.000E+01           22259  5   59 
 1.0853E+05        0.5         1.  3.000E+00  2.000E+00         1.22259  5   60 
 1.1158E+05        0.5         1.  8.000E+00  4.000E+00         1.22259  5   61 
 1.1209E+05        0.5         1.  6.000E+00  3.000E+00         1.22259  5   62 
 1.1235E+05        0.5         1.  8.000E+00  4.000E+00         1.22259  5   63 
 1.1340E+05        0.5         1.  1.000E+01  5.000E+00         1.22259  5   64 
 1.2065E+05        0.5         1.  1.000E+01  5.000E+00         1.22259  5   65 
 1.2373E+05        0.5         1.  2.090E+01  1.400E+00           22259  5   66 
 1.2778E+05        1.5         1.  4.510E+01  3.500E+00           22259  5   67 
 1.3363E+05        1.5         1.  1.620E+01  1.800E+00           22259  5   68 
 1.3614E+05        0.5         1.  2.800E+01  3.000E+00         1.22259  5   69 
 1.3640E+05        0.5         1.  1.400E+01  3.000E+00           22259  5   70 
 1.3755E+05        0.5         1.  1.000E+01  5.000E+00           22259  5   71 
 1.3915E+05        0.5         0.  3.900E+01  6.000E+00           22259  5   72 
 1.3968E+05        0.5         1.  2.400E+01  5.000E+00           22259  5   73 
 1.4014E+05        0.5         1.  4.600E+01  7.000E+00           22259  5   74 
 1.4891E+05        0.5         1.  1.500E+01  7.000E+00         1.22259  5   75 
 1.5152E+05        0.5         1.  2.200E+01  5.000E+00           22259  5   76 
 1.5448E+05        1.5         1.  9.400E+01  6.000E+00           22259  5   77 
 1.5647E+05        0.5         0.  4.990E+02  1.500E+01           22259  5   78 
 1.6035E+05        0.5         1.  2.800E+01  3.000E+00           22259  5   79 
 1.6184E+05        0.5         0.  1.377E+03  4.100E+01           22259  5   80 
 1.6632E+05        0.5         1.  1.000E+01  5.000E+00         1.22259  5   81 
 1.6733E+05        0.5         1.  1.500E+01  7.000E+00         1.22259  5   82 
 1.7468E+05        0.5         1.  1.500E+01  7.000E+00         1.22259  5   83 
 1.7505E+05        0.5         1.  1.200E+01  6.000E+00         1.22259  5   84 
 1.8308E+05        1.5         1.  4.720E+01  2.400E+00           22259  5   85 
 1.8365E+05        0.5         1.  1.910E+01  2.200E+00           22259  5   86 
 1.8666E+05        0.5         0.  5.890E+03  2.800E+02           22259  5   87 
 1.9278E+05        1.5         1.  4.270E+01  2.000E+00           22259  5   88 
 1.9436E+05        0.5         1.  2.240E+01  2.200E+00           22259  5   89 
 1.9773E+05        0.5         0.  2.820E+03  1.500E+02           22259  5   90 
 2.0080E+05        0.5         0.  2.680E+01  1.500E+00           22259  5   91 
 2.0170E+05        2.5         2.  5.960E+01  3.000E+00           22259  5   92 
 2.0614E+05        0.5         1.  4.100E+01  4.100E+00           22259  5   93 
 2.0671E+05        1.5         2.  7.450E+01  3.700E+00           22259  5   94 
 2.1429E+05        1.5         2.  7.020E+01  3.500E+00           22259  5   95 
 2.2025E+05        0.5         1.  8.390E+01  5.000E+00           22259  5   96 
 2.2079E+05        0.5         1.  3.600E+01  4.000E+00           22259  5   97 
 2.2116E+05        2.5         2.  3.940E+01  2.300E+00           22259  5   98 
 2.2944E+05        0.5         1.  2.720E+01  3.000E+00         1.22259  5   99 
 2.3036E+05        2.5         2.  4.850E+01  2.400E+00           22259  5  100 
 2.3374E+05        0.5         1.  2.000E+01  5.000E+00         1.22259  5  101 
 2.3688E+05        0.5         1.  1.500E+01  5.000E+00         1.22259  5  102 
 2.3852E+05        0.5         1.  2.200E+01  5.000E+00         1.22259  5  103 
 2.4893E+05        0.5         1.  1.100E+02  6.000E+00           22259  5  104 
 2.5221E+05        0.5         0.  6.100E+02  3.100E+01           22259  5  105 
 2.5332E+05        1.5         1.  1.400E+02  1.000E+01           22259  5  106 
 2.5460E+05        0.5         1.  5.000E+01  5.000E+00           22259  5  107 
 2.5633E+05        0.5         1.  7.000E+01  7.000E+00           22259  5  108 
 2.5634E+05        0.5         0.  9.290E+02  6.600E+01           22259  5  109 
 2.5775E+05        0.5         0.  1.878E+03  5.500E+01           22259  5  110 
 2.6105E+05        0.5         1.  5.200E+01  7.000E+00           22259  5  111 
 2.6339E+05        0.5         1.  4.000E+01  5.000E+00           22259  5  112 
 2.6621E+05        0.5         1.  7.000E+01  6.000E+00           22259  5  113 
 2.6923E+05        0.5         1.  6.200E+01  6.000E+00           22259  5  114 
 2.6950E+05        0.5         1.  3.500E+01  4.000E+00           22259  5  115 
 2.7726E+05        0.5         1.  4.700E+01  5.000E+00           22259  5  116 
 2.7845E+05        1.5         1.  1.900E+02  1.000E+01           22259  5  117 
 2.7916E+05        0.5         0.  2.700E+02  1.800E+01           22259  5  118 
 2.8036E+05        1.5         1.  9.000E+01  6.000E+00           22259  5  119 
 2.8289E+05        0.5         1.  1.000E+02  1.500E+01           22259  5  120 
 2.8331E+05        1.5         1.  1.150E+02  9.000E+00           22259  5  121 
 2.9100E+05        0.5         1.  5.500E+01  5.000E+00           22259  5  122 
 2.9222E+05        0.5         0.  1.700E+02  9.000E+00           22259  5  123 
 2.9297E+05        1.5         1.  8.100E+01  6.000E+00           22259  5  124 
 2.9485E+05        0.5         1.  3.500E+01  6.000E+00           22259  5  125 
 2.9589E+05        0.5         1.  1.920E+02  1.200E+01           22259  5  126 
 2.9756E+05        0.5         1.  1.910E+02  1.200E+01           22259  5  127 
 3.0064E+05        0.5         1.  9.500E+01  8.000E+00           22259  5  128 
 3.0252E+05        0.5         1.  3.000E+01  7.000E+00         1.22259  5  129 
 3.0667E+05        0.5         1.  2.400E+01  2.000E+00         1.22259  5  130 
 3.0697E+05        0.5         1.  4.350E+02  2.500E+01           22259  5  131 
 3.0767E+05        1.5         1.  1.100E+02  8.000E+00           22259  5  132 
 3.1166E+05        0.5         1.  4.000E+01  6.000E+00           22259  5  133 
 3.1383E+05        0.5         1.  3.300E+01  8.000E+00         1.22259  5  134 
 3.1730E+05        0.5         0.  3.300E+03  1.250E+02           22259  5  135 
 3.1734E+05        0.5         1.  4.000E+01  6.000E+00           22259  5  136 
 3.2183E+05        0.5         1.  4.500E+01  7.000E+00           22259  5  137 
 3.2540E+05        0.5         0.  7.465E+03  2.250E+02           22259  5  138 
 3.2767E+05        0.5         1.  4.200E+01  6.000E+00           22259  5  139 
 3.2940E+05        0.5         1.  5.500E+01  6.000E+00           22259  5  140 
 3.3438E+05        1.5         1.  7.000E+01  6.000E+00           22259  5  141 
 3.3477E+05        0.5         1.  1.360E+02  1.200E+01           22259  5  142 
 3.3595E+05        0.5         1.  3.100E+01  3.000E+00           22259  5  143 
 3.3647E+05        1.5         1.  8.400E+01  7.000E+00           22259  5  144 
 3.3870E+05        0.5         0.  3.650E+03  1.100E+02           22259  5  145 
 3.4173E+05        0.5         1.  1.000E+02  5.000E+00           22259  5  146 
 3.4337E+05        0.5         1.  2.310E+02  1.700E+01           22259  5  147 
 3.4848E+05        0.5         1.  9.300E+01  6.000E+00           22259  5  148 
 3.4913E+05        0.5         1.  6.200E+01  5.000E+00           22259  5  149 
 3.5022E+05        0.5         1.  5.200E+01  4.000E+00           22259  5  150 
 3.5460E+05        1.5         1.  2.350E+02  3.500E+01         1.22259  5  151 
 3.5578E+05        0.5         1.  2.000E+01  5.000E+00         1.22259  5  152 
 3.5790E+05        0.5         0.  1.400E+03  7.000E+01           22259  5  153 
 3.5905E+05        0.5         1.  4.500E+01  4.000E+00           22259  5  154 
 3.5970E+05        1.5         1.  6.100E+02  3.500E+01           22259  5  155 
 3.6617E+05        0.5         1.  8.500E+01  6.000E+00           22259  5  156 
 3.7085E+05        0.5         1.  6.000E+01  6.000E+00           22259  5  157 
 3.7178E+05        0.5         1.  1.000E+01  5.000E+00         1.22259  5  158 
 3.7382E+05        0.5         1.  3.300E+01  5.000E+00         1.22259  5  159 
 3.7701E+05        0.5         0.  3.810E+03  1.550E+02           22259  5  160 
 3.7977E+05        0.5         1.  7.000E+01  4.000E+00           22259  5  161 
 3.7995E+05        1.5         1.  1.410E+02  9.000E+00           22259  5  162 
 3.8154E+05        0.5         1.  5.000E+01  5.000E+00           22259  5  163 
 3.8352E+05        0.5         0.  3.580E+02  2.500E+01           22259  5  164 
 3.8865E+05        1.5         1.  9.000E+01  6.000E+00           22259  5  165 
 3.8915E+05        0.5         1.  7.300E+01  7.000E+00           22259  5  166 
 3.8940E+05        0.5         1.  6.500E+01  6.000E+00           22259  5  167 
 3.9342E+05        1.5         1.  1.680E+02  2.000E+01           22259  5  168 
 3.9846E+05        0.5         1.  4.200E+02  2.100E+01           22259  5  169 
 3.9933E+05        0.5         1.  6.000E+01  6.000E+00           22259  5  170 
 4.0326E+05        1.5         1.  1.830E+02  1.500E+01           22259  5  171 
 4.0346E+05        0.5         1.  3.000E+01  4.000E+00           22259  5  172 
 4.0855E+05        0.5         1.  2.500E+01  3.000E+00         1.22259  5  173 
 4.1038E+05        1.5         2.  7.700E+01  8.000E+00           22259  5  174 
 4.1386E+05        0.5         0.  2.700E+02  2.200E+01           22259  5  175 
 4.1576E+05        0.5         1.  2.480E+02  2.000E+01           22259  5  176 
 4.1597E+05        1.5         1.  6.200E+01  5.000E+00           22259  5  177 
 4.1905E+05        0.5         1.  3.800E+01  5.000E+00           22259  5  178 
 4.2252E+05        0.5         1.  9.100E+01  8.000E+00           22259  5  179 
 4.2294E+05        0.5         0.  1.460E+03  6.000E+01           22259  5  180 
 4.2510E+05        0.5         1.  8.800E+01  6.000E+00           22259  5  181 
 4.2968E+05        0.5         1.  5.200E+02  3.200E+01           22259  5  182 
 4.2975E+05        1.5         1.  1.800E+01  2.000E+00           22259  5  183 
 4.3258E+05        1.5         2.  1.800E+02  1.200E+01           22259  5  184 
 4.3265E+05        0.5         1.  7.500E+01  1.100E+01           22259  5  185 
 4.3590E+05        1.5         1.  2.000E+02  1.700E+01           22259  5  186 
 4.3807E+05        0.5         0.  9.900E+02  6.200E+01           22259  5  187 
 4.3890E+05        0.5         1.  3.500E+01  5.000E+00           22259  5  188 
 4.3924E+05        0.5         1.  4.500E+01  6.000E+00           22259  5  189 
 4.4001E+05        0.5         1.  4.500E+01  6.000E+00           22259  5  190 
 4.4141E+05        1.5         2.  7.500E+01  6.000E+00           22259  5  191 
 4.4462E+05        0.5         1.  1.180E+02  1.000E+01           22259  5  192 
 4.4580E+05        0.5         1.  1.730E+02  2.100E+01           22259  5  193 
 4.4826E+05        0.5         0.  2.750E+03  1.150E+02           22259  5  194 
 4.4901E+05        0.5         1.  7.500E+01  7.000E+00           22259  5  195 
 4.5157E+05        1.5         1.  6.000E+01  4.000E+00           22259  5  196 
 4.5386E+05        0.5         1.  5.500E+01  8.000E+00           22259  5  197 
 4.5484E+05        0.5         1.  2.480E+02  1.700E+01           22259  5  198 
 4.5546E+05        1.5         1.  3.720E+02  3.100E+01           22259  5  199 
 4.5619E+05        0.5         0.  1.410E+03  1.120E+02           22259  5  200 
 4.5877E+05        0.5         1.  4.800E+01  5.000E+00           22259  5  201 
 4.6295E+05        0.5         1.  5.300E+01  8.000E+00           22259  5  202 
 4.6400E+05        0.5         0.  1.910E+03  7.700E+01           22259  5  203 
 4.7340E+05        0.5         1.  2.500E+01  5.000E+00         1.22259  5  204 
 4.7584E+05        0.5         1.  1.750E+02  1.100E+01           22259  5  205 
 4.7615E+05        1.5         1.  1.100E+02  7.000E+00           22259  5  206 
 4.7685E+05        1.5         2.  1.300E+02  1.300E+01           22259  5  207 
 4.8080E+05        0.5         1.  3.000E+01  6.000E+00         1.22259  5  208 
 4.8225E+05        0.5         1.  2.500E+01  8.000E+00         1.22259  5  209 
 4.8619E+05        0.5         0.  4.900E+03  3.000E+02           22259  5  210 
 4.8810E+05        1.5         2.  2.260E+02  2.200E+01         1.22259  5  211 
 4.9176E+05        0.5         1.  1.650E+02  1.300E+01           22259  5  212 
 4.9583E+05        0.5         1.  8.500E+01  1.800E+01           22259  5  213 
 4.9929E+05        1.5         2.  3.400E+02  1.700E+01           22259  5  214 
 4.9934E+05        0.5         0.  6.200E+03  5.000E+02           22259  5  215 
 5.0018E+05        0.5         1.  6.000E+01  8.000E+00           22259  5  216 
 5.0410E+05        1.5         1.  1.040E+02  1.100E+01           22259  5  217 
 5.1337E+05        1.5         2.  4.730E+02  2.900E+01           22259  5  218 
 5.1410E+05        1.5         1.  2.000E+02  1.800E+01           22259  5  219 
 5.1667E+05        1.5         2.  6.500E+02  4.100E+01           22259  5  220 
 5.1835E+05        0.5         1.  1.800E+02  1.800E+01           22259  5  221 
 5.2220E+05        0.5         0.  6.790E+03  2.750E+02           22259  5  222 
 5.2537E+05        0.5         1.  8.200E+01  7.000E+00           22259  5  223 
 5.2613E+05        0.5         1.  3.500E+01  5.000E+00         1.22259  5  224 
 5.2750E+05        0.5         0.  3.010E+03  2.450E+02           22259  5  225 
 5.2868E+05        1.5         1.  6.050E+02  3.800E+01           22259  5  226 
 5.3060E+05        0.5         1.  3.500E+01  6.000E+00         1.22259  5  227 
 5.3184E+05        0.5         1.  9.500E+01  1.400E+01           22259  5  228 
 5.3617E+05        0.5         1.  1.850E+02  1.300E+01           22259  5  229 
 5.3850E+05        1.5         2.  1.220E+02  8.000E+00           22259  5  230 
 5.3940E+05        0.5         1.  1.100E+02  8.000E+00           22259  5  231 
 5.3988E+05        0.5         1.  3.000E+01  5.000E+00         1.22259  5  232 
 5.4187E+05        1.5         2.  1.260E+02  8.000E+00           22259  5  233 
 5.4415E+05        0.5         1.  3.500E+01  1.500E+01         1.22259  5  234 
 5.4931E+05        0.5         1.  7.300E+01  1.100E+01           22259  5  235 
 5.5378E+05        0.5         1.  2.100E+02  1.300E+01           22259  5  236 
 5.5489E+05        2.5         2.  2.900E+02  1.800E+01           22259  5  237 
 5.5825E+05        0.5         1.  2.000E+01  7.000E+00         1.22259  5  238 
 5.5943E+05        0.5         0.  3.230E+02  1.900E+01           22259  5  239 
 5.5963E+05        0.5         1.  3.500E+01  7.000E+00         1.22259  5  240 
 5.6142E+05        1.5         1.  1.000E+02  8.000E+00           22259  5  241 
 5.6470E+05        0.5         1.  4.200E+01  5.000E+00         1.22259  5  242 
 5.6665E+05        0.5         0.  3.500E+01  4.000E+00           22259  5  243 
 5.6810E+05        1.5         2.  2.500E+02  2.000E+01           22259  5  244 
 5.7112E+05        0.5         1.  8.500E+01  9.000E+00           22259  5  245 
 5.7369E+05        0.5         1.  1.200E+02  1.200E+01           22259  5  246 
 5.7644E+05        0.5         1.  8.500E+01  8.000E+00           22259  5  247 
 5.7760E+05        0.5         1.  4.500E+01  5.000E+00         1.22259  5  248 
 5.7900E+05        1.5         2.  1.000E+02  1.200E+01           22259  5  249 
 5.8233E+05        0.5         0.  2.560E+02  2.000E+01           22259  5  250 
 5.8244E+05        0.5         1.  2.500E+01  8.000E+00         1.22259  5  251 
 5.8310E+05        1.5         1.  7.000E+01  7.000E+00           22259  5  252 
 5.9090E+05        1.5         2.  1.300E+02  1.300E+01           22259  5  253 
 5.9196E+05        1.5         2.  1.300E+02  1.300E+01           22259  5  254 
 5.9650E+05        0.5         0.  1.720E+03  1.200E+02           22259  5  255 
 5.9762E+05        0.5         1.  6.000E+01  1.000E+01         1.22259  5  256 
 6.0190E+05        0.5         1.  4.000E+01  8.000E+00         1.22259  5  257 
 6.0387E+05        0.5         1.  5.000E+01  1.000E+01         1.22259  5  258 
 6.0645E+05        0.5         0.  7.560E+03  4.500E+02           22259  5  259 
 6.0724E+05        0.5         1.  3.750E+02  3.800E+01           22259  5  260 
 6.0783E+05        2.5         2.  4.750E+02  3.800E+01           22259  5  261 
 6.0786E+05        0.5         1.  5.000E+01  1.000E+01         1.22259  5  262 
 6.1077E+05        0.5         1.  5.500E+01  1.100E+01         1.22259  5  263 
 6.1219E+05        1.5         1.  9.500E+01  9.000E+00           22259  5  264 
 6.1662E+05        0.5         0.  7.250E+02  4.500E+01           22259  5  265 
 6.2030E+05        0.5         1.  4.000E+01  2.000E+01         1.22259  5  266 
 6.2075E+05        1.5         2.  5.800E+02  5.500E+01           22259  5  267 
 6.2077E+05        0.5         1.  6.200E+01  2.000E+01         1.22259  5  268 
 6.2188E+05        2.5         2.  5.050E+02  3.200E+01           22259  5  269 
 6.2327E+05        0.5         1.  7.500E+01  9.000E+00           22259  5  270 
 6.2460E+05        0.5         1.  2.180E+02  2.200E+01           22259  5  271 
 6.2795E+05        1.5         1.  1.150E+02  1.000E+01           22259  5  272 
 6.2900E+05        0.5         0.  8.750E+03  5.250E+02           22259  5  273 
 6.2905E+05        1.5         1.  8.000E+01  8.000E+00           22259  5  274 
 6.3130E+05        0.5         1.  4.500E+01  1.000E+01         1.22259  5  275 
 6.3347E+05        1.5         1.  1.550E+02  1.600E+01           22259  5  276 
 6.3530E+05        1.5         1.  7.200E+02  4.200E+01           22259  5  277 
 6.3800E+05        0.5         0.  1.550E+03  1.000E+02           22259  5  278 
 6.4034E+05        1.5         1.  5.100E+02  3.200E+01           22259  5  279 
 6.4265E+05        1.5         2.  1.600E+02  1.400E+01           22259  5  280 
 6.4605E+05        1.5         2.  1.300E+02  1.100E+01           22259  5  281 
 6.5105E+05        0.5         0.  6.000E+02  4.500E+01           22259  5  282 
 6.5165E+05        1.5         1.  5.150E+02  4.800E+01           22259  5  283 
 6.5200E+05        0.5         1.  5.000E+01  1.500E+01         1.22259  5  284 
 6.5620E+05        1.5         2.  5.080E+02  4.500E+01           22259  5  285 
 6.5660E+05        0.5         1.  1.070E+02  1.100E+01           22259  5  286 
 6.5962E+05        0.5         0.  7.310E+03  8.700E+02           22259  5  287 
 6.6010E+05        2.5         2.  2.030E+02  2.800E+01         1.22259  5  288 
 6.6093E+05        1.5         1.  1.730E+02  2.100E+01           22259  5  289 
 6.6585E+05        0.5         1.  9.800E+02  1.600E+02           22259  5  290 
 6.6595E+05        1.5         1.  1.500E+01  7.000E+00           22259  5  291 
 6.6619E+05        1.5         1.  8.000E+01  2.000E+01           22259  5  292 
 6.6780E+05        0.5         0.  5.390E+03  4.600E+02           22259  5  293 
 6.6808E+05        1.5         2.  2.350E+02  2.200E+01           22259  5  294 
 6.7152E+05        1.5         2.  2.200E+02  2.100E+01           22259  5  295 
 6.7288E+05        0.5         1.  5.500E+01  2.000E+01           22259  5  296 
 6.7430E+05        0.5         0.  4.350E+03  4.000E+02           22259  5  297 
 6.7563E+05        0.5         1.  1.000E+02  1.500E+01           22259  5  298 
 6.7720E+05        0.5         1.  1.300E+02  2.000E+01           22259  5  299 
 6.7790E+05        0.5         1.  4.000E+01  1.500E+01         1.22259  5  300 
 6.7980E+05        0.5         0.  2.500E+03  5.000E+02           22259  5  301 
 6.7995E+05        0.5         1.  4.500E+01  1.500E+01         1.22259  5  302 
 6.8185E+05        0.5         1.  4.000E+01  1.500E+01         1.22259  5  303 
 6.8430E+05        0.5         1.  3.250E+02  3.200E+01           22259  5  304 
 6.8495E+05        1.5         1.  1.030E+02  1.400E+01           22259  5  305 
 6.8542E+05        1.5         2.  2.240E+02  2.400E+01           22259  5  306 
 6.8800E+05        0.5         1.  8.000E+01  2.000E+01           22259  5  307 
 6.9062E+05        1.5         1.  1.800E+02  1.800E+01           22259  5  308 
 6.9235E+05        0.5         1.  5.000E+01  1.500E+01         1.22259  5  309 
 6.9293E+05        0.5         1.  5.000E+01  1.500E+01         1.22259  5  310 
 6.9515E+05        0.5         1.  1.750E+02  1.400E+01           22259  5  311 
 6.9735E+05        1.5         1.  2.000E+02  2.000E+01           22259  5  312 
 6.9845E+05        0.5         1.  1.900E+02  2.500E+01           22259  5  313 
 6.9955E+05        0.5         0.  2.200E+03  2.550E+02           22259  5  314 
 7.0193E+05        1.5         1.  2.260E+02  1.800E+01           22259  5  315 
 7.0275E+05        1.5         2.  2.500E+02  1.800E+01           22259  5  316 
 7.0370E+05        1.5         2.  1.300E+02  1.500E+01           22259  5  317 
 7.0414E+05        0.5         1.  4.700E+02  5.500E+01           22259  5  318 
 7.0442E+05        1.5         1.  4.900E+02  5.500E+01           22259  5  319 
 7.0670E+05        0.5         0.  1.840E+03  1.450E+02           22259  5  320 
 7.0723E+05        0.5         1.  3.000E+01  1.500E+01         1.22259  5  321 
 7.0977E+05        0.5         1.  1.500E+01  1.000E+01         1.22259  5  322 
 7.1122E+05        0.5         1.  3.500E+01  1.500E+01         1.22259  5  323 
 7.1220E+05        0.5         0.  1.370E+03  1.100E+02           22259  5  324 
 7.1357E+05        1.5         1.  2.340E+02  2.400E+01           22259  5  325 
 7.1545E+05        0.5         1.  1.500E+01  1.000E+01         1.22259  5  326 
 7.1700E+05        0.5         1.  1.050E+02  2.000E+01           22259  5  327 
 7.2070E+05        0.5         1.  5.500E+01  2.500E+01           22259  5  328 
 7.2207E+05        0.5         1.  2.500E+01  1.500E+01         1.22259  5  329 
 7.2300E+05        0.5         1.  3.500E+01  2.000E+01         1.22259  5  330 
 7.2611E+05        0.5         0.  2.530E+03  3.050E+02           22259  5  331 
 7.2770E+05        0.5         1.  1.050E+02  1.100E+01           22259  5  332 
 7.2840E+05        1.5         1.  1.900E+02  2.300E+01           22259  5  333 
 7.3000E+05        2.5         2.  2.700E+02  3.300E+01           22259  5  334 
 7.3152E+05        1.5         1.  1.200E+02  1.100E+01           22259  5  335 
 7.3267E+05        0.5         1.  1.850E+02  1.900E+01           22259  5  336 
 7.3392E+05        0.5         1.  4.000E+01  2.000E+01         1.22259  5  337 
 7.3518E+05        0.5         1.  1.800E+02  1.800E+01           22259  5  338 
 7.3870E+05        0.5         1.  9.000E+01  1.300E+01           22259  5  339 
 7.3940E+05        0.5         0.  3.820E+03  3.200E+02           22259  5  340 
 7.4185E+05        0.5         1.  2.500E+02  2.000E+01           22259  5  341 
 7.4346E+05        0.5         1.  6.000E+01  2.000E+01           22259  5  342 
 7.4495E+05        0.5         1.  5.000E+02  4.000E+01           22259  5  343 
 7.4844E+05        1.5         1.  1.100E+03  8.000E+01           22259  5  344 
 7.4928E+05        0.5         1.  5.000E+01  2.000E+01         1.22259  5  345 
 7.5300E+05        0.5         0.  1.620E+04  2.000E+03           22259  5  346 
 7.5392E+05        0.5         1.  5.000E+01  2.000E+01         1.22259  5  347 
 7.5580E+05        0.5         1.  9.000E+01  3.000E+01           22259  5  348 
 7.5750E+05        0.5         1.  1.500E+02  4.000E+01           22259  5  349 
 7.5986E+05        0.5         0.  6.120E+02  6.000E+01           22259  5  350 
 7.6030E+05        0.5         1.  1.700E+02  3.000E+01           22259  5  351 
 7.6100E+05        1.5         1.  3.200E+02  3.700E+01           22259  5  352 
 7.6248E+05        0.5         1.  2.800E+02  2.800E+01           22259  5  353 
 7.6357E+05        0.5         1.  3.500E+01  2.000E+01         1.22259  5  354 
 7.6622E+05        0.5         1.  1.000E+02  2.000E+01           22259  5  355 
 7.6712E+05        1.5         1.  1.200E+02  2.000E+01           22259  5  356 
 7.6893E+05        1.5         1.  9.000E+01  2.000E+01           22259  5  357 
 7.6927E+05        0.5         0.  8.000E+02  1.100E+02           22259  5  358 
 7.6995E+05        1.5         1.  1.200E+02  1.700E+01           22259  5  359 
 7.7240E+05        0.5         1.  1.600E+02  2.500E+01           22259  5  360 
 7.7467E+05        1.5         2.  3.290E+02  2.800E+01           22259  5  361 
 7.7540E+05        1.5         1.  4.800E+02  1.000E+02           22259  5  362 
 7.7585E+05        0.5         1.  1.500E+02  2.000E+01           22259  5  363 
 7.7690E+05        0.5         0.  9.300E+03  1.100E+03           22259  5  364 
 7.8127E+05        0.5         1.  1.500E+02  4.000E+01           22259  5  365 
 7.8190E+05        0.5         1.  3.500E+02  5.000E+01           22259  5  366 
 7.8235E+05        0.5         1.  1.200E+02  3.000E+01           22259  5  367 
 7.8553E+05        0.5         1.  9.500E+01  2.000E+01           22259  5  368 
 7.8632E+05        1.5         1.  4.200E+02  4.000E+01           22259  5  369 
 7.8668E+05        1.5         2.  2.950E+02  3.000E+01           22259  5  370 
 7.8962E+05        1.5         1.  1.500E+02  1.700E+01           22259  5  371 
 7.9040E+05        0.5         0.  3.900E+03  4.800E+02           22259  5  372 
 7.9130E+05        0.5         1.  1.350E+02  1.500E+01           22259  5  373 
 7.9170E+05        1.5         1.  1.200E+02  2.000E+01           22259  5  374 
 7.9295E+05        1.5         2.  2.180E+02  2.200E+01           22259  5  375 
 7.9777E+05        0.5         0.  2.120E+02  2.200E+01           22259  5  376 
 7.9823E+05        1.5         1.  1.200E+02  1.500E+01           22259  5  377 
 7.9983E+05        0.5         1.  1.550E+02  2.000E+01           22259  5  378 
 8.0080E+05        0.5         1.  2.300E+02  3.000E+01           22259  5  379 
 8.0900E+05        0.5         0.  4.300E+03                      22259  5  380 
 8.1750E+05        0.5         0.  7.000E+03                      22259  5  381 
 8.2720E+05        0.5         0.  2.300E+03                      22259  5  382 
 8.4841E+05        0.5         0.  7.100E+03                      22259  5  383 
 8.5770E+05        0.5         0.  6.000E+02                      22259  5  384 
 8.6450E+05        0.5         0.  2.000E+02                      22259  5  385 
 8.7740E+05        0.5         0.  9.000E+02                      22259  5  386 
 8.8270E+05        0.5         0.  2.200E+03                      22259  5  387 
 8.8770E+05        0.5         0.  4.000E+02                      22259  5  388 
 8.9790E+05        0.5         0.  1.000E+03                      22259  5  389 
 9.0840E+05        0.5         0.  1.000E+02                      22259  5  390 
 9.2320E+05        0.5         0.  1.000E+03                      22259  5  391 
 9.3210E+05        0.5         0.  3.700E+03                      22259  5  392 
 9.3530E+05        0.5         0.  1.100E+03                      22259  5  393 
 9.6650E+05        0.5         0.  2.000E+03                      22259  5  394 
 1.0200E+06        0.5         0.  1.000E+04                      22259  5  395 
 1.1500E+06        0.5         0.  7.500E+04                      22259  5  396 
 1.2000E+06        0.5         0.  7.500E+04                      22259  5  397 
 1.3000E+06        0.5         0.  7.500E+04                      22259  5  398 
ENDDATA            369          0                                 22259  5  399 
ENDSUBENT          398          0                                 22259  599999 
SUBENT        22259006   20170820                             226522259  6    1 
BIB                  5          8                                 22259  6    2 
REACTION   (28-NI-60(N,0),,D)                                     22259  6    3 
CORRECTION .The data were not corrected for missing levels.       22259  6    4 
ERR-ANALYS (DATA-ERR) The quoted errors are (0.273N)0.6,          22259  6    5 
            where N is the number of resonances.                  22259  6    6 
STATUS     (TABLE) Tbl.4 from 91JUELIC,,71.                       22259  6    7 
           (DEP,22259005)                                         22259  6    8 
HISTORY    (19961021A)  *  * Neutron energy range introduced *   *22259  6    9 
           (20170820U) SD: ERR-ANALYS was added.                  22259  6   10 
ENDBIB               8          0                                 22259  6   11 
NOCOMMON             0          0                                 22259  6   12 
DATA                 5          1                                 22259  6   13 
EN-RES-MIN EN-RES-MAX MOMENTUM L DATA       DATA-ERR              22259  6   14 
EV         EV         NO-DIM     KEV        KEV                   22259  6   15 
   40.        3.00E+07  0.0        16.1        1.5                22259  6   16 
ENDDATA              3          0                                 22259  6   17 
ENDSUBENT           16          0                                 22259  699999 
SUBENT        22259007   20170820                             226522259  7    1 
BIB                  5          9                                 22259  7    2 
REACTION   (28-NI-60(N,EL),,STF)                                  22259  7    3 
CORRECTION .The data were not corrected for missing levels.       22259  7    4 
ERR-ANALYS (DATA-ERR) The quoted errors are sqrt(2/N),            22259  7    5 
            where N is the number of resonances.                  22259  7    6 
STATUS     (TABLE) Tbl.4 from 91JUELIC,,71.                       22259  7    7 
           (DEP,22259005)                                         22259  7    8 
HISTORY    (19961021A)  *  * Neutron energy range introduced *   *22259  7    9 
           (20170820A) SD: DATA(/ERR) /10**4 as it is given in Tbl22259  7   10 
           ERR-ANALYS was added.                                  22259  7   11 
ENDBIB               9          0                                 22259  7   12 
NOCOMMON             0          0                                 22259  7   13 
DATA                 5          1                                 22259  7   14 
EN-RES-MIN EN-RES-MAX MOMENTUM L DATA       DATA-ERR              22259  7   15 
EV         EV         NO-DIM     NO-DIM     NO-DIM                22259  7   16 
   40.        3.00E+07  0.0         2.50E-04   0.62E-04           22259  7   17 
ENDDATA              3          0                                 22259  7   18 
ENDSUBENT           17          0                                 22259  799999 
ENDENTRY             7          0                                 2225999999999 
