ENTRY            22370   19990604                             00002237000000001 
SUBENT        22370001   19990604                             00002237000100001 
BIB                 11         29                                 2237000100002 
TITLE       APPLICATION OF 'BGO' SCINTILLATORS TO ABSOLUTE        2237000100003 
            MEASUREMENTS OF NEUTRON CAPTURE CROSS-SECTIONS        2237000100004 
            BETWEEN 0.01 EV AND 10 EV                             2237000100005 
AUTHOR     (S.YAMAMOTO,K.KOBAYASHI,Y.FUJITA)                      2237000100006 
INSTITUTE  (2JPNKTO)                                              2237000100007 
REFERENCE  (J,NST,33,(11),815,199611) MAIN REFERENCE,DATA ARE     2237000100008 
           GIVEN                                                  2237000100009 
FACILITY   (LINAC)  46-MEV ELECTRON LINEAR ACCELERATOR AT THE     2237000100010 
             RESEARCH REACTOR INSTITUTE, KYOTO UNIVERSITY - KURRI 2237000100011 
METHOD     (TOF)                                                  2237000100012 
DETECTOR   (SCIN)  BISMUTH GERMANATE (BI4-GE3-O12) SCINTILLATOR,  2237000100013 
                   DENSITY 7.13 GRAM/CM2                          2237000100014 
MONITOR    (62-SM-0(N,G),,SIG)   FOR THERMAL NEUTRON FLUX         2237000100015 
                                 MONITORING                       2237000100016 
           (5-B-10(N,A)3-LI-7,,SIG)   FOR NEUTRON FLUX MONITORING 2237000100017 
            AT ENERGIES FROM 0.1 TO 10 EV                         2237000100018 
SAMPLE     .SAMARIUM SAMPLE WAS METALLIC PLATE OF 1.8*1.8 CM2 AND 2237000100019 
            0.5 MM THICK, PURITY 99.8 PC.                         2237000100020 
           .BORON-10 POWDER IN THIN ALUMINIUM CASE 0.2 MM IN      2237000100021 
            THICKNESS SAMPLE THICKNESS IS 1.102 GRAM/CM2,         2237000100022 
            ENRICHMENT OF B-10 SAMPLE IS 90.4 PC                  2237000100023 
INC-SOURCE (PHOTO) FAST NEUTRONS WERE PRODUCED IN A WATER-COOLED  2237000100024 
               TANTALUM TARGET 5 CM IN DIAMETER AND 6.1 CM LONG   2237000100025 
              .FAST NEUTRONS WERE MODERATED IN AN OCTAGONAL WATER 2237000100026 
               TANK 30 CM IN DIAMETER AND 10 CM THICK PLACED      2237000100027 
               BESIDE THE TARGET. LINAC OPERATED WITH 50 HZ REPE- 2237000100028 
               TITION RATE, PULSE WIDTH 3 MICROSEC                2237000100029 
HISTORY    (19980128C)  + +  COMPILED BY S.MAEV  + +              2237000100030 
           (19990604A) DATE is corrected                          2237000100031 
ENDBIB              29          0                                 2237000100032 
NOCOMMON             0          0                                 2237000100033 
ENDSUBENT           32          0                                 2237000199999 
SUBENT        22370002   19990604                             00002237000200001 
BIB                  3          5                                 2237000200002 
REACTION   (79-AU-197(N,G)79-AU-198,,SIG,,AV) AVERAGED OVER       2237000200003 
                      ENERGY INTERVAL GIVEN IN DATA SECTION       2237000200004 
SAMPLE      .METALLIC PLATE 1.8*1.8 CM2, THICKNESS 0.716 G/CM2,   2237000200005 
             PURITY 99.999 PC                                     2237000200006 
STATUS     (TABLE) DATA ARE TAKEN FROM TABLE 1 OF MAIN REFERENCE  2237000200007 
ENDBIB               5          0                                 2237000200008 
NOCOMMON             0          0                                 2237000200009 
DATA                 4         10                                 2237000200010 
EN-MIN     EN-MAX     DATA       ERR-T                            2237000200011 
EV         EV         B          B                                2237000200012 
  0.0134    0.0213    117.7       2.9                             2237000200013 
  0.0213    0.0338     94.1       2.3                             2237000200014 
  0.0338    0.0538     75.7       1.8                             2237000200015 
  0.0538    0.0855     61.2       1.5                             2237000200016 
  0.0855    0.136      49.4       1.2                             2237000200017 
  0.136     0.217      40.3       1.0                             2237000200018 
  0.217     0.347      33.4       0.8                             2237000200019 
  0.347     0.554      28.3       0.7                             2237000200020 
  0.554     0.886      25.3       0.7                             2237000200021 
  0.886     1.438      24.7       0.6                             2237000200022 
ENDDATA             12          0                                 2237000200023 
ENDSUBENT           22          0                                 2237000299999 
SUBENT        22370003   19990604                             00002237000300001 
BIB                  3          6                                 2237000300002 
REACTION   (51-SB-0(N,G),,SIG,,AV)  AVERAGED OVER ENERGY INTERVAL 2237000300003 
                                    GIVEN IN DATA SECTION         2237000300004 
SAMPLE     .FINE POWDER PACKED IN ALUMINIUM CASE 1.8*1.8 CM2 AND  2237000300005 
            5 MM THICK. PURITY IS 99.9 PC, SAMPLE THICKNESS IS    2237000300006 
            I.843 GRAM/CM2                                        2237000300007 
STATUS     (TABLE) DATA ARE TAKEN FROM TABLE 2 OF MAIN REFERENCE  2237000300008 
ENDBIB               6          0                                 2237000300009 
NOCOMMON             0          0                                 2237000300010 
DATA                 4         11                                 2237000300011 
EN-MIN     EN-MAX     DATA       ERR-T                            2237000300012 
EV         EV         B          B                                2237000300013 
  0.0134    0.0213     6.31        0.18                           2237000300014 
  0.0213    0.0338     5.00        0.13                           2237000300015 
  0.0338    0.0538     4.05        0.10                           2237000300016 
  0.0538    0.0855     3.30        0.08                           2237000300017 
  0.0855    0.136      2.64        0.07                           2237000300018 
  0.136     0.217      2.10        0.06                           2237000300019 
  0.217     0.347      1.67        0.05                           2237000300020 
  0.347     0.554      1.34        0.05                           2237000300021 
  0.554     0.886      1.14        0.04                           2237000300022 
  0.886     1.438      0.98        0.03                           2237000300023 
  1.438     2.344      0.95        0.03                           2237000300024 
ENDDATA             13          0                                 2237000300025 
ENDSUBENT           24          0                                 2237000399999 
SUBENT        22370004   19990604                             00002237000400001 
BIB                  3          5                                 2237000400002 
REACTION   (79-AU-197(N,G)79-AU-198,,SIG)                         2237000400003 
SAMPLE      .METALLIC PLATE 1.8*1.8 CM2, THICKNESS 0.716 G/CM2,   2237000400004 
             PURITY 99.999 PC                                     2237000400005 
STATUS     (APRVD) DATA ARE OBTAINED FROM THE AUTHOR -            2237000400006 
                   YAMAMOTO, 980128                               2237000400007 
ENDBIB               5          0                                 2237000400008 
NOCOMMON             0          0                                 2237000400009 
DATA                 3         54                                 2237000400010 
EN         DATA       ERR-T                                       2237000400011 
EV         B          B                                           2237000400012 
 1.3380E-02 1.3346E+02 3.3168E+00                                 2237000400013 
 1.5030E-02 1.2539E+02 3.1009E+00                                 2237000400014 
 1.6860E-02 1.1805E+02 2.9068E+00                                 2237000400015 
 1.8930E-02 1.1212E+02 2.7514E+00                                 2237000400016 
 2.1260E-02 1.0571E+02 2.5882E+00                                 2237000400017 
 2.3870E-02 1.0055E+02 2.4574E+00                                 2237000400018 
 2.6790E-02 9.4746E+01 2.3124E+00                                 2237000400019 
 3.0090E-02 8.9488E+01 2.1816E+00                                 2237000400020 
 3.3780E-02 8.4399E+01 2.0561E+00                                 2237000400021 
 3.7910E-02 7.9892E+01 1.9450E+00                                 2237000400022 
 4.2570E-02 7.6398E+01 1.8589E+00                                 2237000400023 
 4.7840E-02 7.2409E+01 1.7613E+00                                 2237000400024 
 5.3760E-02 6.8747E+01 1.6719E+00                                 2237000400025 
 6.0390E-02 6.4759E+01 1.5750E+00                                 2237000400026 
 6.7790E-02 6.1532E+01 1.4967E+00                                 2237000400027 
 7.6100E-02 5.8330E+01 1.4192E+00                                 2237000400028 
 8.5480E-02 5.5230E+01 1.3443E+00                                 2237000400029 
 9.6050E-02 5.2474E+01 1.2782E+00                                 2237000400030 
 1.0790E-01 4.9638E+01 1.2104E+00                                 2237000400031 
 1.2130E-01 4.7139E+01 1.1516E+00                                 2237000400032 
 1.3610E-01 4.4631E+01 1.0930E+00                                 2237000400033 
 1.5280E-01 4.2679E+01 1.0486E+00                                 2237000400034 
 1.7150E-01 4.0466E+01 9.9906E-01                                 2237000400035 
 1.9280E-01 3.8825E+01 9.6365E-01                                 2237000400036 
 2.1700E-01 3.6460E+01 9.1185E-01                                 2237000400037 
 2.4390E-01 3.5160E+01 8.8475E-01                                 2237000400038 
 2.7430E-01 3.3382E+01 8.4403E-01                                 2237000400039 
 3.0840E-01 3.2347E+01 8.2129E-01                                 2237000400040 
 3.4670E-01 3.0621E+01 7.8025E-01                                 2237000400041 
 3.9050E-01 2.9943E+01 7.6299E-01                                 2237000400042 
 4.3930E-01 2.8161E+01 7.2217E-01                                 2237000400043 
 4.9320E-01 2.7181E+01 6.9809E-01                                 2237000400044 
 5.5410E-01 2.6500E+01 6.8208E-01                                 2237000400045 
 6.2280E-01 2.5924E+01 6.6813E-01                                 2237000400046 
 6.9990E-01 2.5143E+01 6.4955E-01                                 2237000400047 
 7.8620E-01 2.4912E+01 6.4391E-01                                 2237000400048 
 8.8590E-01 2.4319E+01 6.2649E-01                                 2237000400049 
 1.0010E+00 2.3999E+01 6.1878E-01                                 2237000400050 
 1.1300E+00 2.4378E+01 6.2751E-01                                 2237000400051 
 1.2740E+00 2.5211E+01 6.4762E-01                                 2237000400052 
 1.4380E+00 2.5472E+01 6.5122E-01                                 2237000400053 
 1.6280E+00 2.7004E+01 6.8862E-01                                 2237000400054 
 1.8360E+00 2.8912E+01 7.3507E-01                                 2237000400055 
 2.0730E+00 3.2729E+01 8.2460E-01                                 2237000400056 
 2.3440E+00 3.8119E+01 9.5601E-01                                 2237000400057 
 2.6530E+00 4.5917E+01 1.1426E+00                                 2237000400058 
 3.0040E+00 6.1539E+01 1.5231E+00                                 2237000400059 
 3.4030E+00 9.5473E+01 2.3457E+00                                 2237000400060 
 3.8530E+00 1.9358E+02 4.7334E+00                                 2237000400061 
 4.3590E+00 7.4330E+02 1.8104E+01                                 2237000400062 
 5.5480E+00 4.4072E+02 1.0747E+01                                 2237000400063 
 6.3010E+00 8.2384E+01 2.0271E+00                                 2237000400064 
 7.1300E+00 3.0642E+01 7.7545E-01                                 2237000400065 
 8.0390E+00 1.5323E+01 4.0520E-01                                 2237000400066 
ENDDATA             56          0                                 2237000400067 
ENDSUBENT           66          0                                 2237000499999 
SUBENT        22370005   19990604                             00002237000500001 
BIB                  3          6                                 2237000500002 
REACTION   (51-SB-0(N,G),,SIG)                                    2237000500003 
SAMPLE     .FINE POWDER PACKED IN ALUMINIUM CASE 1.8*1.8 CM2 AND  2237000500004 
            5 MM THICK. PURITY IS 99.9 PC, SAMPLE THICKNESS IS    2237000500005 
            I.843 GRAM/CM2                                        2237000500006 
STATUS     (APRVD) DATA ARE OBTAINED FROM THE AUTHOR -            2237000500007 
                   YAMAMOTO, 980128                               2237000500008 
ENDBIB               6          0                                 2237000500009 
NOCOMMON             0          0                                 2237000500010 
DATA                 3         55                                 2237000500011 
EN         DATA       ERR-T                                       2237000500012 
EV         B          B                                           2237000500013 
 1.3380E-02 7.0941E+00 2.0851E-01                                 2237000500014 
 1.5030E-02 6.7201E+00 1.9115E-01                                 2237000500015 
 1.6860E-02 6.4127E+00 1.7707E-01                                 2237000500016 
 1.8930E-02 5.9675E+00 1.6065E-01                                 2237000500017 
 2.1260E-02 5.6048E+00 1.4832E-01                                 2237000500018 
 2.3870E-02 5.2872E+00 1.3794E-01                                 2237000500019 
 2.6790E-02 5.0296E+00 1.2985E-01                                 2237000500020 
 3.0090E-02 4.7663E+00 1.2192E-01                                 2237000500021 
 3.3780E-02 4.5459E+00 1.1560E-01                                 2237000500022 
 3.7910E-02 4.3030E+00 1.0885E-01                                 2237000500023 
 4.2570E-02 4.0521E+00 1.0201E-01                                 2237000500024 
 4.7840E-02 3.8623E+00 9.7007E-02                                 2237000500025 
 5.3760E-02 3.6634E+00 9.1835E-02                                 2237000500026 
 6.0390E-02 3.4905E+00 8.7539E-02                                 2237000500027 
 6.7790E-02 3.3233E+00 8.3419E-02                                 2237000500028 
 7.6100E-02 3.1662E+00 7.9666E-02                                 2237000500029 
 8.5480E-02 2.9538E+00 7.4570E-02                                 2237000500030 
 9.6050E-02 2.8668E+00 7.2869E-02                                 2237000500031 
 1.0790E-01 2.6430E+00 6.7776E-02                                 2237000500032 
 1.2130E-01 2.5063E+00 6.5204E-02                                 2237000500033 
 1.3610E-01 2.3470E+00 6.2229E-02                                 2237000500034 
 1.5280E-01 2.2374E+00 6.0822E-02                                 2237000500035 
 1.7150E-01 2.1232E+00 5.9724E-02                                 2237000500036 
 1.9280E-01 1.9955E+00 5.8175E-02                                 2237000500037 
 2.1700E-01 1.8961E+00 5.7969E-02                                 2237000500038 
 2.4390E-01 1.7356E+00 5.4995E-02                                 2237000500039 
 2.7430E-01 1.6475E+00 5.3606E-02                                 2237000500040 
 3.0840E-01 1.6339E+00 5.4364E-02                                 2237000500041 
 3.4670E-01 1.5085E+00 5.1132E-02                                 2237000500042 
 3.9050E-01 1.4012E+00 4.7497E-02                                 2237000500043 
 4.3930E-01 1.3141E+00 4.5976E-02                                 2237000500044 
 4.9320E-01 1.2972E+00 4.5720E-02                                 2237000500045 
 5.5410E-01 1.2271E+00 4.3698E-02                                 2237000500046 
 6.2280E-01 1.2192E+00 4.2443E-02                                 2237000500047 
 6.9990E-01 1.1718E+00 4.2443E-02                                 2237000500048 
 7.8620E-01 1.0788E+00 3.9165E-02                                 2237000500049 
 8.8590E-01 1.0533E+00 3.7653E-02                                 2237000500050 
 1.0010E+00 9.9971E-01 3.5885E-02                                 2237000500051 
 1.1300E+00 9.6118E-01 3.4233E-02                                 2237000500052 
 1.2740E+00 9.6163E-01 3.3920E-02                                 2237000500053 
 1.4380E+00 9.4671E-01 3.2632E-02                                 2237000500054 
 1.6280E+00 9.3824E-01 3.1927E-02                                 2237000500055 
 1.8360E+00 9.3993E-01 3.1496E-02                                 2237000500056 
 2.0730E+00 9.4513E-01 3.0162E-02                                 2237000500057 
 2.3440E+00 9.9417E-01 3.0902E-02                                 2237000500058 
 2.6530E+00 1.0509E+00 3.1150E-02                                 2237000500059 
 3.0040E+00 1.2034E+00 3.4440E-02                                 2237000500060 
 3.4030E+00 1.4396E+00 3.9057E-02                                 2237000500061 
 3.8530E+00 1.7922E+00 4.6952E-02                                 2237000500062 
 4.3590E+00 2.6173E+00 6.6452E-02                                 2237000500063 
 4.9230E+00 4.9449E+00 1.2755E-01                                 2237000500064 
 5.5480E+00 2.5199E+01 6.4592E-01                                 2237000500065 
 6.3010E+00 1.4487E+02 3.9782E+00                                 2237000500066 
 7.1300E+00 7.5156E+00 2.4574E-01                                 2237000500067 
 8.0390E+00 2.2035E+00 8.8106E-02                                 2237000500068 
ENDDATA             57          0                                 2237000500069 
ENDSUBENT           68          0                                 2237000599999 
ENDENTRY             5          0                                 2237099999999 
