ENTRY            22610   20010203                             00002261000000001 
SUBENT        22610001   20010203                             00002261000100001 
BIB                 14         20                                 2261000100002 
INSTITUTE  (2FR BRC)                                              2261000100003 
REFERENCE  (P,EANDC(E)-49,69,196310))                             2261000100004 
AUTHOR     (J.CABE,M.LAURAT,P.YVON)                               2261000100005 
TITLE      Measurement of Total Cross Sections For Neutrons       2261000100006 
           From 500 to 1200 KeV                                   2261000100007 
INC-SOURCE (P-T) T(P,N)He-3                                       2261000100008 
METHOD     (TOF)                                                  2261000100009 
INC-SPECT  Neutron Energy Resolution is the Order of 3 KeV        2261000100010 
PART-DET   (N)                                                    2261000100011 
FACILITY   (VDG) 2 MeV Van De Graaff                              2261000100012 
DETECTOR   (SCIN) Stilbene Crystal Scinillator Coupled with       2261000100013 
           Photomultiplier 56 Avp                                 2261000100014 
MONITOR    Absolute Transmission Experiment                       2261000100015 
ERR-ANALYS Absolute Error of Order 3 Percent For Cross Section and2261000100016 
           5 KeV For Neutron Energy                               2261000100017 
CORRECTION Corrected For Background (LESS THAN 2 PERCENT) And     2261000100018 
           Elastic Scattering                                     2261000100019 
HISTORY    (19860725C)                                            2261000100020 
           (19991217T)  Converted by S.M.                         2261000100021 
           (20010203U) Last checking has been done.               2261000100022 
ENDBIB              20          0                                 2261000100023 
NOCOMMON             0          0                                 2261000100024 
ENDSUBENT           23          0                                 2261000199999 
SUBENT        22610002   20010203                             00002261000200001 
BIB                  2          3                                 2261000200002 
REACTION   (6-C-0(N,TOT),,SIG)                                    2261000200003 
HISTORY    (19991217T)  Converted from Subent 68002002            2261000200004 
           (20010203U) Last checking has been done.               2261000200005 
ENDBIB               3          0                                 2261000200006 
COMMON               1          3                                 2261000200007 
EN-RSL                                                            2261000200008 
KEV                                                               2261000200009 
         8.                                                       2261000200010 
ENDCOMMON            3          0                                 2261000200011 
DATA                 2         76                                 2261000200012 
EN         DATA                                                   2261000200013 
KEV        B                                                      2261000200014 
  6.400E+02       3.04                                            2261000200015 
  6.500E+02       2.92                                            2261000200016 
  6.610E+02       2.90                                            2261000200017 
  6.700E+02       2.74                                            2261000200018 
  6.760E+02       2.81                                            2261000200019 
  6.800E+02       2.76                                            2261000200020 
  6.860E+02       2.95                                            2261000200021 
  6.910E+02       2.79                                            2261000200022 
  6.950E+02       2.68                                            2261000200023 
  7.010E+02       2.70                                            2261000200024 
  7.060E+02       2.84                                            2261000200025 
  7.100E+02       2.86                                            2261000200026 
  7.140E+02       2.92                                            2261000200027 
  7.200E+02       2.94                                            2261000200028 
  7.250E+02       2.94                                            2261000200029 
  7.290E+02       3.03                                            2261000200030 
  7.330E+02       2.88                                            2261000200031 
  7.370E+02       2.80                                            2261000200032 
  7.410E+02       2.79                                            2261000200033 
  7.460E+02       2.76                                            2261000200034 
  7.500E+02       2.70                                            2261000200035 
  7.540E+02       2.87                                            2261000200036 
  7.600E+02       2.87                                            2261000200037 
  7.650E+02       2.95                                            2261000200038 
  7.690E+02       2.86                                            2261000200039 
  7.730E+02       2.88                                            2261000200040 
  7.770E+02       2.86                                            2261000200041 
  7.810E+02       2.82                                            2261000200042 
  7.860E+02       2.85                                            2261000200043 
  7.900E+02       2.66                                            2261000200044 
  7.960E+02       2.83                                            2261000200045 
  8.000E+02       2.74                                            2261000200046 
  8.060E+02       2.68                                            2261000200047 
  8.110E+02       2.76                                            2261000200048 
  8.170E+02       2.56                                            2261000200049 
  8.210E+02       2.58                                            2261000200050 
  8.250E+02       2.73                                            2261000200051 
  8.300E+02       2.58                                            2261000200052 
  8.340E+02       2.71                                            2261000200053 
  8.380E+02       2.62                                            2261000200054 
  8.400E+02       2.66                                            2261000200055 
  8.440E+02       2.66                                            2261000200056 
  8.480E+02       2.56                                            2261000200057 
  8.520E+02       2.55                                            2261000200058 
  8.560E+02       2.43                                            2261000200059 
  8.610E+02       2.55                                            2261000200060 
  8.650E+02       2.52                                            2261000200061 
  8.690E+02       2.50                                            2261000200062 
  8.730E+02       2.56                                            2261000200063 
  8.780E+02       2.60                                            2261000200064 
  8.820E+02       2.62                                            2261000200065 
  8.860E+02       2.54                                            2261000200066 
  8.900E+02       2.49                                            2261000200067 
  8.940E+02       2.62                                            2261000200068 
  8.980E+02       2.63                                            2261000200069 
  9.020E+02       2.50                                            2261000200070 
  9.070E+02       2.52                                            2261000200071 
  9.110E+02       2.60                                            2261000200072 
  9.150E+02       2.54                                            2261000200073 
  9.190E+02       2.60                                            2261000200074 
  9.250E+02       2.50                                            2261000200075 
  9.300E+02       2.49                                            2261000200076 
  9.360E+02       2.42                                            2261000200077 
  9.400E+02       2.52                                            2261000200078 
  9.440E+02       2.52                                            2261000200079 
  9.480E+02       2.52                                            2261000200080 
  9.520E+02       2.50                                            2261000200081 
  9.590E+02       2.48                                            2261000200082 
  9.650E+02       2.56                                            2261000200083 
  9.710E+02       2.47                                            2261000200084 
  9.750E+02       2.46                                            2261000200085 
  9.800E+02       2.46                                            2261000200086 
  9.850E+02       2.51                                            2261000200087 
  9.900E+02       2.51                                            2261000200088 
  9.940E+02       2.45                                            2261000200089 
  1.002E+03       2.44                                            2261000200090 
ENDDATA             78          0                                 2261000200091 
ENDSUBENT           90          0                                 2261000299999 
SUBENT        22610003   20010203                             00002261000300001 
BIB                  2          3                                 2261000300002 
REACTION   (14-SI-0(N,TOT),,SIG)                                  2261000300003 
HISTORY    (19991217T)  Converted from Subent 68002003            2261000300004 
           (20010203U) Last checking has been done.               2261000300005 
ENDBIB               3          0                                 2261000300006 
COMMON               1          3                                 2261000300007 
EN-RSL                                                            2261000300008 
KEV                                                               2261000300009 
         4.                                                       2261000300010 
ENDCOMMON            3          0                                 2261000300011 
DATA                 2        169                                 2261000300012 
EN         DATA                                                   2261000300013 
KEV        B                                                      2261000300014 
  5.050E+02       3.18                                            2261000300015 
  5.090E+02       2.95                                            2261000300016 
  5.180E+02       2.86                                            2261000300017 
  5.220E+02       3.06                                            2261000300018 
  5.270E+02       3.21                                            2261000300019 
  5.310E+02       3.39                                            2261000300020 
  5.360E+02       3.52                                            2261000300021 
  5.400E+02       3.25                                            2261000300022 
  5.440E+02       3.22                                            2261000300023 
  5.490E+02       3.18                                            2261000300024 
  5.530E+02       3.61                                            2261000300025 
  5.550E+02       4.07                                            2261000300026 
  5.570E+02       5.33                                            2261000300027 
  5.590E+02       5.62                                            2261000300028 
  5.620E+02       6.28                                            2261000300029 
  5.640E+02       6.71                                            2261000300030 
  5.660E+02       7.26                                            2261000300031 
  5.680E+02       7.50                                            2261000300032 
  5.700E+02       7.85                                            2261000300033 
  5.710E+02       7.70                                            2261000300034 
  5.720E+02       7.41                                            2261000300035 
  5.750E+02       7.09                                            2261000300036 
  5.790E+02       5.78                                            2261000300037 
  5.830E+02       4.92                                            2261000300038 
  5.880E+02       4.31                                            2261000300039 
  5.920E+02       3.92                                            2261000300040 
  5.960E+02       3.78                                            2261000300041 
  6.010E+02       3.61                                            2261000300042 
  6.050E+02       3.39                                            2261000300043 
  6.090E+02       3.24                                            2261000300044 
  6.130E+02       3.28                                            2261000300045 
  6.160E+02       3.12                                            2261000300046 
  6.200E+02       3.10                                            2261000300047 
  6.250E+02       3.01                                            2261000300048 
  6.300E+02       3.09                                            2261000300049 
  6.350E+02       2.86                                            2261000300050 
  6.400E+02       2.91                                            2261000300051 
  6.440E+02       3.25                                            2261000300052 
  6.480E+02       2.90                                            2261000300053 
  6.520E+02       2.90                                            2261000300054 
  6.560E+02       2.92                                            2261000300055 
  6.610E+02       2.67                                            2261000300056 
  6.650E+02       2.76                                            2261000300057 
  6.690E+02       2.90                                            2261000300058 
  6.730E+02       2.84                                            2261000300059 
  6.780E+02       2.67                                            2261000300060 
  6.820E+02       2.78                                            2261000300061 
  6.860E+02       2.59                                            2261000300062 
  6.900E+02       2.59                                            2261000300063 
  6.950E+02       2.70                                            2261000300064 
  6.990E+02       2.56                                            2261000300065 
  7.030E+02       2.62                                            2261000300066 
  7.070E+02       2.69                                            2261000300067 
  7.120E+02       2.54                                            2261000300068 
  7.160E+02       2.44                                            2261000300069 
  7.200E+02       2.55                                            2261000300070 
  7.240E+02       2.54                                            2261000300071 
  7.290E+02       2.61                                            2261000300072 
  7.330E+02       2.57                                            2261000300073 
  7.370E+02       2.67                                            2261000300074 
  7.410E+02       2.66                                            2261000300075 
  7.450E+02       2.61                                            2261000300076 
  7.500E+02       2.58                                            2261000300077 
  7.540E+02       2.57                                            2261000300078 
  7.580E+02       2.54                                            2261000300079 
  7.600E+02       2.55                                            2261000300080 
  7.690E+02       2.73                                            2261000300081 
  7.730E+02       2.80                                            2261000300082 
  7.770E+02       2.97                                            2261000300083 
  7.810E+02       3.15                                            2261000300084 
  7.860E+02       3.77                                            2261000300085 
  7.900E+02       4.30                                            2261000300086 
  7.920E+02       5.11                                            2261000300087 
  7.960E+02       6.22                                            2261000300088 
  8.000E+02       7.33                                            2261000300089 
  8.040E+02       7.42                                            2261000300090 
  8.080E+02       7.32                                            2261000300091 
  8.130E+02       6.88                                            2261000300092 
  8.170E+02       5.99                                            2261000300093 
  8.210E+02       5.01                                            2261000300094 
  8.230E+02       4.51                                            2261000300095 
  8.250E+02       4.89                                            2261000300096 
  8.290E+02       4.62                                            2261000300097 
  8.340E+02       4.16                                            2261000300098 
  8.380E+02       3.91                                            2261000300099 
  8.420E+02       3.72                                            2261000300100 
  8.460E+02       3.55                                            2261000300101 
  8.500E+02       3.52                                            2261000300102 
  8.550E+02       3.35                                            2261000300103 
  8.590E+02       3.39                                            2261000300104 
  8.630E+02       3.13                                            2261000300105 
  8.670E+02       3.04                                            2261000300106 
  8.710E+02       3.03                                            2261000300107 
  8.750E+02       2.84                                            2261000300108 
  8.790E+02       2.90                                            2261000300109 
  8.840E+02       2.90                                            2261000300110 
  8.880E+02       3.71                                            2261000300111 
  8.920E+02       4.25                                            2261000300112 
  8.960E+02       4.46                                            2261000300113 
  9.000E+02       4.36                                            2261000300114 
  9.050E+02       4.27                                            2261000300115 
  9.090E+02       4.05                                            2261000300116 
  9.130E+02       4.00                                            2261000300117 
  9.190E+02       4.15                                            2261000300118 
  9.250E+02       4.34                                            2261000300119 
  9.300E+02       4.33                                            2261000300120 
  9.360E+02       4.58                                            2261000300121 
  9.400E+02       4.85                                            2261000300122 
  9.440E+02       5.20                                            2261000300123 
  9.480E+02       5.20                                            2261000300124 
  9.520E+02       5.24                                            2261000300125 
  9.590E+02       5.16                                            2261000300126 
  9.650E+02       5.22                                            2261000300127 
  9.710E+02       5.36                                            2261000300128 
  9.750E+02       5.41                                            2261000300129 
  9.800E+02       5.17                                            2261000300130 
  9.850E+02       4.99                                            2261000300131 
  9.900E+02       4.79                                            2261000300132 
  9.940E+02       4.60                                            2261000300133 
  9.990E+02       4.44                                            2261000300134 
  1.002E+03       4.26                                            2261000300135 
  1.006E+03       4.20                                            2261000300136 
  1.010E+03       3.88                                            2261000300137 
  1.016E+03       3.79                                            2261000300138 
  1.020E+03       3.74                                            2261000300139 
  1.025E+03       3.68                                            2261000300140 
  1.029E+03       3.90                                            2261000300141 
  1.033E+03       4.00                                            2261000300142 
  1.037E+03       3.50                                            2261000300143 
  1.041E+03       3.43                                            2261000300144 
  1.045E+03       3.39                                            2261000300145 
  1.050E+03       3.53                                            2261000300146 
  1.056E+03       3.39                                            2261000300147 
  1.060E+03       3.25                                            2261000300148 
  1.066E+03       3.22                                            2261000300149 
  1.070E+03       3.10                                            2261000300150 
  1.074E+03       3.08                                            2261000300151 
  1.080E+03       2.89                                            2261000300152 
  1.085E+03       2.94                                            2261000300153 
  1.089E+03       2.75                                            2261000300154 
  1.095E+03       2.81                                            2261000300155 
  1.099E+03       2.81                                            2261000300156 
  1.102E+03       2.77                                            2261000300157 
  1.105E+03       2.80                                            2261000300158 
  1.109E+03       2.66                                            2261000300159 
  1.115E+03       2.57                                            2261000300160 
  1.120E+03       2.23                                            2261000300161 
  1.125E+03       2.50                                            2261000300162 
  1.130E+03       2.50                                            2261000300163 
  1.134E+03       2.33                                            2261000300164 
  1.138E+03       2.14                                            2261000300165 
  1.142E+03       1.72                                            2261000300166 
  1.146E+03       1.87                                            2261000300167 
  1.150E+03       2.57                                            2261000300168 
  1.156E+03       2.46                                            2261000300169 
  1.158E+03       2.43                                            2261000300170 
  1.162E+03       2.42                                            2261000300171 
  1.166E+03       2.23                                            2261000300172 
  1.170E+03       2.15                                            2261000300173 
  1.176E+03       2.03                                            2261000300174 
  1.178E+03       2.22                                            2261000300175 
  1.181E+03       2.49                                            2261000300176 
  1.187E+03       2.80                                            2261000300177 
  1.191E+03       3.83                                            2261000300178 
  1.195E+03       3.90                                            2261000300179 
  1.199E+03       3.66                                            2261000300180 
  1.201E+03       3.60                                            2261000300181 
  1.205E+03       3.56                                            2261000300182 
  1.210E+03       3.22                                            2261000300183 
ENDDATA            171          0                                 2261000300184 
ENDSUBENT          183          0                                 2261000399999 
SUBENT        22610004   20010203                             00002261000400001 
BIB                  2          3                                 2261000400002 
REACTION   (28-NI-0(N,TOT),,SIG)                                  2261000400003 
HISTORY    (19991217T)  Converted from Subent 68002005            2261000400004 
           (20010203U) Last checking has been done.               2261000400005 
ENDBIB               3          0                                 2261000400006 
COMMON               1          3                                 2261000400007 
EN-RSL                                                            2261000400008 
KEV                                                               2261000400009 
         4.                                                       2261000400010 
ENDCOMMON            3          0                                 2261000400011 
DATA                 2        165                                 2261000400012 
EN         DATA                                                   2261000400013 
KEV        B                                                      2261000400014 
   5.00E+02       3.34                                            2261000400015 
   5.05E+02       3.69                                            2261000400016 
   5.09E+02       4.02                                            2261000400017 
   5.14E+02       4.10                                            2261000400018 
   5.18E+02       2.77                                            2261000400019 
   5.22E+02       2.99                                            2261000400020 
   5.27E+02       3.64                                            2261000400021 
   5.31E+02       3.95                                            2261000400022 
   5.36E+02       3.72                                            2261000400023 
   5.40E+02       3.44                                            2261000400024 
   5.44E+02       3.22                                            2261000400025 
   5.49E+02       2.67                                            2261000400026 
   5.53E+02       2.55                                            2261000400027 
   5.55E+02       2.65                                            2261000400028 
   5.57E+02       2.52                                            2261000400029 
   5.62E+02       2.55                                            2261000400030 
   5.64E+02       2.49                                            2261000400031 
   5.66E+02       2.21                                            2261000400032 
   5.68E+02       2.14                                            2261000400033 
   5.70E+02       2.25                                            2261000400034 
   5.72E+02       2.44                                            2261000400035 
   5.73E+02       3.00                                            2261000400036 
   5.79E+02       3.58                                            2261000400037 
   5.83E+02       3.36                                            2261000400038 
   5.88E+02       3.06                                            2261000400039 
   5.92E+02       2.56                                            2261000400040 
   5.96E+02       2.40                                            2261000400041 
   6.01E+02       2.38                                            2261000400042 
   6.05E+02       2.58                                            2261000400043 
   6.09E+02       2.76                                            2261000400044 
   6.13E+02       3.39                                            2261000400045 
   6.16E+02       3.68                                            2261000400046 
   6.20E+02       3.94                                            2261000400047 
   6.25E+02       3.52                                            2261000400048 
   6.30E+02       3.36                                            2261000400049 
   6.35E+02       2.36                                            2261000400050 
   6.40E+02       3.32                                            2261000400051 
   6.44E+02       3.66                                            2261000400052 
   6.48E+02       3.82                                            2261000400053 
   6.52E+02       4.01                                            2261000400054 
   6.56E+02       3.81                                            2261000400055 
   6.61E+02       3.43                                            2261000400056 
   6.65E+02       3.16                                            2261000400057 
   6.69E+02       3.25                                            2261000400058 
   6.73E+02       3.79                                            2261000400059 
   6.78E+02       3.75                                            2261000400060 
   6.82E+02       3.72                                            2261000400061 
   6.86E+02       3.71                                            2261000400062 
   6.90E+02       3.19                                            2261000400063 
   6.95E+02       3.51                                            2261000400064 
   6.99E+02       3.41                                            2261000400065 
   7.03E+02       3.48                                            2261000400066 
   7.07E+02       3.32                                            2261000400067 
   7.12E+02       3.74                                            2261000400068 
   7.16E+02       3.06                                            2261000400069 
   7.20E+02       2.46                                            2261000400070 
   7.24E+02       2.49                                            2261000400071 
   7.29E+02       2.96                                            2261000400072 
   7.33E+02       2.74                                            2261000400073 
   7.37E+02       2.43                                            2261000400074 
   7.45E+02       2.00                                            2261000400075 
   7.50E+02       2.03                                            2261000400076 
   7.54E+02       2.95                                            2261000400077 
   7.58E+02       3.32                                            2261000400078 
   7.60E+02       3.52                                            2261000400079 
   7.65E+02       3.10                                            2261000400080 
   7.69E+02       3.48                                            2261000400081 
   7.73E+02       2.76                                            2261000400082 
   7.78E+02       2.93                                            2261000400083 
   7.81E+02       3.59                                            2261000400084 
   7.83E+02       3.46                                            2261000400085 
   7.86E+02       3.23                                            2261000400086 
   7.90E+02       2.84                                            2261000400087 
   7.92E+02       3.36                                            2261000400088 
   7.96E+02       3.20                                            2261000400089 
   8.00E+02       3.09                                            2261000400090 
   8.04E+02       2.80                                            2261000400091 
   8.08E+02       2.17                                            2261000400092 
   8.13E+02       3.05                                            2261000400093 
   8.17E+02       3.57                                            2261000400094 
   8.21E+02       3.40                                            2261000400095 
   8.25E+02       3.17                                            2261000400096 
   8.29E+02       3.30                                            2261000400097 
   8.34E+02       3.38                                            2261000400098 
   8.38E+02       2.89                                            2261000400099 
   8.42E+02       2.36                                            2261000400100 
   8.46E+02       1.97                                            2261000400101 
   8.50E+02       2.36                                            2261000400102 
   8.55E+02       2.68                                            2261000400103 
   8.59E+02       2.93                                            2261000400104 
   8.63E+02       2.87                                            2261000400105 
   8.67E+02       2.58                                            2261000400106 
   8.71E+02       2.63                                            2261000400107 
   8.75E+02       2.84                                            2261000400108 
   8.79E+02       3.84                                            2261000400109 
   8.84E+02       3.71                                            2261000400110 
   8.88E+02       3.95                                            2261000400111 
   8.92E+02       3.95                                            2261000400112 
   9.00E+02       3.70                                            2261000400113 
   9.05E+02       3.32                                            2261000400114 
   9.13E+02       3.81                                            2261000400115 
   9.19E+02       3.77                                            2261000400116 
   9.25E+02       3.83                                            2261000400117 
   9.30E+02       3.14                                            2261000400118 
   9.36E+02       3.12                                            2261000400119 
   9.40E+02       2.94                                            2261000400120 
   9.44E+02       3.00                                            2261000400121 
   9.48E+02       2.92                                            2261000400122 
   9.52E+02       2.95                                            2261000400123 
   9.59E+02       3.03                                            2261000400124 
   9.65E+02       2.78                                            2261000400125 
   9.71E+02       2.88                                            2261000400126 
   9.75E+02       3.02                                            2261000400127 
   9.80E+02       3.02                                            2261000400128 
   9.85E+02       3.18                                            2261000400129 
   9.94E+02       3.07                                            2261000400130 
   9.99E+02       2.63                                            2261000400131 
  1.002E+03       2.86                                            2261000400132 
  1.006E+03       2.75                                            2261000400133 
  1.010E+03       2.54                                            2261000400134 
  1.016E+03       2.63                                            2261000400135 
  1.020E+03       2.72                                            2261000400136 
  1.025E+03       2.72                                            2261000400137 
  1.029E+03       2.76                                            2261000400138 
  1.033E+03       3.11                                            2261000400139 
  1.037E+03       3.08                                            2261000400140 
  1.041E+03       2.73                                            2261000400141 
  1.045E+03       2.55                                            2261000400142 
  1.050E+03       2.84                                            2261000400143 
  1.056E+03       2.72                                            2261000400144 
  1.060E+03       2.69                                            2261000400145 
  1.066E+03       2.67                                            2261000400146 
  1.070E+03       2.55                                            2261000400147 
  1.074E+03       2.86                                            2261000400148 
  1.080E+03       3.11                                            2261000400149 
  1.085E+03       3.17                                            2261000400150 
  1.089E+03       2.93                                            2261000400151 
  1.095E+03       2.22                                            2261000400152 
  1.099E+03       2.40                                            2261000400153 
  1.102E+03       2.86                                            2261000400154 
  1.105E+03       3.36                                            2261000400155 
  1.109E+03       3.70                                            2261000400156 
  1.115E+03       3.49                                            2261000400157 
  1.120E+03       2.68                                            2261000400158 
  1.125E+03       2.47                                            2261000400159 
  1.130E+03       2.18                                            2261000400160 
  1.134E+03       2.67                                            2261000400161 
  1.138E+03       2.30                                            2261000400162 
  1.142E+03       3.38                                            2261000400163 
  1.146E+03       3.76                                            2261000400164 
  1.150E+03       3.88                                            2261000400165 
  1.156E+03       3.36                                            2261000400166 
  1.158E+03       3.45                                            2261000400167 
  1.162E+03       3.71                                            2261000400168 
  1.166E+03       3.61                                            2261000400169 
  1.170E+03       2.89                                            2261000400170 
  1.176E+03       2.33                                            2261000400171 
  1.178E+03       2.47                                            2261000400172 
  1.181E+03       2.71                                            2261000400173 
  1.187E+03       3.01                                            2261000400174 
  1.191E+03       3.15                                            2261000400175 
  1.195E+03       2.81                                            2261000400176 
  1.199E+03       2.90                                            2261000400177 
  1.201E+03       3.02                                            2261000400178 
  1.205E+03       3.20                                            2261000400179 
ENDDATA            167          0                                 2261000400180 
ENDSUBENT          179          0                                 2261000499999 
ENDENTRY             4          0                                 2261099999999 
