ENTRY            22647   20140310                             22382264700000001 
SUBENT        22647001   20140310                             22382264700100001 
BIB                 11         29                                 2264700100002 
TITLE      Measurement of neutron-induced fission cross sections  2264700100003 
            of 229Th and 231Pa using linac-driven lead slowing-   2264700100004 
            down spectrometer                                     2264700100005 
AUTHOR     (K.Kobayashi, S.Yamamoto, S.Lee, H.-J.Cho, Y.Yamana,   2264700100006 
            H.Moriyama, Y.Fujita, T.Mitsugashira)                 2264700100007 
INSTITUTE  (2JPNKTO,2JPNTOH)                                      2264700100008 
REFERENCE  (J,NSE,139,273,2001) LSDS data on 229Th and 231Pa      2264700100009 
           (J,NST,36,549,1999) Final report on 231Pa(nth,f)       2264700100010 
           (S,JAERI-C-99-002,113,1999) Prelim. data on 231Pa(LSDS)2264700100011 
REL-REF    (I,,K.Kobayashi+,J,NIM/A,385,145,1997)                 2264700100012 
            Description of the KULS Facility                      2264700100013 
DETECTOR   (FISCH)  Back-to-back fission chamber                  2264700100014 
           (BF3) Only for neutron energies below 1 KeV            2264700100015 
MONITOR    (92-U-235(N,F),,SIG)                                   2264700100016 
           (5-B-10(N,A)3-LI-7,,SIG)  for En < 1 keV               2264700100017 
MONIT-REF  (,R.F.Rose,R,BNL-NCS-17541,1991) 4th ed. ENDF/B-VI     2264700100018 
SAMPLE     Chemically purified 229Th and 231Pa electrodeposited   2264700100019 
            onto Al plate.                                        2264700100020 
           The numbers of 229Th and 231Pa atoms were determined as2264700100021 
             (2.32+/-0.05)E+16 for 229Th                          2264700100022 
             (3.32+/-0.07)E+16 for 231Pa                          2264700100023 
           by alpha spectrometry.                                 2264700100024 
STATUS     (APRVD) Approved by Katsuhei Kobayashi (2014-03-13)    2264700100025 
HISTORY    (20011220C) + +  Compiled by S.M.                      2264700100026 
           (20051026A) Corrected after N.Otsuka comments.         2264700100027 
                       SUBENT 22647.005 moved to SAN 22422.005    2264700100028 
           (20060204U) Corrected SM                               2264700100029 
           (20140310U) On. REFERENCE: JAERI-C-99-002 added.       2264700100030 
                           MONIT-REF and SAMPLE added.            2264700100031 
ENDBIB              29          0                                 2264700100032 
NOCOMMON             0          0                                 2264700100033 
ENDSUBENT           32          0                                 2264700199999 
SUBENT        22647002   20140310                             22382264700200001 
BIB                  8         12                                 2264700200002 
REACTION   (91-PA-231(N,F),,SIG) 2200 m/sec cross section         2264700200003 
FACILITY   (REAC,2JPNKTO) Kyoto University Research Reactor (KUR) 2264700200004 
INC-SOURCE (THCOL) KUR heavy water thermal neutron facility       2264700200005 
INC-SPECT  Maxwellian distribution with T=40 deg-C                2264700200006 
ASSUMED    (ASSUM1,(91-PA-231(N,F),,SIG,,MXW)/                    2264700200007 
           (91-PA-231(N,F),,SIG)) g-factor                        2264700200008 
           (ASSUM2,(92-U-235(N,F),,SIG,,MXW)/                     2264700200009 
           (92-U-235(N,F),,SIG)) g-factor                         2264700200010 
ERR-ANALYS (DATA-ERR) Total uncertainty                           2264700200011 
STATUS     (TABLE) Table 1 of J.Nucl.Sci.Technol.36(1999)549      2264700200012 
HISTORY    (20060204U) SF8 deleted, 'EN' heading restored         2264700200013 
           (20140310A) On. ERR-T -> DATA-ERR                      2264700200014 
ENDBIB              12          0                                 2264700200015 
NOCOMMON             0          0                                 2264700200016 
DATA                 6          1                                 2264700200017 
EN         DATA       DATA-ERR   MONIT      ASSUM1     ASSUM2     2264700200018 
EV         MB         MB         MB         NO-DIM     NO-DIM     2264700200019 
 0.0253     25.0       0.82       584.25     1.018      0.9742    2264700200020 
ENDDATA              3          0                                 2264700200021 
ENDSUBENT           20          0                                 2264700299999 
SUBENT        22647003   20140310                             22382264700300001 
BIB                 10         22                                 2264700300002 
REACTION   (91-PA-231(N,F),,SIG,,SDT)                             2264700300003 
FACILITY   (LINAC,2JPNKTO) KURRI 46 MeV electron linac            2264700300004 
METHOD     (SLODT) Slowing-down time                              2264700300005 
INC-SOURCE (PHOTO)                                                2264700300006 
INC-SPECT  dE(FWHM)/E=0.162899*E**(-1/2)+0.352787+(7.599E-5)*E    2264700300007 
REL-REF    (N,,T.Nakagawa+,R,JAERI-D-2002-02,2002)                2264700300008 
           Resolution function given                              2264700300009 
MISC-COL   (MISC) Total uncertainty in percent                    2264700300010 
ERR-ANALYS (ERR-T) Total Uncertainty                     (4.6-40%)2264700300011 
           (ERR-1,2.1,40.,U) Statistics for 231Pa(n,f)   (2.1-40%)2264700300012 
           (ERR-2,0.8,1.5,U) Statistics for 235U(n,f)   (0.8-1.5%)2264700300013 
           (ERR-3,,1.5) Assignment of counts for 231Pa(n,f)(<1.5%)2264700300014 
           (ERR-4,,0.65)Assignment of counts for 235U(n,f)(<0.65%)2264700300015 
           (ERR-5) Number of atoms of 231Pa                 (2.2%)2264700300016 
           (ERR-6) Number of atoms of 235U                  (1.1%)2264700300017 
           (ERR-7,2.,4.) 235U(n,f) and 10B(n,a) standard    (2-4%)2264700300018 
           (ERR-8) Setting 231Pa and 235U deposits          (0.3%)2264700300019 
           (ERR-9,,0.2) Correction for inscattered neutrons(<0.2%)2264700300020 
           (ERR-10,,0.2) Background subtraction            (<0.2%)2264700300021 
STATUS     (TABLE) Katsuhei Kobayashi, 2001-08, via Internet      2264700300022 
HISTORY    (20051026U) Data units corrected. Numbers adjusted     2264700300023 
           (20140310A) On. SF8=SDT added. ERR-ANALYS updated.     2264700300024 
ENDBIB              22          0                                 2264700300025 
COMMON               3          3                                 2264700300026 
ERR-5      ERR-6      ERR-8                                       2264700300027 
PER-CENT   PER-CENT   PER-CENT                                    2264700300028 
 2.2        1.1        0.3                                        2264700300029 
ENDCOMMON            3          0                                 2264700300030 
DATA                 4        104                                 2264700300031 
EN         DATA       ERR-T      MISC                             2264700300032 
EV         B          B          PER-CENT                         2264700300033 
 8.9120E-02  1.495E-02 6.5553E-03     43.849                      2264700300034 
 1.0000E-01  1.340E-02 5.0759E-03     37.880                      2264700300035 
 1.1220E-01  1.311E-02 3.9894E-03     30.430                      2264700300036 
 1.2589E-01  1.256E-02 3.5898E-03     28.581                      2264700300037 
 1.4125E-01  1.346E-02 3.5530E-03     26.397                      2264700300038 
 1.5849E-01  1.586E-02 4.1175E-03     25.962                      2264700300039 
 1.7783E-01  1.951E-02 4.5081E-03     23.107                      2264700300040 
 1.9953E-01  2.213E-02 3.7689E-03     17.031                      2264700300041 
 2.2387E-01  2.592E-02 3.7808E-03     14.587                      2264700300042 
 2.5119E-01  3.625E-02 3.7319E-03     10.295                      2264700300043 
 2.8184E-01  4.809E-02 3.5466E-03      7.375                      2264700300044 
 3.1623E-01  5.225E-02 3.5543E-03      6.803                      2264700300045 
 3.5481E-01  5.946E-02 3.6985E-03      6.220                      2264700300046 
 3.9811E-01  6.373E-02 3.7190E-03      5.836                      2264700300047 
 4.4668E-01  5.983E-02 3.3850E-03      5.658                      2264700300048 
 5.0119E-01  5.249E-02 2.9208E-03      5.565                      2264700300049 
 5.6234E-01  4.461E-02 2.4147E-03      5.413                      2264700300050 
 6.3096E-01  3.243E-02 1.9068E-03      5.880                      2264700300051 
 7.0795E-01  2.773E-02 1.6285E-03      5.873                      2264700300052 
 7.9433E-01  1.976E-02 1.2938E-03      6.548                      2264700300053 
 8.9125E-01  1.439E-02 1.0246E-03      7.121                      2264700300054 
     1.0000  1.250E-02 8.6062E-04      6.885                      2264700300055 
     1.1220  1.221E-02 8.3179E-04      6.812                      2264700300056 
     1.2589  9.660E-03 6.5729E-04      6.804                      2264700300057 
     1.4125  6.960E-03 4.9192E-04      7.068                      2264700300058 
     1.5849  5.810E-03 4.0255E-04      6.929                      2264700300059 
     1.7783  3.560E-03 2.7901E-04      7.838                      2264700300060 
     1.9953  2.820E-03 2.3209E-04      8.230                      2264700300061 
     2.2387  2.780E-03 2.2198E-04      7.985                      2264700300062 
     2.5119  3.480E-03 2.5449E-04      7.313                      2264700300063 
     2.8184  4.700E-03 3.4102E-04      7.256                      2264700300064 
     3.1623  6.100E-03 4.3462E-04      7.125                      2264700300065 
     3.5481  8.370E-03 4.9326E-04      5.893                      2264700300066 
     3.9811  7.130E-03 4.1950E-04      5.884                      2264700300067 
     4.4668  8.020E-03 4.3198E-04      5.386                      2264700300068 
     5.0119  8.350E-03 4.4982E-04      5.387                      2264700300069 
     5.6234  9.390E-03 5.1708E-04      5.507                      2264700300070 
     6.3096  1.199E-02 6.1677E-04      5.144                      2264700300071 
     7.0795  1.305E-02 6.6682E-04      5.11                       2264700300072 
     7.9433  1.672E-02 8.5493E-04      5.113                      2264700300073 
     8.9125  1.799E-02 8.9246E-04      4.961                      2264700300074 
     1.E+01  2.081E-02 9.9644E-04      4.788                      2264700300075 
 1.1220E+01  2.210E-02 1.0478E-03      4.742                      2264700300076 
 1.2589E+01  2.089E-02 9.7439E-04      4.664                      2264700300077 
 1.4125E+01  1.864E-02 8.6521E-04      4.642                      2264700300078 
 1.5849E+01  1.643E-02 7.6823E-04      4.676                      2264700300079 
 1.7783E+01  1.423E-02 6.7981E-04      4.777                      2264700300080 
 1.9953E+01  1.314E-02 6.2552E-04      4.76                       2264700300081 
 2.2387E+01  1.162E-02 5.5960E-04      4.816                      2264700300082 
 2.5119E+01   1.03E-02 4.9872E-04      4.842                      2264700300083 
 2.8184E+01   9.86E-03 4.7285E-04      4.796                      2264700300084 
 3.1623E+01   8.98E-03 4.3152E-04      4.805                      2264700300085 
 3.5481E+01   7.30E-03 3.5634E-04      4.881                      2264700300086 
 3.9811E+01   6.13E-03 3.1060E-04      5.067                      2264700300087 
 4.4668E+01   6.14E-03 3.0570E-04      4.979                      2264700300088 
 5.0119E+01   6.41E-03 3.1976E-04      4.988                      2264700300089 
 5.6234E+01   5.97E-03 2.9338E-04      4.914                      2264700300090 
 6.3096E+01   5.08E-03 2.5648E-04      5.049                      2264700300091 
 7.0795E+01   4.16E-03 2.0762E-04      4.991                      2264700300092 
 7.9433E+01   4.18E-03 2.1372E-04      5.113                      2264700300093 
 8.9125E+01   3.85E-03 1.8758E-04      4.872                      2264700300094 
 1.0000E+02   3.73E-03 1.8562E-04      4.977                      2264700300095 
 1.1220E+02   3.67E-03 1.8713E-04      5.099                      2264700300096 
 1.2589E+02   3.60E-03 1.7595E-04      4.888                      2264700300097 
 1.4125E+02   3.40E-03 1.6508E-04      4.855                      2264700300098 
 1.5849E+02   3.36E-03 1.6197E-04      4.821                      2264700300099 
 1.7783E+02   2.97E-03 1.4105E-04      4.749                      2264700300100 
 1.9953E+02   2.97E-03 1.4226E-04      4.79                       2264700300101 
 2.2387E+02   2.65E-03 1.4531E-04      5.484                      2264700300102 
 2.5119E+02   2.50E-03 1.4389E-04      5.756                      2264700300103 
 2.8184E+02   2.17E-03 1.2008E-04      5.534                      2264700300104 
 3.1623E+02   2.03E-03 1.1777E-04      5.802                      2264700300105 
 3.5481E+02   2.06E-03 1.1475E-04      5.571                      2264700300106 
 3.9811E+02   2.01E-03 1.1635E-04      5.789                      2264700300107 
 4.4668E+02   2.03E-03 1.1845E-04      5.835                      2264700300108 
 5.0119E+02   1.91E-03 1.1020E-04      5.77                       2264700300109 
 5.6234E+02   1.69E-03 1.1074E-04      6.553                      2264700300110 
 6.3096E+02   1.47E-03 9.2676E-05      6.305                      2264700300111 
 7.0795E+02   1.36E-03 9.3457E-05      6.872                      2264700300112 
 7.9433E+02   1.32E-03 8.1169E-05      6.149                      2264700300113 
 8.9125E+02   1.25E-03 8.7513E-05      7.001                      2264700300114 
 1.0000E+03   1.28E-03 1.0559E-04      8.25                       2264700300115 
 1.1220E+03   1.12E-03 9.5471E-05      8.524                      2264700300116 
 1.2589E+03   1.24E-03 1.0895E-04      8.786                      2264700300117 
 1.4125E+03   1.15E-03 9.4892E-05      8.252                      2264700300118 
 1.5849E+03   1.14E-03 9.9242E-05      8.705                      2264700300119 
 1.7783E+03   1.01E-03 8.8576E-05      8.77                       2264700300120 
 1.9953E+03   1.08E-03 9.4062E-05      8.71                       2264700300121 
 2.2387E+03 9.7318E-04 1.1444E-04     11.76                       2264700300122 
 2.5119E+03 1.0400E-03 1.0823E-04     10.408                      2264700300123 
 2.8184E+03 1.0900E-03 1.0371E-04     9.515                       2264700300124 
 3.1623E+03 8.9517E-04 9.1274E-05     10.196                      2264700300125 
 3.5481E+03 8.9534E-04 9.3124E-05     10.401                      2264700300126 
 3.9811E+03 8.1488E-04 9.1908E-05     11.279                      2264700300127 
 4.4668E+03 8.4354E-04 9.9964E-05     11.851                      2264700300128 
 5.0119E+03 8.5781E-04  9.705E-05     11.314                      2264700300129 
 5.6234E+03 9.3473E-04 1.0248E-04     10.964                      2264700300130 
 6.3096E+03 9.6761E-04 1.2038E-04     12.442                      2264700300131 
 7.0795E+03 8.8762E-04 9.8633E-05     11.112                      2264700300132 
 7.9433E+03 8.7949E-04 1.0782E-04     12.26                       2264700300133 
 8.9125E+03 8.7467E-04 1.1821E-04     13.515                      2264700300134 
 1.0000E+04 8.3963E-04 1.0565E-04     12.583                      2264700300135 
 1.1220E+04 9.8561E-04 2.0767E-04     21.07                       2264700300136 
 1.2589E+04 9.6346E-04 2.3576E-04     24.471                      2264700300137 
ENDDATA            106          0                                 2264700300138 
ENDSUBENT          137          0                                 2264700399999 
SUBENT        22647004   20140310                             22382264700400001 
BIB                 10         22                                 2264700400002 
REACTION   (90-TH-229(N,F),,SIG,,SDT)                             2264700400003 
FACILITY   (LINAC,2JPNKTO) KURRI 46 MeV electron linac            2264700400004 
METHOD     (SLODT) Slowing-down time                              2264700400005 
INC-SOURCE (PHOTO)                                                2264700400006 
INC-SPECT  dE(FWHM)/E=0.162899*E**(-1/2)+0.352787+(7.599E-5)*E    2264700400007 
REL-REF    (N,,T.Nakagawa+,R,JAERI-D-2002-02,2002)                2264700400008 
           Resolution function given                              2264700400009 
MISC-COL   (MISC) Total uncertainty in percent                    2264700400010 
ERR-ANALYS (ERR-T) Total Uncertainty                     (4.4-36%)2264700400011 
           (ERR-1,1.8,36.,U) Statistics for 229Th(n,f)   (1.8-36%)2264700400012 
           (ERR-2,0.9,1.9,U) Statistics for 235U(n,f)   (0.9-1.9%)2264700400013 
           (ERR-3,,1.2) Assignment of counts for 229Th(n,f)(<1.2%)2264700400014 
           (ERR-4,,0.65)Assignment of counts for 235U(n,f)(<0.65%)2264700400015 
           (ERR-5) Number of atoms of 229Th                 (2.1%)2264700400016 
           (ERR-6) Number of atoms of 235U                  (1.1%)2264700400017 
           (ERR-7,2.,4.) 235U(n,f) and 10B(n,a) standard    (2-4%)2264700400018 
           (ERR-8) Setting 231Pa and 235U deposits          (0.3%)2264700400019 
           (ERR-9,,0.2) Correction for inscattered neutrons(<0.2%)2264700400020 
           (ERR-10,,0.2) Background subtraction            (<0.2%)2264700400021 
STATUS     (TABLE) Katsuhei Kobayashi, 2001-08, via Internet      2264700400022 
HISTORY    (20051026A) Units corrected                            2264700400023 
           (20140310A) On. SF8=SDT added. ERR-ANALYS updated.     2264700400024 
ENDBIB              22          0                                 2264700400025 
COMMON               3          3                                 2264700400026 
ERR-5      ERR-6      ERR-8                                       2264700400027 
PER-CENT   PER-CENT   PER-CENT                                    2264700400028 
 2.2        1.1        0.3                                        2264700400029 
ENDCOMMON            3          0                                 2264700400030 
DATA                 4        100                                 2264700400031 
EN         DATA       ERR-T      MISC                             2264700400032 
EV         B          B          PER-CENT                         2264700400033 
  1.259E-02 4.9575E+01 2.4553E+01     49.527                      2264700400034 
  1.585E-02 4.2205E+01 1.5191E+01     35.995                      2264700400035 
  2.512E-02 3.2532E+01 1.0805E+01     33.215                      2264700400036 
  3.981E-02 2.4908E+01     6.6606     26.741                      2264700400037 
   6.31E-02  1.934E+01     4.6024     23.797                      2264700400038 
     1.E-01 1.4037E+01      3.277     23.345                      2264700400039 
 1.5849E-01  1.132E+01     2.4426     21.576                      2264700400040 
 2.5119E-01     9.1662     1.7905     19.534                      2264700400041 
 2.8184E-01 1.1338E+01     2.1581     19.034                      2264700400042 
 3.1623E-01 1.0166E+01     1.8814     18.506                      2264700400043 
 3.5481E-01 1.0322E+01     1.8139     17.573                      2264700400044 
 3.9811E-01 1.3984E+01     2.0067      14.35                      2264700400045 
 4.4668E-01 1.8524E+01     2.3501     12.687                      2264700400046 
 5.0119E-01 2.5082E+01     2.6875     10.715                      2264700400047 
 5.6234E-01  2.671E+01     2.7184     10.177                      2264700400048 
 6.3096E-01  2.689E+01     2.6774      9.957                      2264700400049 
 7.0795E-01  2.925E+01     2.7808      9.507                      2264700400050 
 7.9433E-01 3.4014E+01     3.1003      9.115                      2264700400051 
 8.9125E-01 5.1639E+01     4.3013       8.33                      2264700400052 
         1. 6.5285E+01      5.024      7.696                      2264700400053 
      1.122 9.2451E+01     6.6956      7.242                      2264700400054 
     1.2589 8.8571E+01     6.2819      7.093                      2264700400055 
     1.4125  8.192E+01     5.8391      7.128                      2264700400056 
     1.5849 7.0299E+01     5.3284       7.58                      2264700400057 
     1.7783 5.4635E+01     4.4621      8.167                      2264700400058 
     1.9953 4.1299E+01     3.4217      8.285                      2264700400059 
     2.2387 3.6355E+01     3.1557       8.68                      2264700400060 
     2.5119 3.2449E+01     2.8524       8.79                      2264700400061 
     2.8184 5.2345E+01     4.5689      8.728                      2264700400062 
     3.1623 6.0467E+01     4.6732      7.729                      2264700400063 
     3.5481 9.5738E+01     7.2048      7.526                      2264700400064 
     3.9811  1.162E+02     8.5968      7.398                      2264700400065 
     4.4668 1.4622E+02 1.1639E+01       7.96                      2264700400066 
     5.0119  1.459E+02 1.1391E+01      7.807                      2264700400067 
     5.6234 1.1128E+02      8.143      7.318                      2264700400068 
     6.3096 7.9354E+01     5.4892      6.917                      2264700400069 
     7.0795 6.8328E+01     4.5621      6.677                      2264700400070 
     7.9433  6.444E+01     4.1285      6.407                      2264700400071 
     8.9125 4.8295E+01     2.9717      6.153                      2264700400072 
     1.E+01 4.2987E+01     2.5796      6.001                      2264700400073 
 1.1220E+01 3.8735E+01     2.3683      6.114                      2264700400074 
 1.2589E+01 3.3668E+01     2.0983      6.232                      2264700400075 
 1.4125E+01  3.161E+01     1.9551      6.185                      2264700400076 
 1.5849E+01 3.8552E+01     2.3298      6.043                      2264700400077 
 1.7783E+01 3.6439E+01     2.1621      5.934                      2264700400078 
 1.9953E+01  3.195E+01      1.878      5.878                      2264700400079 
 2.2387E+01 3.1221E+01     1.7982       5.76                      2264700400080 
 2.5119E+01 2.9757E+01     1.7072      5.737                      2264700400081 
 2.8184E+01 3.2278E+01     1.8213      5.643                      2264700400082 
 3.1623E+01 3.4307E+01     1.9084      5.563                      2264700400083 
 3.5481E+01 3.2912E+01     1.8089      5.496                      2264700400084 
 3.9811E+01 3.1196E+01     1.7117      5.487                      2264700400085 
 4.4668E+01 3.0772E+01      1.688      5.486                      2264700400086 
 5.0119E+01 2.4878E+01     1.4021      5.636                      2264700400087 
 5.6234E+01 2.0885E+01     1.1902      5.699                      2264700400088 
 6.3096E+01 1.8503E+01     1.0763      5.817                      2264700400089 
 7.0795E+01 1.4426E+01 8.5508E-01      5.927                      2264700400090 
 7.9433E+01 1.4384E+01 8.5963E-01      5.976                      2264700400091 
 8.9125E+01 1.4784E+01 8.8456E-01      5.983                      2264700400092 
     1.E+02 1.3362E+01 8.0827E-01      6.049                      2264700400093 
  1.122E+02 1.4997E+01 9.0752E-01      6.051                      2264700400094 
 1.2589E+02 1.0785E+01 6.6175E-01      6.136                      2264700400095 
 1.4125E+02      9.663 5.9912E-01        6.2                      2264700400096 
 1.5849E+02 1.0657E+01 6.6098E-01      6.202                      2264700400097 
 1.7783E+02 1.0634E+01 6.4648E-01      6.079                      2264700400098 
 1.9953E+02     9.9867 6.0323E-01       6.04                      2264700400099 
 2.2387E+02 1.1622E+01 7.7469E-01      6.666                      2264700400100 
 2.5119E+02  1.161E+01 7.1489E-01      6.157                      2264700400101 
 2.8184E+02     8.9206 4.7847E-01      5.364                      2264700400102 
 3.1623E+02     7.7326 4.0207E-01        5.2                      2264700400103 
 3.5481E+02     6.7184 4.2777E-01      6.367                      2264700400104 
 3.9811E+02     6.1724 3.7783E-01      6.121                      2264700400105 
 4.4668E+02     6.6029 3.8651E-01      5.854                      2264700400106 
 5.0119E+02     5.5807 3.6063E-01      6.462                      2264700400107 
 5.6234E+02     5.2219 3.0669E-01      5.873                      2264700400108 
 6.3096E+02     5.3779 2.9637E-01      5.511                      2264700400109 
 7.0795E+02     4.6084 2.6904E-01      5.838                      2264700400110 
 7.9433E+02     5.1301 2.7933E-01      5.445                      2264700400111 
 8.9125E+02     5.3053 2.7251E-01      5.137                      2264700400112 
     1.E+03     4.9069 2.5144E-01      5.124                      2264700400113 
  1.122E+03     4.9391 2.4446E-01      4.949                      2264700400114 
 1.2589E+03     4.3798 2.2398E-01      5.114                      2264700400115 
 1.4125E+03     4.0304 2.1301E-01      5.285                      2264700400116 
 1.5849E+03     3.8571 2.0315E-01      5.267                      2264700400117 
 1.7783E+03     3.8321  1.971E-01      5.143                      2264700400118 
 1.9953E+03     3.7593  1.945E-01      5.174                      2264700400119 
 2.2387E+03     3.1843 1.8393E-01      5.776                      2264700400120 
 2.5119E+03     3.3225 1.7851E-01      5.373                      2264700400121 
 2.8184E+03     2.8117 1.5809E-01      5.623                      2264700400122 
 3.1623E+03     2.8572 1.4874E-01      5.206                      2264700400123 
 3.5481E+03     2.1253 1.1602E-01      5.459                      2264700400124 
 3.9811E+03      2.169 1.0903E-01      5.027                      2264700400125 
 4.4668E+03     1.9985 9.8583E-02      4.933                      2264700400126 
 5.0119E+03      1.672 8.4159E-02      5.033                      2264700400127 
 5.6234E+03     1.8534 8.7122E-02      4.701                      2264700400128 
 6.3096E+03       1.74 7.7731E-02      4.467                      2264700400129 
 7.0795E+03     1.5249 6.7127E-02      4.402                      2264700400130 
 7.9433E+03     1.4952 6.6853E-02      4.471                      2264700400131 
 8.9125E+03     1.4172 6.2303E-02      4.396                      2264700400132 
     1.E+04     1.5846  6.958E-02      4.391                      2264700400133 
ENDDATA            102          0                                 2264700400134 
ENDSUBENT          133          0                                 2264700499999 
NOSUBENT      22647005   20051026                             21742264700500001 
SUBENT        22647006   20140310                             22382264700600001 
BIB                  5          6                                 2264700600002 
REACTION   (90-TH-229(N,F),,SIG,,,DERIV)                          2264700600003 
ANALYSIS   Interpolation of slowing-down time broadened data      2264700600004 
ERR-ANALYS (DATA-ERR) No information on source of uncertainties   2264700600005 
STATUS     (TABLE) Abstract of Nucl.Sci.Eng.139(2001)273          2264700600006 
           (DEP,22647004) Slowing-down time broadened data given  2264700600007 
HISTORY    (20140310C) On                                         2264700600008 
ENDBIB               6          0                                 2264700600009 
NOCOMMON             0          0                                 2264700600010 
DATA                 3          1                                 2264700600011 
EN         DATA       DATA-ERR                                    2264700600012 
EV         B          B                                           2264700600013 
 0.0253     32.4       10.7                                       2264700600014 
ENDDATA              3          0                                 2264700600015 
ENDSUBENT           14          0                                 2264700699999 
ENDENTRY             6          0                                 2264799999999 
