ENTRY            22730   20121229                             22342273000000001 
SUBENT        22730001   20121229                             22342273000100001 
BIB                  7         28                                 2273000100002 
TITLE      .Study of 194-Ir via thermal neutron capture           2273000100003 
            and (d,p) reactions                                   2273000100004 
AUTHOR     (M.Balodis,P.Prokofjevs,N.Kramere,L.Simonova,          2273000100005 
            J.Berzins,T.Krasta,R.Georgii,T.Von Egidy,J.Klora,     2273000100006 
            H.Lindner,U.Mayerhofer,A.Walter,J.A.Cizewski,         2273000100007 
            G.G.Colvin,H.G.Borner,P.Geltenbort,F.Hoyler,          2273000100008 
            S.A.Kerr,K.Schreckenbach,A.Raemy,J.C.Dousse,J.Kern,   2273000100009 
            W.Schwitz,I.A.Kondurov,Yu.E.Loginov,P.A.Sushkov,      2273000100010 
            S.Brant,V.Paar,V.Lopac)                               2273000100011 
INSTITUTE  (4LATLAT) Balodis, Prokofjevs, Kramere, Simonova,      2273000100012 
             Berzins, Krasta, Salaspils                           2273000100013 
           (2GERMUN) Georgii, T.von Egidy, Klora, Lindner,        2273000100014 
                     Mayerhofer, Walter                           2273000100015 
           (1USARUT) J.A.Cizewski                                 2273000100016 
           (2FR ILL) Colvin, Borner, Geltenbort, Boyler, Kerr,    2273000100017 
                     Schreckenbach                                2273000100018 
           (2SWTFRS) Raemy, Dousse, Kern, Schwitz                 2273000100019 
           (4RUSLIN) Kondurov, Loginov, Sushkov                   2273000100020 
           (3CROZAG) Brant, Paar, Lopac                           2273000100021 
REFERENCE  (J,FIZ/B,7,15,1998)    Main reference                  2273000100022 
REL-REF    (I,,H.Lidner+,J,NIM/A,273,444,1988) - multiwire        2273000100023 
            proportional chamber described                        2273000100024 
           (I,,M.Loeffler+,J,NIM,111,1,1973) - The ion optical    2273000100025 
            properties of the Munich Q3D-spectrograph             2273000100026 
STATUS     (COREL,D0335001) (d,p) data of Table 5                 2273000100027 
HISTORY    (20050722C) SD/SM                                      2273000100028 
           (20071205U) SD/SM. Reference 2 corrected               2273000100029 
           (20121229U) SD: Ref. 2 moved to REL-REF and corrected  2273000100030 
ENDBIB              28          0                                 2273000100031 
NOCOMMON             0          0                                 2273000100032 
ENDSUBENT           31          0                                 2273000199999 
SUBENT        22730002   20050722                             21732273000200001 
BIB                 10         19                                 2273000200002 
REACTION   (77-IR-193(N,G)77-IR-194,,SPC,,REL)    Primary gamma-  2273000200003 
              rays. Reference quantity not given                  2273000200004 
FACILITY   (REAC,2SWTPSI) SAPHIR reactor of the Paul Scherrer     2273000200005 
                          Institute                               2273000200006 
INC-SPECT  .Thermal spectrum of the reactor, no details given     2273000200007 
DETECTOR   .Pair spectrometer, see REL-REF                        2273000200008 
REL-REF    (N,,B.MICHAUD+,J,HPA,45,93,1972) Details of pair       2273000200009 
                 spectrometer construction and properties         2273000200010 
ANALYSIS   .Level energies were determined from the primary       2273000200011 
            gamma-ray energies with the help of neutron separation2273000200012 
            energy Bn=6066.9+-0.2 keV                             2273000200013 
EN-SEC     (E-EXC-MEAN,77-IR-194)                                 2273000200014 
SAMPLE     .Three samples were used. 1st - 98.1% enriched Ir-193  2273000200015 
            sample, weight 20 milligram. 2nd - 86% enriched       2273000200016 
            Ir-193 Sample 37 milligram weight. 3d - natural       2273000200017 
            iridium sample 4 gram weight                          2273000200018 
ERR-ANALYS (E-EXC-ERR)  Error if the mean excitation energy       2273000200019 
           (ERR-S) Statistical error                              2273000200020 
STATUS     .Table 1 of the main reference                         2273000200021 
ENDBIB              19          0                                 2273000200022 
COMMON               1          3                                 2273000200023 
EN-DUMMY                                                          2273000200024 
EV                                                                2273000200025 
  2.500E-02                                                       2273000200026 
ENDCOMMON            3          0                                 2273000200027 
DATA                 6         55                                 2273000200028 
E          E-ERR      E-EXC-MEAN E-EXC-ERR  DATA       ERR-S      2273000200029 
MEV        MEV        MEV        MEV        ARB-UNITS  ARB-UNITS  2273000200030 
  6067.00        0.40    0.0         0.35      12.2        1.1    2273000200031 
  6023.85        1.50   43.1         1.50       3.3        1.4    2273000200032 
  5984.17        0.47   82.7         0.40      11.4        2.0    2273000200033 
  5954.67        0.42  112.2         0.35      27.9        3.5    2273000200034 
  5928.15        0.36  138.7         0.30      10.0        2.2    2273000200035 
  5918.15        0.37  148.7         0.30      12.2        1.6    2273000200036 
  5904.97        0.66  161.9         0.60       7.2        1.6    2273000200037 
  5882.50        0.63  184.4         0.60       6.8        1.6    2273000200038 
  5821.45        0.40  245.45        0.35      22.2        2.0    2273000200039 
  5814.00        0.80  252.9         0.70       5.0        1.7    2273000200040 
  5787.38        0.48  279.5         0.40      18.7        3.5    2273000200041 
  5757.45        1.70  309.45        1.70       2.2        1.5    2273000200042 
  5750.08        1.70  316.8         1.70       2.1        1.5    2273000200043 
  5728.73        0.32  338.2         0.25      38.0        3.5    2273000200044 
  5678.03        1.40  388.9         1.40       2.2        1.5    2273000200045 
  5643.53        0.37  423.4         0.30      13.6        1.5    2273000200046 
  5630.70        0.36  436.2         0.30      15.0        1.6    2273000200047 
  5577.14        0.44  489.75        0.40       6.6        1.9    2273000200048 
  5563.47        0.63  503.4         0.60      10.7        1.5    2273000200049 
  5519.20        1.20  547.7         1.20       9.3        3.0    2273000200050 
  5487.62        0.54  579.3         0.50      14.2        1.3    2273000200051 
  5466.65        0.48  600.25        0.40      23.2        6.0    2273000200052 
  5385.88        0.90  681.0         0.80       4.8        1.8    2273000200053 
  5368.00        0.80  698.9         0.70       2.7        1.3    2273000200054 
  5357.92        0.50  709.0         0.40      18.0        3.0    2273000200055 
  5315.35        0.65  751.55        0.60      11.0        2.4    2273000200056 
  5300.32        1.10  766.6         1.10       6.6        2.0    2273000200057 
  5291.20        0.53  775.7         0.40       6.4        1.7    2273000200058 
  5281.77        0.68  785.1         0.60       6.4        1.1    2273000200059 
  5264.82        0.98  802.1         0.90       6.5        4.0    2273000200060 
  5261.06        0.88  805.8         0.80       7.0        2.0    2273000200061 
  5246.60        0.97  820.3         0.90       4.9        2.8    2273000200062 
  5231.60        0.60  835.3         0.50       3.6        1.5    2273000200063 
  5189.45        0.97  877.45        0.90       5.5        2.2    2273000200064 
  5180.70        0.63  886.2         0.60      12.2        3.0    2273000200065 
  5158.40        0.62  908.5         0.60       7.0        2.7    2273000200066 
  5140.10        0.85  926.8         0.80       5.2        1.0    2273000200067 
  5128.95        0.77  938.0         0.70       6.6        1.1    2273000200068 
  5109.74        0.64  957.2         0.60       7.2        3.0    2273000200069 
  5090.63        0.68  976.3         0.60       9.1        1.1    2273000200070 
  5071.85        0.50  995.0         0.40      14.4        2.0    2273000200071 
  5028.16        0.48 1038.7         0.40      17.8        4.0    2273000200072 
  5014.40        0.90 1052.5         0.80      12.2        3.5    2273000200073 
  4991.83        1.10 1075.1         1.10       4.9        1.4    2273000200074 
  4979.50        0.76 1087.4         0.70       7.9        1.6    2273000200075 
  4967.65        0.72 1099.25        0.70       6.8        2.8    2273000200076 
  4930.81        0.86 1136.1         0.80       8.8        2.4    2273000200077 
  4892.35        1.00 1174.55        1.00       4.5        2.7    2273000200078 
  4875.41        1.20 1191.5         1.20       4.7        2.0    2273000200079 
  4855.47        0.59 1211.4         0.50      13.3        2.3    2273000200080 
  4839.30        0.52 1227.6         0.40      12.3        2.2    2273000200081 
  4827.20        0.72 1239.7         0.70       8.8        2.1    2273000200082 
  4808.32        0.70 1258.6         0.60       6.9        1.4    2273000200083 
  4754.75        0.44 1312.15        0.40      16.1        3.0    2273000200084 
  4643.40        0.60 1423.5         0.50      12.1        2.1    2273000200085 
ENDDATA             57          0                                 2273000200086 
ENDSUBENT           85          0                                 2273000299999 
SUBENT        22730003   20050722                             21732273000300001 
BIB                  8         16                                 2273000300002 
REACTION   (77-IR-193(N,G)77-IR-194,,SPC,,REL) Secondary gamma-   2273000300003 
              rays. Referenced quantity not given                 2273000300004 
FACILITY   (REAC,2FR ILL) High-flux reactor at Grenoble           2273000300005 
INC-SPECT  .Thermal spectrum of the reactor, no details given     2273000300006 
DETECTOR   (COIN,GELI,COMPL) Single Ge(Li) counter with Compton   2273000300007 
                             suppression spectrometer             2273000300008 
REL-REF    (N,,B.MICHAUD+,J,HPA,45,93,1972) Details of pair       2273000300009 
                 spectrometer construction and properties         2273000300010 
SAMPLE     .Three samples were used. 1st - natural Ir sample      2273000300011 
            15 milligram weight. 2nd - natural Ir sample 150      2273000300012 
            milligram weight. 3d - 86% enriches in Ir-193 sample  2273000300013 
            37 milligram weight                                   2273000300014 
ERR-ANALYS (E-ERR) Error in gamma ray energy                      2273000300015 
           (ERR-S) Statistical error                              2273000300016 
STATUS     .Table 2 of the main reference, 1st and 2nd columns    2273000300017 
           (COREL,22730004)                                       2273000300018 
ENDBIB              16          0                                 2273000300019 
COMMON               1          3                                 2273000300020 
EN-DUMMY                                                          2273000300021 
EV                                                                2273000300022 
  2.500E-02                                                       2273000300023 
ENDCOMMON            3          0                                 2273000300024 
DATA                 4        112                                 2273000300025 
E          E-ERR      DATA       ERR-S                            2273000300026 
MEV        MEV        ARB-UNITS  ARB-UNITS                        2273000300027 
  29.890      0.006      1.9        1.8                           2273000300028 
  39.217      0.001      8.3        0.5                           2273000300029 
  43.119      0.001     37.3        2.6                           2273000300030 
  54.401      0.001      5.9        0.5                           2273000300031 
  62.793      0.003      1.6        0.2                           2273000300032 
  82.339      0.002     24.0        0.4                           2273000300033 
  84.288      0.002     55.5        3.6                           2273000300034 
  93.166      0.002     16.6        0.4                           2273000300035 
  95.575      0.003     38.8        1.7                           2273000300036 
 112.230      0.001     96.7        1.7                           2273000300037 
 113.447      0.001      4.5        0.1                           2273000300038 
 115.473      0.001     22.5        0.5                           2273000300039 
 117.880      0.002     20.6        0.8                           2273000300040 
 123.845      0.001     48.3        1.5                           2273000300041 
 132.883      0.002      8.4        0.3                           2273000300042 
 136.100      0.002      8.1        0.5                           2273000300043 
 138.686      0.001     38.7        0.7                           2273000300044 
 142.119      0.002      5.1        0.4                           2273000300045 
 142.199      0.006      3.1        0.2                           2273000300046 
 143.594      0.001     30.8        0.4                           2273000300047 
 145.221      0.002      5.2        0.2                           2273000300048 
 146.169      0.002      4.3        0.2                           2273000300049 
 147.630      0.009      2.4        0.5                           2273000300050 
 147.979      0.003      2.2        0.1                           2273000300051 
 148.934      0.001     68.4        1.7                           2273000300052 
 152.405      0.002     17.6        0.4                           2273000300053 
 153.054      0.001     23.7        0.6                           2273000300054 
 160.825      0.002     16.2        0.4                           2273000300055 
 160.996      0.002     20.1        0.4                           2273000300056 
 161.507      0.010      1.0        0.2                           2273000300057 
 162.336      0.003      2.4        0.1                           2273000300058 
 162.774      0.002     11.5        0.3                           2273000300059 
 165.374      0.003     12.9        0.5                           2273000300060 
 165.448      0.003     16.9        0.5                           2273000300061 
 166.275      0.003      4.6        0.1                           2273000300062 
 169.564      0.002     11.3        0.3                           2273000300063 
 169.874      0.002      7.4        0.3                           2273000300064 
 176.654      0.003      7.5        0.2                           2273000300065 
 179.226      0.003      4.3        0.2                           2273000300066 
 180.930      0.005      2.4        0.1                           2273000300067 
 181.069      0.005      2.1        0.2                           2273000300068 
 182.146      0.005      4.3        0.1                           2273000300069 
 184.687      0.002     44.0        8.0                           2273000300070 
 186.162      0.003      4.3        0.1                           2273000300071 
 193.928      0.003     10.1        0.3                           2273000300072 
 195.519      0.003     10.0        0.3                           2273000300073 
 198.834      0.003      7.0        0.1                           2273000300074 
 204.187      0.003      4.2        0.1                           2273000300075 
 211.133      0.004      2.8        0.2                           2273000300076 
 211.146      0.002      7.4        0.2                           2273000300077 
 216.903      0.006      2.0        0.2                           2273000300078 
 219.163      0.002      8.8        0.4                           2273000300079 
 224.085      0.003      8.6        0.4                           2273000300080 
 225.412      0.005      5.5        0.1                           2273000300081 
 226.299      0.015      1.8        0.2                           2273000300082 
 226.639      0.002      9.3        0.3                           2273000300083 
 228.070      0.004      5.7        0.4                           2273000300084 
 228.201      0.004      4.7        0.2                           2273000300085 
 231.901      0.003      5.7        0.2                           2273000300086 
 234.817      0.002     21.2        0.5                           2273000300087 
 235.403      0.005      3.8        0.2                           2273000300088 
 235.707      0.004      4.2        0.2                           2273000300089 
 241.759      0.004      3.7        0.2                           2273000300090 
 242.314      0.003      5.1        0.2                           2273000300091 
 245.115      0.003      6.7        0.3                           2273000300092 
 245.491      0.002     14.5        0.3                           2273000300093 
 245.943      0.004      3.6        0.2                           2273000300094 
 246.051      0.008      1.9        0.2                           2273000300095 
 248.599      0.002     11.4        0.2                           2273000300096 
 250.686      0.006      2.3        0.1                           2273000300097 
 252.288      0.004      5.2        0.2                           2273000300098 
 255.313      0.004     17.1        0.7                           2273000300099 
 262.739      0.003      6.5        0.3                           2273000300100 
 264.744      0.003     37.5        0.9                           2273000300101 
 267.835      0.002      9.4        0.3                           2273000300102 
 271.676      0.003     26.8        0.5                           2273000300103 
 275.292      0.002     27.0        0.4                           2273000300104 
 278.502      0.003     84.7        2.1                           2273000300105 
 288.423      0.008      5.5        0.3                           2273000300106 
 294.411      0.028      3.6        1.5                           2273000300107 
 294.531      0.006     19.4        0.8                           2273000300108 
 304.666      0.004      6.5        0.2                           2273000300109 
 308.975      0.002     27.2        0.7                           2273000300110 
 310.594      0.002     12.9        0.3                           2273000300111 
 311.492      0.004      7.7        0.2                           2273000300112 
 314.065      0.006     12.6        0.9                           2273000300113 
 324.265      0.003      8.7        0.3                           2273000300114 
 324.988      0.003     14.1        0.5                           2273000300115 
 330.418      0.003      8.1        0.3                           2273000300116 
 335.095      0.006      4.5        0.2                           2273000300117 
 337.531      0.004     29.3        0.6                           2273000300118 
 340.813      0.004     36.4        0.6                           2273000300119 
 342.162      0.008      3.0        0.2                           2273000300120 
 347.061      0.005      4.3        0.2                           2273000300121 
 353.962      0.002     24.5        0.7                           2273000300122 
 360.423      0.003     13.5        0.3                           2273000300123 
 371.502      0.002    100.7        2.6                           2273000300124 
 383.676      0.003     17.0        0.5                           2273000300125 
 390.261      0.002     27.5        0.6                           2273000300126 
 414.783      0.003     29.3        0.7                           2273000300127 
 418.144      0.003     29.0        0.8                           2273000300128 
 424.323      0.046      1.2        0.2                           2273000300129 
 425.444      0.012      2.4        0.3                           2273000300130 
 435.840      0.009      4.3        0.3                           2273000300131 
 440.458      0.010     10.5        0.4                           2273000300132 
 458.294      0.005     19.6        0.4                           2273000300133 
 460.250      0.004     37.3        0.9                           2273000300134 
 467.413      0.006     11.5        0.4                           2273000300135 
 471.581      0.008      9.7        0.6                           2273000300136 
 487.176      0.006     26.6        0.6                           2273000300137 
 492.744      0.079      4.2        0.9                           2273000300138 
 496.818      0.040      2.3        0.3                           2273000300139 
ENDDATA            114          0                                 2273000300140 
ENDSUBENT          139          0                                 2273000399999 
SUBENT        22730004   20050722                             21732273000400001 
BIB                  8         18                                 2273000400002 
REACTION   (77-IR-193(N,G)77-IR-194,,SPC,,REL) Secondary gamma-   2273000400003 
              rays. Referenced to 112.2 keV transition taken for  2273000400004 
              100                                                 2273000400005 
FACILITY   (REAC,2SWTPSI) SAPHIR reactor of the Paul Scherrer     2273000400006 
                          Institute                               2273000400007 
INC-SPECT  .Thermal spectrum of the reactor, no details given     2273000400008 
DETECTOR   (COIN,GELI,COMPL) Single Ge(Li) counter with Compton   2273000400009 
                             suppression spectrometer             2273000400010 
REL-REF    (N,,B.MICHAUD+,J,HPA,45,93,1972) Details of pair       2273000400011 
                 spectrometer construction and properties         2273000400012 
SAMPLE     .Three samples were used. 1st - natural Ir sample      2273000400013 
            15 milligram weight. 2nd - natural Ir sample 150      2273000400014 
            milligram weight. 3d - 86% enriches in Ir-193 sample  2273000400015 
            37 milligram weight                                   2273000400016 
ERR-ANALYS (E-ERR) Error in gamma ray energy                      2273000400017 
           (ERR-S) Statistical error                              2273000400018 
STATUS     .Table 2 of the main reference, 3d and 4th columns     2273000400019 
           (COREL,22730003)                                       2273000400020 
ENDBIB              18          0                                 2273000400021 
COMMON               1          3                                 2273000400022 
EN-DUMMY                                                          2273000400023 
EV                                                                2273000400024 
  2.500E-02                                                       2273000400025 
ENDCOMMON            3          0                                 2273000400026 
DATA                 4        100                                 2273000400027 
E          E-ERR      DATA       ERR-S                            2273000400028 
MEV        MEV        ARB-UNITS  ARB-UNITS                        2273000400029 
  43.117     0.003      46.        12.                            2273000400030 
  82.335     0.004      17.         4.                            2273000400031 
  84.280     0.002      52.         6.                            2273000400032 
  93.156     0.004      18.         4.                            2273000400033 
  95.563     0.003      33.         5.                            2273000400034 
 112.2290    0.0012    100.         8.                            2273000400035 
 113.420     0.015       5.2        1.6                           2273000400036 
 115.464     0.004      25.         4.                            2273000400037 
 117.880     0.002      22.         4.                            2273000400038 
 123.839     0.003      47.         5.                            2273000400039 
 132.872     0.006      11.6        2.3                           2273000400040 
 136.116     0.004      15.7        2.3                           2273000400041 
 138.689     0.003      45.         4.                            2273000400042 
 142.144     0.018       7.         4.                            2273000400043 
 143.500     0.003      35.         4.                            2273000400044 
 145.214     0.012       6.9        1.7                           2273000400045 
 146.202     0.020       4.5        1.4                           2273000400046 
 147.946     0.040       4.8        1.4                           2273000400047 
 148.932     0.003      73.         6.                            2273000400048 
 152.400     0.006      17.8        2.7                           2273000400049 
 153.049     0.005      26.         3.                            2273000400050 
 160.818     0.006      13.8        2.1                           2273000400051 
 160.992     0.004      22.         3.                            2273000400052 
 161.961     0.010       4.4        1.3                           2273000400053 
 162.770     0.010       9.8        2.0                           2273000400054 
 165.359     0.013       9.3        1.4                           2273000400055 
 165.431     0.007      17.1        2.1                           2273000400056 
 166.260     0.030       5.0        1.5                           2273000400057 
 169.539     0.013       9.3        1.4                           2273000400058 
 169.857     0.020       5.9        1.8                           2273000400059 
 176.645     0.040       7.0        1.8                           2273000400060 
 179.150     0.045       7.6        1.9                           2273000400061 
 181.000     0.080       4.0        1.2                           2273000400062 
 182.142     0.030       4.0        1.2                           2273000400063 
 184.684     0.006      36.7        1.8                           2273000400064 
 186.169     0.050       2.9        1.5                           2273000400065 
 193.915     0.013       9.0        1.8                           2273000400066 
 195.507     0.019       9.4        1.9                           2273000400067 
 198.753     0.080       5.4        1.9                           2273000400068 
 204.164     0.050       5.2        1.6                           2273000400069 
 211.173     0.030       4.7        3.0                           2273000400070 
 212.373     0.030       7.7        1.9                           2273000400071 
 216.874     0.070       6.5        2.0                           2273000400072 
 219.420     0.120       4.2        1.3                           2273000400073 
 224.073     0.030       7.4        1.9                           2273000400074 
 225.390     0.050       7.2        1.8                           2273000400075 
 226.265     0.060       2.0        1.0                           2273000400076 
 226.579     0.020       6.7        2.0                           2273000400077 
 228.186     0.045       7.3        1.8                           2273000400078 
 231.873     0.060       5.6        1.7                           2273000400079 
 234.803     0.014      18.1        2.2                           2273000400080 
 235.569     0.040       8.7        2.2                           2273000400081 
 241.665     0.090       2.4        1.2                           2273000400082 
 242.332     0.060       5.9        1.8                           2273000400083 
 245.119     0.025       9.2        2.3                           2273000400084 
 245.514     0.014      15.8        2.4                           2273000400085 
 246.022     0.045       5.4        1.6                           2273000400086 
 248.616     0.095      11.2        2.2                           2273000400087 
 250.683     0.075       4.3        1.3                           2273000400088 
 252.263     0.050       9.8        2.5                           2273000400089 
 255.350     0.018      14.7        2.2                           2273000400090 
 262.722     0.070       5.9        1.8                           2273000400091 
 264.749     0.013      32.1        3.0                           2273000400092 
 267.797     0.045       9.8        2.0                           2273000400093 
 271.661     0.020      23.2        2.3                           2273000400094 
 275.282     0.017      24.2        2.4                           2273000400095 
 278.518     0.008      91.         7.                            2273000400096 
 288.406     0.050       5.9        1.8                           2273000400097 
 294.474     0.018      20.5        2.1                           2273000400098 
 304.711     0.080       6.0        1.8                           2273000400099 
 308.944     0.020      27.4        2.7                           2273000400100 
 310.544     0.070       7.0        2.1                           2273000400101 
 311.557     0.080       6.3        1.9                           2273000400102 
 314.141     0.030      18.0        2.2                           2273000400103 
 324.250     0.090       7.5        2.2                           2273000400104 
 325.028     0.045      12.9        2.6                           2273000400105 
 330.443     0.070      11.8        2.4                           2273000400106 
 335.200     0.060       4.3        1.3                           2273000400107 
 337.531     0.035      26.8        3.2                           2273000400108 
 340.793     0.020      38.7        4.7                           2273000400109 
 342.205     0.070       6.4        1.9                           2273000400110 
 347.025     0.070       9.7        2.4                           2273000400111 
 353.948     0.025      27.6        4.8                           2273000400112 
 360.451     0.070      13.4        3.4                           2273000400113 
 371.443     0.016     105.3        1.2                           2273000400114 
 383.630     0.075      18.1        3.6                           2273000400115 
 390.953     0.090      26.         7.                            2273000400116 
 414.778     0.070      37.         6.                            2273000400117 
 418.078     0.060      37.         6.                            2273000400118 
 424.31      0.14        9.4        2.8                           2273000400119 
 425.95      0.14        9.2        3.0                           2273000400120 
 435.979     0.090       4.1        2.0                           2273000400121 
 440.609     0.075      16.         4.                            2273000400122 
 458.73      0.20       32.         6.                            2273000400123 
 460.104     0.070      51.         6.                            2273000400124 
 467.815     0.090      39.         6.                            2273000400125 
 471.86      0.20       17.         5.                            2273000400126 
 487.109     0.090      41.         8.                            2273000400127 
 494.85      0.20       14.         7.                            2273000400128 
 496.35      0.15       21.         7.                            2273000400129 
ENDDATA            102          0                                 2273000400130 
ENDSUBENT          129          0                                 2273000499999 
ENDENTRY             4          0                                 2273099999999 
