ENTRY            22740   20170823                             226522740  0    1 
SUBENT        22740001   20170823                             226522740  1    1 
BIB                 14         43                                 22740  1    2 
TITLE      .The 208Pb(n,p)208Tl reaction at En = 97 MeV           22740  1    3 
AUTHOR     (A.Ringbom,A.Haokansson,G.Tibell,R.Zorro, J.Blomgren,  22740  1    4 
           H.Conde,J.Rahm,N.Olsson,E.Ramstroem, T.Roennqvist,     22740  1    5 
           O.Jonsson,L.Nilsson,P.-U.Renberg, S.Y.van der Werf,    22740  1    6 
           H.Lenske)                                              22740  1    7 
INSTITUTE  (2SWDUPP) -A.Ringbom, A.Haokansson, G.Tibell, R.Zorro, 22740  1    8 
                      Department of Radiation Sciences, Uppsala   22740  1    9 
                      University;                                 22740  1   10 
                     -J.Blomgren, H.Conde, J.Rahm, N.Olsson,      22740  1   11 
                      E.Ramstroem, T. Roennqvist,  Department of  22740  1   12 
                      Neutron Research;                           22740  1   13 
                     -O.Jonsson, L.Nilsson, P.-U.Renberg, TSL-    22740  1   14 
                      The Swedberg Laboratory, Uppsala University;22740  1   15 
           (2NEDKVI) -Van der Werft, Kernfysisch Versneller       22740  1   16 
                     Instituut, Groningen, Netherlands            22740  1   17 
           (2GERJLU) -H.Lenske, Institut fuer Theoretische Physik,22740  1   18 
                     Universitaet Giessen, Germany                22740  1   19 
REFERENCE  (J,NP/A,617,316,1997)  Main reference, graphs are      22740  1   20 
            given. Received 12 May  1995; revised 14 January 1997.22740  1   21 
           (J,NP/A,563,225,1993)  Description of the TSL (n,p)    22740  1   22 
                                  facility                        22740  1   23 
           (J,NIM/A,292,121,1990)  Experimental details           22740  1   24 
FACILITY   (CYCLO,2SWDUPP)   The (n,p) facility of TSL. With 200  22740  1   25 
                  mg/cm2 Li7 target neutron yield is 1.0E+6 1/sec 22740  1   26 
INC-SOURCE (P-LI7)  150-200mg/cm2 thick LI-7 disk enriched to     22740  1   27 
                    99.98% in Li7                                 22740  1   28 
INC-SPECT  .En=97.0+-0.5 MeV,                                     22740  1   29 
MONITOR    (1-H-1(N,EL)1-H-1,,DA)                                 22740  1   30 
MONIT-REF  (,T.Roennqvist+,J,PR/C,45,R496,1992)                   22740  1   31 
DETECTOR   (IOCH)  Multi-wire proportional chamber                22740  1   32 
METHOD     (TOF)                                                  22740  1   33 
           (PHD)                                                  22740  1   34 
           (STTA)                                                 22740  1   35 
SAMPLE     .Three lead samples of 88.1% enrichment in Pb-208 were 22740  1   36 
            mounted in a multi-target box, thickness of foils is  22740  1   37 
            270, 250 and 307 mg/cm2 ;                             22740  1   38 
           .A 50 mg/cm2 C-H2 reference foil placed in the last    22740  1   39 
            target position, and a pure 85 mg/cm2 carbon target   22740  1   40 
            was included in the target box for measurement at the 22740  1   41 
            lab.angles larger than 15 degree.                     22740  1   42 
CORRECTION .For background and low-energy neutrons                22740  1   43 
HISTORY    (20060424C)  SM                                        22740  1   44 
           (20170823U) SD: Syntax of author's list was corrected. 22740  1   45 
ENDBIB              43          0                                 22740  1   46 
COMMON               2          3                                 22740  1   47 
EN         EN-ERR                                                 22740  1   48 
MEV        MEV                                                    22740  1   49 
  97.0      0.5                                                   22740  1   50 
ENDCOMMON            3          0                                 22740  1   51 
ENDSUBENT           50          0                                 22740  199999 
SUBENT        22740002   20060428                             21772274000200001 
BIB                  5          7                                 2274000200002 
REACTION   (82-PB-208(N,P)81-TL-208,,IPA/DE,RSD) Integrated over  2274000200003 
                                     angular resolution interval  2274000200004 
EN-SEC     (E-EXC,81-TL-208)                                      2274000200005 
COMMENT    .ANG is the center of the angular bin                  2274000200006 
ERR-ANALYS (DATA-ERR)  Not specified                              2274000200007 
STATUS     (TABLE)  From table sent by the author via INTERNET -  2274000200008 
                    J.Blomgren, 2005-11                           2274000200009 
ENDBIB               7          0                                 2274000200010 
COMMON               1          3                                 2274000200011 
ANG-RSL                                                           2274000200012 
ADEG                                                              2274000200013 
  1.                                                              2274000200014 
ENDCOMMON            3          0                                 2274000200015 
DATA                 4       1260                                 2274000200016 
E-EXC      ANG        DATA       DATA-ERR                         2274000200017 
MEV        ADEG       MB/MEV     MB/MEV                           2274000200018 
 -2.00       0.5         0.0263     0.2427                        2274000200019 
 -2.00       1.5         0.0317     0.1467                        2274000200020 
 -2.00       2.5         0.1379     0.2111                        2274000200021 
 -2.00       3.5         0.0341     0.2261                        2274000200022 
 -2.00       4.5        -0.0312     0.2270                        2274000200023 
 -2.00       5.5         0.0280     0.2283                        2274000200024 
 -2.00       6.5         0.2064     0.2256                        2274000200025 
 -2.00       7.5         0.3814     0.2247                        2274000200026 
 -2.00       8.5         0.4580     0.2481                        2274000200027 
 -2.00       9.5         0.5923     0.2063                        2274000200028 
 -2.00      10.5         0.3673     0.1384                        2274000200029 
 -2.00      11.5         0.3033     0.1006                        2274000200030 
 -2.00      12.5         0.3053     0.0888                        2274000200031 
 -2.00      13.5         0.2569     0.0538                        2274000200032 
 -2.00      14.5         0.1803     0.0320                        2274000200033 
 -2.00      15.5         0.1409     0.0291                        2274000200034 
 -2.00      16.5         0.1880     0.0461                        2274000200035 
 -2.00      17.5         0.1565     0.0413                        2274000200036 
 -2.00      18.5         0.1602     0.0423                        2274000200037 
 -2.00      19.5         0.0625     0.0311                        2274000200038 
 -2.00      20.5         0.1914     0.0398                        2274000200039 
 -2.00      21.5         0.0915     0.0328                        2274000200040 
 -2.00      22.5         0.0831     0.0263                        2274000200041 
 -2.00      23.5         0.0679     0.0235                        2274000200042 
 -2.00      24.5         0.0771     0.0257                        2274000200043 
 -2.00      25.5         0.0519     0.0217                        2274000200044 
 -2.00      26.5         0.0866     0.0273                        2274000200045 
 -2.00      27.5         0.0272     0.0150                        2274000200046 
 -2.00      28.5         0.0364     0.0165                        2274000200047 
 -2.00      29.5         0.0146     0.0103                        2274000200048 
 -1.00       0.5         0.2844     0.1705                        2274000200049 
 -1.00       1.5         0.1186     0.1134                        2274000200050 
 -1.00       2.5         0.1903     0.1435                        2274000200051 
 -1.00       3.5         0.1639     0.1639                        2274000200052 
 -1.00       4.5        -0.0250     0.1723                        2274000200053 
 -1.00       5.5        -0.1225     0.1798                        2274000200054 
 -1.00       6.5         0.0418     0.1829                        2274000200055 
 -1.00       7.5         0.0444     0.2016                        2274000200056 
 -1.00       8.5         0.1882     0.2342                        2274000200057 
 -1.00       9.5         0.3025     0.2153                        2274000200058 
 -1.00      10.5         0.3365     0.1745                        2274000200059 
 -1.00      11.5         0.3400     0.1310                        2274000200060 
 -1.00      12.5         0.4850     0.1271                        2274000200061 
 -1.00      13.5         0.2538     0.0885                        2274000200062 
 -1.00      14.5         0.3312     0.0502                        2274000200063 
 -1.00      15.5         0.1673     0.0327                        2274000200064 
 -1.00      16.5         0.1884     0.0630                        2274000200065 
 -1.00      17.5         0.2727     0.0511                        2274000200066 
 -1.00      18.5         0.1540     0.0376                        2274000200067 
 -1.00      19.5         0.1875     0.0424                        2274000200068 
 -1.00      20.5         0.1350     0.0367                        2274000200069 
 -1.00      21.5         0.2139     0.0417                        2274000200070 
 -1.00      22.5         0.1256     0.0327                        2274000200071 
 -1.00      23.5         0.1689     0.0368                        2274000200072 
 -1.00      24.5         0.1523     0.0347                        2274000200073 
 -1.00      25.5         0.1049     0.0297                        2274000200074 
 -1.00      26.5         0.1337     0.0321                        2274000200075 
 -1.00      27.5         0.1322     0.0317                        2274000200076 
 -1.00      28.5         0.0585     0.0209                        2274000200077 
 -1.00      29.5         0.0146     0.0103                        2274000200078 
  0.00       0.5         0.3449     0.1352                        2274000200079 
  0.00       1.5         0.2365     0.0914                        2274000200080 
  0.00       2.5         0.3229     0.1255                        2274000200081 
  0.00       3.5         0.4915     0.1378                        2274000200082 
  0.00       4.5         0.0997     0.1285                        2274000200083 
  0.00       5.5         0.2720     0.1376                        2274000200084 
  0.00       6.5         0.3096     0.1417                        2274000200085 
  0.00       7.5         0.1855     0.1651                        2274000200086 
  0.00       8.5         0.0779     0.1929                        2274000200087 
  0.00       9.5         0.2506     0.2052                        2274000200088 
  0.00      10.5         0.3056     0.1788                        2274000200089 
  0.00      11.5         0.3083     0.1418                        2274000200090 
  0.00      12.5         0.5214     0.1533                        2274000200091 
  0.00      13.5         0.5976     0.1300                        2274000200092 
  0.00      14.5         0.3752     0.0838                        2274000200093 
  0.00      15.5         0.3165     0.0480                        2274000200094 
  0.00      16.5         0.3093     0.0742                        2274000200095 
  0.00      17.5         0.3711     0.0692                        2274000200096 
  0.00      18.5         0.2482     0.0563                        2274000200097 
  0.00      19.5         0.3457     0.0538                        2274000200098 
  0.00      20.5         0.2550     0.0502                        2274000200099 
  0.00      21.5         0.1913     0.0438                        2274000200100 
  0.00      22.5         0.2084     0.0412                        2274000200101 
  0.00      23.5         0.2777     0.0477                        2274000200102 
  0.00      24.5         0.2602     0.0452                        2274000200103 
  0.00      25.5         0.1398     0.0343                        2274000200104 
  0.00      26.5         0.1562     0.0347                        2274000200105 
  0.00      27.5         0.1591     0.0351                        2274000200106 
  0.00      28.5         0.1616     0.0346                        2274000200107 
  0.00      29.5         0.0438     0.0179                        2274000200108 
  1.00       0.5         0.7465     0.1296                        2274000200109 
  1.00       1.5         0.5817     0.0850                        2274000200110 
  1.00       2.5         0.4913     0.1069                        2274000200111 
  1.00       3.5         0.6289     0.1240                        2274000200112 
  1.00       4.5         0.5671     0.1024                        2274000200113 
  1.00       5.5         0.4937     0.1167                        2274000200114 
  1.00       6.5         0.5485     0.1173                        2274000200115 
  1.00       7.5         0.4293     0.1299                        2274000200116 
  1.00       8.5         0.6832     0.1602                        2274000200117 
  1.00       9.5         0.4714     0.1715                        2274000200118 
  1.00      10.5         0.4113     0.1553                        2274000200119 
  1.00      11.5         0.2665     0.1424                        2274000200120 
  1.00      12.5         0.5521     0.1717                        2274000200121 
  1.00      13.5         0.8340     0.1619                        2274000200122 
  1.00      14.5         0.6948     0.1243                        2274000200123 
  1.00      15.5         0.5023     0.0648                        2274000200124 
  1.00      16.5         0.4282     0.0976                        2274000200125 
  1.00      17.5         0.6061     0.0828                        2274000200126 
  1.00      18.5         0.5668     0.0777                        2274000200127 
  1.00      19.5         0.4475     0.0673                        2274000200128 
  1.00      20.5         0.3926     0.0591                        2274000200129 
  1.00      21.5         0.4835     0.0656                        2274000200130 
  1.00      22.5         0.3586     0.0538                        2274000200131 
  1.00      23.5         0.3545     0.0545                        2274000200132 
  1.00      24.5         0.3369     0.0514                        2274000200133 
  1.00      25.5         0.2671     0.0488                        2274000200134 
  1.00      26.5         0.2858     0.0473                        2274000200135 
  1.00      27.5         0.2215     0.0410                        2274000200136 
  1.00      28.5         0.1835     0.0369                        2274000200137 
  1.00      29.5         0.0584     0.0206                        2274000200138 
  2.00       0.5         0.9124     0.1525                        2274000200139 
  2.00       1.5         0.9109     0.0938                        2274000200140 
  2.00       2.5         1.1130     0.1383                        2274000200141 
  2.00       3.5         0.9021     0.1341                        2274000200142 
  2.00       4.5         1.1125     0.1139                        2274000200143 
  2.00       5.5         1.0760     0.1145                        2274000200144 
  2.00       6.5         1.0270     0.1218                        2274000200145 
  2.00       7.5         0.9717     0.1214                        2274000200146 
  2.00       8.5         0.9197     0.1292                        2274000200147 
  2.00       9.5         0.8772     0.1466                        2274000200148 
  2.00      10.5         0.7425     0.1406                        2274000200149 
  2.00      11.5         0.4264     0.1285                        2274000200150 
  2.00      12.5         0.5063     0.1682                        2274000200151 
  2.00      13.5         0.6447     0.1729                        2274000200152 
  2.00      14.5         0.9351     0.1603                        2274000200153 
  2.00      15.5         0.7790     0.0861                        2274000200154 
  2.00      16.5         0.6090     0.1153                        2274000200155 
  2.00      17.5         0.7509     0.1057                        2274000200156 
  2.00      18.5         0.6498     0.0924                        2274000200157 
  2.00      19.5         0.6266     0.0852                        2274000200158 
  2.00      20.5         0.4818     0.0681                        2274000200159 
  2.00      21.5         0.5536     0.0683                        2274000200160 
  2.00      22.5         0.5722     0.0678                        2274000200161 
  2.00      23.5         0.4651     0.0636                        2274000200162 
  2.00      24.5         0.4831     0.0626                        2274000200163 
  2.00      25.5         0.4009     0.0558                        2274000200164 
  2.00      26.5         0.3221     0.0496                        2274000200165 
  2.00      27.5         0.4058     0.0555                        2274000200166 
  2.00      28.5         0.2759     0.0455                        2274000200167 
  2.00      29.5         0.2043     0.0386                        2274000200168 
  3.00       0.5         1.5520     0.1646                        2274000200169 
  3.00       1.5         1.5554     0.1051                        2274000200170 
  3.00       2.5         1.3123     0.1399                        2274000200171 
  3.00       3.5         1.2391     0.1425                        2274000200172 
  3.00       4.5         1.4494     0.1255                        2274000200173 
  3.00       5.5         1.3155     0.1274                        2274000200174 
  3.00       6.5         1.3231     0.1249                        2274000200175 
  3.00       7.5         1.3276     0.1139                        2274000200176 
  3.00       8.5         1.2293     0.1411                        2274000200177 
  3.00       9.5         1.1930     0.1381                        2274000200178 
  3.00      10.5         1.1280     0.1290                        2274000200179 
  3.00      11.5         0.7393     0.1168                        2274000200180 
  3.00      12.5         0.6902     0.1512                        2274000200181 
  3.00      13.5         0.8313     0.1688                        2274000200182 
  3.00      14.5         1.1582     0.1702                        2274000200183 
  3.00      15.5         0.9759     0.1021                        2274000200184 
  3.00      16.5         0.8679     0.1338                        2274000200185 
  3.00      17.5         0.6598     0.1151                        2274000200186 
  3.00      18.5         0.8828     0.1126                        2274000200187 
  3.00      19.5         0.5920     0.0895                        2274000200188 
  3.00      20.5         0.6097     0.0842                        2274000200189 
  3.00      21.5         0.5980     0.0721                        2274000200190 
  3.00      22.5         0.7103     0.0767                        2274000200191 
  3.00      23.5         0.5426     0.0696                        2274000200192 
  3.00      24.5         0.5900     0.0691                        2274000200193 
  3.00      25.5         0.4569     0.0623                        2274000200194 
  3.00      26.5         0.4055     0.0561                        2274000200195 
  3.00      27.5         0.4562     0.0594                        2274000200196 
  3.00      28.5         0.4339     0.0567                        2274000200197 
  3.00      29.5         0.2700     0.0444                        2274000200198 
  4.00       0.5         1.8405     0.1998                        2274000200199 
  4.00       1.5         1.8518     0.1144                        2274000200200 
  4.00       2.5         1.8094     0.1590                        2274000200201 
  4.00       3.5         2.0565     0.1729                        2274000200202 
  4.00       4.5         1.8249     0.1464                        2274000200203 
  4.00       5.5         1.5616     0.1399                        2274000200204 
  4.00       6.5         1.6393     0.1384                        2274000200205 
  4.00       7.5         1.7101     0.1342                        2274000200206 
  4.00       8.5         1.5918     0.1411                        2274000200207 
  4.00       9.5         1.6360     0.1387                        2274000200208 
  4.00      10.5         1.2563     0.1294                        2274000200209 
  4.00      11.5         0.9233     0.0991                        2274000200210 
  4.00      12.5         1.2997     0.1372                        2274000200211 
  4.00      13.5         1.0272     0.1503                        2274000200212 
  4.00      14.5         0.9576     0.1646                        2274000200213 
  4.00      15.5         1.0520     0.1121                        2274000200214 
  4.00      16.5         1.0592     0.1436                        2274000200215 
  4.00      17.5         1.0417     0.1372                        2274000200216 
  4.00      18.5         0.8894     0.1234                        2274000200217 
  4.00      19.5         0.8033     0.1134                        2274000200218 
  4.00      20.5         0.7208     0.0961                        2274000200219 
  4.00      21.5         0.7136     0.0806                        2274000200220 
  4.00      22.5         0.7570     0.0826                        2274000200221 
  4.00      23.5         0.7334     0.0806                        2274000200222 
  4.00      24.5         0.5076     0.0647                        2274000200223 
  4.00      25.5         0.5642     0.0664                        2274000200224 
  4.00      26.5         0.4412     0.0597                        2274000200225 
  4.00      27.5         0.4977     0.0617                        2274000200226 
  4.00      28.5         0.3891     0.0538                        2274000200227 
  4.00      29.5         0.3062     0.0473                        2274000200228 
  5.00       0.5         2.1839     0.2120                        2274000200229 
  5.00       1.5         1.9942     0.1207                        2274000200230 
  5.00       2.5         1.6577     0.1555                        2274000200231 
  5.00       3.5         1.9758     0.1683                        2274000200232 
  5.00       4.5         1.8998     0.1434                        2274000200233 
  5.00       5.5         1.7032     0.1415                        2274000200234 
  5.00       6.5         1.7846     0.1432                        2274000200235 
  5.00       7.5         1.7081     0.1374                        2274000200236 
  5.00       8.5         1.6893     0.1436                        2274000200237 
  5.00       9.5         1.6576     0.1456                        2274000200238 
  5.00      10.5         1.3776     0.1291                        2274000200239 
  5.00      11.5         1.2577     0.1052                        2274000200240 
  5.00      12.5         1.3491     0.1108                        2274000200241 
  5.00      13.5         1.4144     0.1235                        2274000200242 
  5.00      14.5         1.1881     0.1502                        2274000200243 
  5.00      15.5         0.9043     0.1069                        2274000200244 
  5.00      16.5         1.1143     0.1444                        2274000200245 
  5.00      17.5         1.1041     0.1445                        2274000200246 
  5.00      18.5         1.0401     0.1348                        2274000200247 
  5.00      19.5         0.8515     0.1255                        2274000200248 
  5.00      20.5         0.8114     0.1098                        2274000200249 
  5.00      21.5         0.7220     0.0867                        2274000200250 
  5.00      22.5         0.8004     0.0878                        2274000200251 
  5.00      23.5         0.7110     0.0770                        2274000200252 
  5.00      24.5         0.8392     0.0824                        2274000200253 
  5.00      25.5         0.6247     0.0709                        2274000200254 
  5.00      26.5         0.5509     0.0651                        2274000200255 
  5.00      27.5         0.5472     0.0644                        2274000200256 
  5.00      28.5         0.4060     0.0558                        2274000200257 
  5.00      29.5         0.3206     0.0484                        2274000200258 
  6.00       0.5         1.6803     0.1954                        2274000200259 
  6.00       1.5         1.8651     0.1176                        2274000200260 
  6.00       2.5         1.8494     0.1652                        2274000200261 
  6.00       3.5         2.1002     0.1707                        2274000200262 
  6.00       4.5         2.1580     0.1558                        2274000200263 
  6.00       5.5         1.9324     0.1487                        2274000200264 
  6.00       6.5         1.7954     0.1472                        2274000200265 
  6.00       7.5         1.6300     0.1425                        2274000200266 
  6.00       8.5         1.6611     0.1623                        2274000200267 
  6.00       9.5         1.6454     0.1459                        2274000200268 
  6.00      10.5         1.3592     0.1282                        2274000200269 
  6.00      11.5         1.2689     0.1083                        2274000200270 
  6.00      12.5         1.4813     0.1106                        2274000200271 
  6.00      13.5         1.5131     0.1136                        2274000200272 
  6.00      14.5         1.1980     0.1213                        2274000200273 
  6.00      15.5         0.9839     0.1003                        2274000200274 
  6.00      16.5         0.8510     0.1312                        2274000200275 
  6.00      17.5         1.0377     0.1428                        2274000200276 
  6.00      18.5         0.9239     0.1343                        2274000200277 
  6.00      19.5         0.9761     0.1367                        2274000200278 
  6.00      20.5         0.8670     0.1207                        2274000200279 
  6.00      21.5         0.7584     0.1019                        2274000200280 
  6.00      22.5         0.8720     0.0940                        2274000200281 
  6.00      23.5         0.6236     0.0784                        2274000200282 
  6.00      24.5         0.6305     0.0758                        2274000200283 
  6.00      25.5         0.7602     0.0794                        2274000200284 
  6.00      26.5         0.6522     0.0730                        2274000200285 
  6.00      27.5         0.4148     0.0585                        2274000200286 
  6.00      28.5         0.4301     0.0572                        2274000200287 
  6.00      29.5         0.3589     0.0516                        2274000200288 
  7.00       0.5         2.0573     0.2122                        2274000200289 
  7.00       1.5         2.0750     0.1238                        2274000200290 
  7.00       2.5         1.8257     0.1818                        2274000200291 
  7.00       3.5         1.9309     0.1702                        2274000200292 
  7.00       4.5         1.7761     0.1609                        2274000200293 
  7.00       5.5         1.8644     0.1524                        2274000200294 
  7.00       6.5         1.8861     0.1503                        2274000200295 
  7.00       7.5         1.7107     0.1507                        2274000200296 
  7.00       8.5         1.6372     0.1649                        2274000200297 
  7.00       9.5         1.7038     0.1533                        2274000200298 
  7.00      10.5         1.3782     0.1337                        2274000200299 
  7.00      11.5         1.2393     0.1165                        2274000200300 
  7.00      12.5         1.3777     0.1095                        2274000200301 
  7.00      13.5         1.2950     0.1041                        2274000200302 
  7.00      14.5         1.1678     0.1098                        2274000200303 
  7.00      15.5         0.9470     0.0901                        2274000200304 
  7.00      16.5         0.9544     0.1274                        2274000200305 
  7.00      17.5         0.9027     0.1343                        2274000200306 
  7.00      18.5         0.9482     0.1343                        2274000200307 
  7.00      19.5         1.0205     0.1412                        2274000200308 
  7.00      20.5         1.0710     0.1345                        2274000200309 
  7.00      21.5         1.0114     0.1217                        2274000200310 
  7.00      22.5         0.8254     0.1003                        2274000200311 
  7.00      23.5         0.8007     0.0899                        2274000200312 
  7.00      24.5         0.6531     0.0808                        2274000200313 
  7.00      25.5         0.6218     0.0721                        2274000200314 
  7.00      26.5         0.5811     0.0715                        2274000200315 
  7.00      27.5         0.5940     0.0673                        2274000200316 
  7.00      28.5         0.3786     0.0568                        2274000200317 
  7.00      29.5         0.4741     0.0597                        2274000200318 
  8.00       0.5         1.9760     0.2066                        2274000200319 
  8.00       1.5         1.9333     0.1300                        2274000200320 
  8.00       2.5         2.1006     0.1893                        2274000200321 
  8.00       3.5         2.3166     0.1968                        2274000200322 
  8.00       4.5         2.0726     0.1653                        2274000200323 
  8.00       5.5         2.0586     0.1583                        2274000200324 
  8.00       6.5         2.0124     0.1581                        2274000200325 
  8.00       7.5         1.7328     0.1498                        2274000200326 
  8.00       8.5         1.7000     0.1729                        2274000200327 
  8.00       9.5         1.8165     0.1646                        2274000200328 
  8.00      10.5         1.4802     0.1369                        2274000200329 
  8.00      11.5         1.4069     0.1290                        2274000200330 
  8.00      12.5         1.4208     0.1112                        2274000200331 
  8.00      13.5         1.5644     0.1118                        2274000200332 
  8.00      14.5         1.3670     0.1083                        2274000200333 
  8.00      15.5         0.9372     0.0826                        2274000200334 
  8.00      16.5         1.0372     0.1234                        2274000200335 
  8.00      17.5         0.9672     0.1289                        2274000200336 
  8.00      18.5         1.0865     0.1347                        2274000200337 
  8.00      19.5         1.1298     0.1429                        2274000200338 
  8.00      20.5         0.9668     0.1351                        2274000200339 
  8.00      21.5         1.1803     0.1369                        2274000200340 
  8.00      22.5         0.9418     0.1164                        2274000200341 
  8.00      23.5         0.7833     0.0998                        2274000200342 
  8.00      24.5         0.5852     0.0812                        2274000200343 
  8.00      25.5         0.7169     0.0822                        2274000200344 
  8.00      26.5         0.4807     0.0686                        2274000200345 
  8.00      27.5         0.5585     0.0656                        2274000200346 
  8.00      28.5         0.3807     0.0577                        2274000200347 
  8.00      29.5         0.6585     0.0700                        2274000200348 
  9.00       0.5         1.9878     0.2211                        2274000200349 
  9.00       1.5         1.8936     0.1314                        2274000200350 
  9.00       2.5         1.7250     0.1880                        2274000200351 
  9.00       3.5         2.2773     0.1924                        2274000200352 
  9.00       4.5         1.9785     0.1576                        2274000200353 
  9.00       5.5         2.0816     0.1621                        2274000200354 
  9.00       6.5         2.0464     0.1576                        2274000200355 
  9.00       7.5         1.9381     0.1561                        2274000200356 
  9.00       8.5         1.6997     0.1727                        2274000200357 
  9.00       9.5         1.6856     0.1682                        2274000200358 
  9.00      10.5         1.6766     0.1471                        2274000200359 
  9.00      11.5         1.3346     0.1274                        2274000200360 
  9.00      12.5         1.6530     0.1147                        2274000200361 
  9.00      13.5         1.3307     0.1162                        2274000200362 
  9.00      14.5         1.5319     0.1130                        2274000200363 
  9.00      15.5         1.3854     0.0851                        2274000200364 
  9.00      16.5         1.0574     0.1186                        2274000200365 
  9.00      17.5         1.1481     0.1210                        2274000200366 
  9.00      18.5         0.7977     0.1196                        2274000200367 
  9.00      19.5         1.0287     0.1347                        2274000200368 
  9.00      20.5         1.0941     0.1383                        2274000200369 
  9.00      21.5         0.9711     0.1369                        2274000200370 
  9.00      22.5         0.8574     0.1247                        2274000200371 
  9.00      23.5         0.9074     0.1132                        2274000200372 
  9.00      24.5         0.7771     0.0975                        2274000200373 
  9.00      25.5         0.8231     0.0896                        2274000200374 
  9.00      26.5         0.6320     0.0742                        2274000200375 
  9.00      27.5         0.7172     0.0782                        2274000200376 
  9.00      28.5         0.5958     0.0721                        2274000200377 
  9.00      29.5         0.5633     0.0684                        2274000200378 
 10.00       0.5         2.4976     0.2115                        2274000200379 
 10.00       1.5         2.1406     0.1334                        2274000200380 
 10.00       2.5         1.9778     0.1887                        2274000200381 
 10.00       3.5         2.2514     0.2039                        2274000200382 
 10.00       4.5         2.0713     0.1671                        2274000200383 
 10.00       5.5         1.9603     0.1664                        2274000200384 
 10.00       6.5         1.9405     0.1619                        2274000200385 
 10.00       7.5         1.8677     0.1519                        2274000200386 
 10.00       8.5         1.9684     0.1742                        2274000200387 
 10.00       9.5         1.6939     0.1679                        2274000200388 
 10.00      10.5         1.7217     0.1510                        2274000200389 
 10.00      11.5         1.5589     0.1349                        2274000200390 
 10.00      12.5         1.6854     0.1297                        2274000200391 
 10.00      13.5         1.4693     0.1154                        2274000200392 
 10.00      14.5         1.4748     0.1117                        2274000200393 
 10.00      15.5         1.3448     0.0787                        2274000200394 
 10.00      16.5         1.1827     0.1053                        2274000200395 
 10.00      17.5         1.1973     0.1196                        2274000200396 
 10.00      18.5         1.0289     0.1208                        2274000200397 
 10.00      19.5         1.1859     0.1328                        2274000200398 
 10.00      20.5         1.2630     0.1391                        2274000200399 
 10.00      21.5         1.0823     0.1419                        2274000200400 
 10.00      22.5         1.2823     0.1436                        2274000200401 
 10.00      23.5         0.9787     0.1257                        2274000200402 
 10.00      24.5         0.9028     0.1107                        2274000200403 
 10.00      25.5         0.7866     0.0935                        2274000200404 
 10.00      26.5         0.8190     0.0867                        2274000200405 
 10.00      27.5         0.6981     0.0772                        2274000200406 
 10.00      28.5         0.7356     0.0796                        2274000200407 
 10.00      29.5         0.6610     0.0744                        2274000200408 
 11.00       0.5         2.3082     0.2121                        2274000200409 
 11.00       1.5         2.2155     0.1344                        2274000200410 
 11.00       2.5         2.1539     0.1852                        2274000200411 
 11.00       3.5         2.4955     0.1955                        2274000200412 
 11.00       4.5         2.1817     0.1635                        2274000200413 
 11.00       5.5         1.8345     0.1531                        2274000200414 
 11.00       6.5         1.8597     0.1538                        2274000200415 
 11.00       7.5         1.8444     0.1521                        2274000200416 
 11.00       8.5         1.6968     0.1751                        2274000200417 
 11.00       9.5         1.8768     0.1697                        2274000200418 
 11.00      10.5         1.7447     0.1492                        2274000200419 
 11.00      11.5         1.6326     0.1424                        2274000200420 
 11.00      12.5         1.5435     0.1210                        2274000200421 
 11.00      13.5         1.5769     0.1118                        2274000200422 
 11.00      14.5         1.5123     0.1222                        2274000200423 
 11.00      15.5         1.2634     0.0803                        2274000200424 
 11.00      16.5         1.2262     0.0842                        2274000200425 
 11.00      17.5         1.0864     0.1172                        2274000200426 
 11.00      18.5         1.2129     0.1229                        2274000200427 
 11.00      19.5         1.2098     0.1215                        2274000200428 
 11.00      20.5         0.8855     0.1214                        2274000200429 
 11.00      21.5         1.1484     0.1410                        2274000200430 
 11.00      22.5         1.0240     0.1386                        2274000200431 
 11.00      23.5         0.8973     0.1306                        2274000200432 
 11.00      24.5         0.7520     0.1143                        2274000200433 
 11.00      25.5         0.9264     0.1015                        2274000200434 
 11.00      26.5         0.8617     0.0923                        2274000200435 
 11.00      27.5         0.5757     0.0768                        2274000200436 
 11.00      28.5         0.7084     0.0807                        2274000200437 
 11.00      29.5         0.7123     0.0752                        2274000200438 
 12.00       0.5         1.9744     0.2163                        2274000200439 
 12.00       1.5         2.2821     0.1364                        2274000200440 
 12.00       2.5         2.2077     0.1892                        2274000200441 
 12.00       3.5         2.0746     0.1907                        2274000200442 
 12.00       4.5         2.3658     0.1715                        2274000200443 
 12.00       5.5         2.0454     0.1655                        2274000200444 
 12.00       6.5         2.0802     0.1633                        2274000200445 
 12.00       7.5         1.9722     0.1658                        2274000200446 
 12.00       8.5         1.7301     0.1699                        2274000200447 
 12.00       9.5         1.9575     0.1638                        2274000200448 
 12.00      10.5         1.8256     0.1597                        2274000200449 
 12.00      11.5         1.7702     0.1489                        2274000200450 
 12.00      12.5         1.7645     0.1281                        2274000200451 
 12.00      13.5         1.7496     0.1204                        2274000200452 
 12.00      14.5         1.7644     0.1282                        2274000200453 
 12.00      15.5         1.4772     0.0852                        2274000200454 
 12.00      16.5         1.4523     0.0878                        2274000200455 
 12.00      17.5         1.2963     0.1213                        2274000200456 
 12.00      18.5         1.2526     0.1169                        2274000200457 
 12.00      19.5         1.2937     0.1259                        2274000200458 
 12.00      20.5         1.2284     0.1262                        2274000200459 
 12.00      21.5         1.1811     0.1362                        2274000200460 
 12.00      22.5         1.0695     0.1382                        2274000200461 
 12.00      23.5         1.0322     0.1380                        2274000200462 
 12.00      24.5         0.8625     0.1253                        2274000200463 
 12.00      25.5         0.9178     0.1131                        2274000200464 
 12.00      26.5         0.6146     0.0878                        2274000200465 
 12.00      27.5         0.6652     0.0828                        2274000200466 
 12.00      28.5         0.7107     0.0793                        2274000200467 
 12.00      29.5         0.7273     0.0808                        2274000200468 
 13.00       0.5         2.5672     0.2350                        2274000200469 
 13.00       1.5         2.4679     0.1337                        2274000200470 
 13.00       2.5         2.2053     0.1811                        2274000200471 
 13.00       3.5         2.5749     0.2033                        2274000200472 
 13.00       4.5         2.3299     0.1753                        2274000200473 
 13.00       5.5         2.2447     0.1724                        2274000200474 
 13.00       6.5         2.1861     0.1658                        2274000200475 
 13.00       7.5         2.1020     0.1629                        2274000200476 
 13.00       8.5         2.1762     0.1860                        2274000200477 
 13.00       9.5         1.7935     0.1718                        2274000200478 
 13.00      10.5         1.8815     0.1620                        2274000200479 
 13.00      11.5         1.8699     0.1517                        2274000200480 
 13.00      12.5         1.6662     0.1314                        2274000200481 
 13.00      13.5         1.9202     0.1275                        2274000200482 
 13.00      14.5         1.4642     0.1308                        2274000200483 
 13.00      15.5         1.5876     0.0857                        2274000200484 
 13.00      16.5         1.5049     0.0887                        2274000200485 
 13.00      17.5         1.3551     0.1272                        2274000200486 
 13.00      18.5         1.1422     0.1159                        2274000200487 
 13.00      19.5         1.4217     0.1282                        2274000200488 
 13.00      20.5         1.2657     0.1238                        2274000200489 
 13.00      21.5         1.2123     0.1307                        2274000200490 
 13.00      22.5         1.0392     0.1330                        2274000200491 
 13.00      23.5         1.0377     0.1371                        2274000200492 
 13.00      24.5         1.0671     0.1353                        2274000200493 
 13.00      25.5         1.1735     0.1300                        2274000200494 
 13.00      26.5         0.8740     0.1087                        2274000200495 
 13.00      27.5         1.0035     0.1036                        2274000200496 
 13.00      28.5         0.7667     0.0854                        2274000200497 
 13.00      29.5         0.7679     0.0830                        2274000200498 
 14.00       0.5         2.1534     0.2130                        2274000200499 
 14.00       1.5         2.3468     0.1304                        2274000200500 
 14.00       2.5         2.3064     0.1919                        2274000200501 
 14.00       3.5         2.3977     0.2023                        2274000200502 
 14.00       4.5         2.2534     0.1719                        2274000200503 
 14.00       5.5         2.1672     0.1766                        2274000200504 
 14.00       6.5         2.2604     0.1729                        2274000200505 
 14.00       7.5         1.9617     0.1643                        2274000200506 
 14.00       8.5         1.9519     0.1857                        2274000200507 
 14.00       9.5         2.1041     0.1808                        2274000200508 
 14.00      10.5         1.9927     0.1656                        2274000200509 
 14.00      11.5         1.6951     0.1571                        2274000200510 
 14.00      12.5         2.0093     0.1381                        2274000200511 
 14.00      13.5         1.6624     0.1342                        2274000200512 
 14.00      14.5         1.9600     0.1431                        2274000200513 
 14.00      15.5         1.6930     0.0918                        2274000200514 
 14.00      16.5         1.4651     0.0887                        2274000200515 
 14.00      17.5         1.4703     0.1300                        2274000200516 
 14.00      18.5         1.4582     0.1284                        2274000200517 
 14.00      19.5         1.3204     0.1227                        2274000200518 
 14.00      20.5         1.2111     0.1183                        2274000200519 
 14.00      21.5         1.3704     0.1298                        2274000200520 
 14.00      22.5         0.9557     0.1251                        2274000200521 
 14.00      23.5         1.1910     0.1368                        2274000200522 
 14.00      24.5         1.1846     0.1383                        2274000200523 
 14.00      25.5         0.9149     0.1281                        2274000200524 
 14.00      26.5         0.9940     0.1215                        2274000200525 
 14.00      27.5         1.0854     0.1132                        2274000200526 
 14.00      28.5         0.9069     0.0960                        2274000200527 
 14.00      29.5         0.8263     0.0885                        2274000200528 
 15.00       0.5         2.0526     0.2217                        2274000200529 
 15.00       1.5         2.5483     0.1374                        2274000200530 
 15.00       2.5         2.3460     0.1882                        2274000200531 
 15.00       3.5         2.3689     0.1960                        2274000200532 
 15.00       4.5         2.1004     0.1841                        2274000200533 
 15.00       5.5         2.3969     0.1792                        2274000200534 
 15.00       6.5         2.0860     0.1739                        2274000200535 
 15.00       7.5         2.0301     0.1676                        2274000200536 
 15.00       8.5         2.0698     0.1666                        2274000200537 
 15.00       9.5         2.0284     0.1573                        2274000200538 
 15.00      10.5         1.9851     0.1624                        2274000200539 
 15.00      11.5         1.9624     0.1652                        2274000200540 
 15.00      12.5         2.0728     0.1370                        2274000200541 
 15.00      13.5         1.6074     0.1326                        2274000200542 
 15.00      14.5         1.8490     0.1386                        2274000200543 
 15.00      15.5         1.8235     0.1274                        2274000200544 
 15.00      16.5         1.7949     0.0957                        2274000200545 
 15.00      17.5         1.5553     0.1357                        2274000200546 
 15.00      18.5         1.5036     0.1328                        2274000200547 
 15.00      19.5         1.4157     0.1280                        2274000200548 
 15.00      20.5         1.6468     0.1329                        2274000200549 
 15.00      21.5         1.5283     0.1318                        2274000200550 
 15.00      22.5         1.4150     0.1348                        2274000200551 
 15.00      23.5         1.2739     0.1329                        2274000200552 
 15.00      24.5         1.1026     0.1322                        2274000200553 
 15.00      25.5         1.2856     0.1406                        2274000200554 
 15.00      26.5         1.1968     0.1331                        2274000200555 
 15.00      27.5         1.0634     0.1205                        2274000200556 
 15.00      28.5         1.1520     0.1095                        2274000200557 
 15.00      29.5         0.9032     0.0950                        2274000200558 
 16.00       0.5         2.1453     0.2191                        2274000200559 
 16.00       1.5         2.5932     0.1404                        2274000200560 
 16.00       2.5         2.3098     0.1864                        2274000200561 
 16.00       3.5         2.7409     0.1955                        2274000200562 
 16.00       4.5         2.2013     0.1997                        2274000200563 
 16.00       5.5         2.4716     0.2065                        2274000200564 
 16.00       6.5         2.3406     0.2101                        2274000200565 
 16.00       7.5         2.1671     0.1693                        2274000200566 
 16.00       8.5         2.0463     0.1680                        2274000200567 
 16.00       9.5         2.0761     0.1717                        2274000200568 
 16.00      10.5         1.9501     0.1691                        2274000200569 
 16.00      11.5         2.2080     0.1680                        2274000200570 
 16.00      12.5         1.9753     0.1445                        2274000200571 
 16.00      13.5         1.6773     0.1342                        2274000200572 
 16.00      14.5         1.8075     0.1352                        2274000200573 
 16.00      15.5         1.8461     0.1323                        2274000200574 
 16.00      16.5         1.6538     0.0932                        2274000200575 
 16.00      17.5         1.6914     0.1401                        2274000200576 
 16.00      18.5         1.7036     0.1393                        2274000200577 
 16.00      19.5         1.5063     0.1316                        2274000200578 
 16.00      20.5         1.5918     0.1312                        2274000200579 
 16.00      21.5         1.4096     0.1271                        2274000200580 
 16.00      22.5         1.3928     0.1302                        2274000200581 
 16.00      23.5         1.2495     0.1255                        2274000200582 
 16.00      24.5         1.1221     0.1274                        2274000200583 
 16.00      25.5         1.1136     0.1334                        2274000200584 
 16.00      26.5         1.0035     0.1303                        2274000200585 
 16.00      27.5         1.0147     0.1258                        2274000200586 
 16.00      28.5         0.9445     0.1095                        2274000200587 
 16.00      29.5         0.8362     0.0960                        2274000200588 
 17.00       0.5         2.5049     0.2361                        2274000200589 
 17.00       1.5         2.5949     0.1438                        2274000200590 
 17.00       2.5         2.2817     0.1917                        2274000200591 
 17.00       3.5         2.3150     0.1990                        2274000200592 
 17.00       4.5         2.6775     0.2209                        2274000200593 
 17.00       5.5         2.1386     0.2135                        2274000200594 
 17.00       6.5         2.3042     0.2065                        2274000200595 
 17.00       7.5         2.3062     0.1687                        2274000200596 
 17.00       8.5         2.1733     0.1711                        2274000200597 
 17.00       9.5         2.2702     0.1715                        2274000200598 
 17.00      10.5         1.8813     0.1819                        2274000200599 
 17.00      11.5         1.8824     0.1645                        2274000200600 
 17.00      12.5         1.8738     0.1401                        2274000200601 
 17.00      13.5         1.8035     0.1302                        2274000200602 
 17.00      14.5         1.8325     0.1366                        2274000200603 
 17.00      15.5         1.9109     0.1336                        2274000200604 
 17.00      16.5         1.6457     0.0933                        2274000200605 
 17.00      17.5         1.6777     0.1406                        2274000200606 
 17.00      18.5         1.5532     0.1355                        2274000200607 
 17.00      19.5         1.6572     0.1362                        2274000200608 
 17.00      20.5         1.4837     0.1278                        2274000200609 
 17.00      21.5         1.3326     0.1242                        2274000200610 
 17.00      22.5         1.2764     0.1254                        2274000200611 
 17.00      23.5         1.4490     0.1276                        2274000200612 
 17.00      24.5         1.1636     0.1233                        2274000200613 
 17.00      25.5         1.1961     0.1305                        2274000200614 
 17.00      26.5         1.2066     0.1354                        2274000200615 
 17.00      27.5         0.8833     0.1261                        2274000200616 
 17.00      28.5         1.0298     0.1199                        2274000200617 
 17.00      29.5         0.9207     0.1068                        2274000200618 
 18.00       0.5         2.7840     0.2220                        2274000200619 
 18.00       1.5         2.4115     0.1411                        2274000200620 
 18.00       2.5         2.5626     0.1951                        2274000200621 
 18.00       3.5         2.7263     0.2035                        2274000200622 
 18.00       4.5         2.5470     0.2136                        2274000200623 
 18.00       5.5         2.3940     0.2025                        2274000200624 
 18.00       6.5         2.1612     0.2084                        2274000200625 
 18.00       7.5         2.0934     0.1701                        2274000200626 
 18.00       8.5         2.1617     0.1720                        2274000200627 
 18.00       9.5         2.2155     0.1709                        2274000200628 
 18.00      10.5         2.0780     0.1785                        2274000200629 
 18.00      11.5         1.8621     0.1625                        2274000200630 
 18.00      12.5         2.1534     0.1408                        2274000200631 
 18.00      13.5         2.1719     0.1416                        2274000200632 
 18.00      14.5         1.8787     0.1357                        2274000200633 
 18.00      15.5         1.8852     0.1379                        2274000200634 
 18.00      16.5         1.8773     0.0978                        2274000200635 
 18.00      17.5         1.7955     0.1401                        2274000200636 
 18.00      18.5         1.6789     0.1395                        2274000200637 
 18.00      19.5         1.7025     0.1388                        2274000200638 
 18.00      20.5         1.6710     0.1352                        2274000200639 
 18.00      21.5         1.6076     0.1337                        2274000200640 
 18.00      22.5         1.2776     0.1231                        2274000200641 
 18.00      23.5         1.4475     0.1253                        2274000200642 
 18.00      24.5         1.2828     0.1221                        2274000200643 
 18.00      25.5         1.2094     0.1237                        2274000200644 
 18.00      26.5         1.1505     0.1302                        2274000200645 
 18.00      27.5         0.9825     0.1296                        2274000200646 
 18.00      28.5         1.0403     0.1254                        2274000200647 
 18.00      29.5         1.3435     0.1276                        2274000200648 
 19.00       0.5         2.4356     0.2312                        2274000200649 
 19.00       1.5         2.4580     0.1397                        2274000200650 
 19.00       2.5         2.1963     0.1907                        2274000200651 
 19.00       3.5         2.4139     0.2132                        2274000200652 
 19.00       4.5         2.5802     0.2243                        2274000200653 
 19.00       5.5         2.4012     0.2109                        2274000200654 
 19.00       6.5         2.0006     0.1924                        2274000200655 
 19.00       7.5         2.2654     0.1662                        2274000200656 
 19.00       8.5         2.1887     0.1641                        2274000200657 
 19.00       9.5         2.1887     0.1697                        2274000200658 
 19.00      10.5         2.4889     0.1799                        2274000200659 
 19.00      11.5         2.0599     0.1663                        2274000200660 
 19.00      12.5         2.0034     0.1388                        2274000200661 
 19.00      13.5         2.0411     0.1358                        2274000200662 
 19.00      14.5         1.8521     0.1345                        2274000200663 
 19.00      15.5         1.9078     0.1230                        2274000200664 
 19.00      16.5         1.7991     0.0979                        2274000200665 
 19.00      17.5         1.5953     0.1379                        2274000200666 
 19.00      18.5         1.5891     0.1374                        2274000200667 
 19.00      19.5         1.7093     0.1389                        2274000200668 
 19.00      20.5         1.5511     0.1331                        2274000200669 
 19.00      21.5         1.6350     0.1354                        2274000200670 
 19.00      22.5         1.4876     0.1287                        2274000200671 
 19.00      23.5         1.7212     0.1329                        2274000200672 
 19.00      24.5         1.0443     0.1106                        2274000200673 
 19.00      25.5         1.2379     0.1189                        2274000200674 
 19.00      26.5         1.0357     0.1205                        2274000200675 
 19.00      27.5         0.8905     0.1239                        2274000200676 
 19.00      28.5         0.9132     0.1238                        2274000200677 
 19.00      29.5         1.1610     0.1283                        2274000200678 
 20.00       0.5         2.3647     0.2237                        2274000200679 
 20.00       1.5         2.2679     0.1353                        2274000200680 
 20.00       2.5         2.3049     0.1910                        2274000200681 
 20.00       3.5         2.5728     0.2021                        2274000200682 
 20.00       4.5         2.3863     0.2155                        2274000200683 
 20.00       5.5         2.7021     0.2083                        2274000200684 
 20.00       6.5         2.2610     0.1909                        2274000200685 
 20.00       7.5         2.3067     0.1732                        2274000200686 
 20.00       8.5         2.1414     0.1591                        2274000200687 
 20.00       9.5         2.2517     0.1667                        2274000200688 
 20.00      10.5         2.0071     0.1738                        2274000200689 
 20.00      11.5         2.0237     0.1624                        2274000200690 
 20.00      12.5         1.9700     0.1391                        2274000200691 
 20.00      13.5         1.9077     0.1386                        2274000200692 
 20.00      14.5         1.8749     0.1325                        2274000200693 
 20.00      15.5         1.9170     0.1314                        2274000200694 
 20.00      16.5         1.7515     0.1086                        2274000200695 
 20.00      17.5         1.6744     0.1402                        2274000200696 
 20.00      18.5         1.6215     0.1381                        2274000200697 
 20.00      19.5         1.5029     0.1329                        2274000200698 
 20.00      20.5         1.7960     0.1397                        2274000200699 
 20.00      21.5         1.4689     0.1304                        2274000200700 
 20.00      22.5         1.6311     0.1323                        2274000200701 
 20.00      23.5         1.5230     0.1263                        2274000200702 
 20.00      24.5         1.3068     0.1184                        2274000200703 
 20.00      25.5         1.2515     0.1178                        2274000200704 
 20.00      26.5         1.1857     0.1199                        2274000200705 
 20.00      27.5         0.9565     0.1196                        2274000200706 
 20.00      28.5         0.9457     0.1233                        2274000200707 
 20.00      29.5         1.1936     0.1326                        2274000200708 
 21.00       0.5         2.3808     0.2280                        2274000200709 
 21.00       1.5         2.4826     0.1391                        2274000200710 
 21.00       2.5         2.2151     0.1855                        2274000200711 
 21.00       3.5         2.3691     0.1967                        2274000200712 
 21.00       4.5         2.4197     0.2115                        2274000200713 
 21.00       5.5         2.3993     0.1932                        2274000200714 
 21.00       6.5         2.3271     0.1895                        2274000200715 
 21.00       7.5         2.3348     0.1690                        2274000200716 
 21.00       8.5         2.2995     0.1669                        2274000200717 
 21.00       9.5         2.1138     0.1558                        2274000200718 
 21.00      10.5         1.9501     0.1751                        2274000200719 
 21.00      11.5         1.9712     0.1603                        2274000200720 
 21.00      12.5         2.0656     0.1398                        2274000200721 
 21.00      13.5         2.0255     0.1367                        2274000200722 
 21.00      14.5         2.0209     0.1356                        2274000200723 
 21.00      15.5         1.9279     0.1331                        2274000200724 
 21.00      16.5         1.5397     0.1280                        2274000200725 
 21.00      17.5         1.7094     0.1412                        2274000200726 
 21.00      18.5         1.9747     0.1482                        2274000200727 
 21.00      19.5         1.7358     0.1399                        2274000200728 
 21.00      20.5         1.4941     0.1312                        2274000200729 
 21.00      21.5         1.7350     0.1371                        2274000200730 
 21.00      22.5         1.4488     0.1264                        2274000200731 
 21.00      23.5         1.4638     0.1262                        2274000200732 
 21.00      24.5         1.3852     0.1201                        2274000200733 
 21.00      25.5         1.4838     0.1233                        2274000200734 
 21.00      26.5         1.2699     0.1175                        2274000200735 
 21.00      27.5         1.3028     0.1241                        2274000200736 
 21.00      28.5         1.2237     0.1266                        2274000200737 
 21.00      29.5         1.0679     0.1289                        2274000200738 
 22.00       0.5         2.9486     0.2326                        2274000200739 
 22.00       1.5         2.4900     0.1369                        2274000200740 
 22.00       2.5         2.6499     0.1905                        2274000200741 
 22.00       3.5         2.5451     0.1996                        2274000200742 
 22.00       4.5         2.4968     0.2098                        2274000200743 
 22.00       5.5         2.4370     0.2120                        2274000200744 
 22.00       6.5         2.6102     0.2050                        2274000200745 
 22.00       7.5         2.1720     0.1666                        2274000200746 
 22.00       8.5         2.2304     0.1670                        2274000200747 
 22.00       9.5         2.2546     0.1604                        2274000200748 
 22.00      10.5         2.0306     0.1663                        2274000200749 
 22.00      11.5         2.1322     0.1597                        2274000200750 
 22.00      12.5         2.0365     0.1390                        2274000200751 
 22.00      13.5         1.9508     0.1330                        2274000200752 
 22.00      14.5         1.9787     0.1300                        2274000200753 
 22.00      15.5         1.6906     0.1256                        2274000200754 
 22.00      16.5         1.7733     0.1294                        2274000200755 
 22.00      17.5         1.8469     0.1452                        2274000200756 
 22.00      18.5         1.5953     0.1368                        2274000200757 
 22.00      19.5         1.8658     0.1434                        2274000200758 
 22.00      20.5         1.5924     0.1334                        2274000200759 
 22.00      21.5         1.6603     0.1351                        2274000200760 
 22.00      22.5         1.4819     0.1267                        2274000200761 
 22.00      23.5         1.5927     0.1303                        2274000200762 
 22.00      24.5         1.4716     0.1225                        2274000200763 
 22.00      25.5         1.4394     0.1211                        2274000200764 
 22.00      26.5         1.3365     0.1199                        2274000200765 
 22.00      27.5         1.1961     0.1176                        2274000200766 
 22.00      28.5         1.0665     0.1177                        2274000200767 
 22.00      29.5         0.8886     0.1202                        2274000200768 
 23.00       0.5         2.7218     0.2216                        2274000200769 
 23.00       1.5         2.4133     0.1415                        2274000200770 
 23.00       2.5         2.3264     0.1879                        2274000200771 
 23.00       3.5         2.7914     0.1993                        2274000200772 
 23.00       4.5         2.4487     0.2001                        2274000200773 
 23.00       5.5         2.0747     0.2011                        2274000200774 
 23.00       6.5         2.6310     0.2063                        2274000200775 
 23.00       7.5         2.2930     0.1697                        2274000200776 
 23.00       8.5         2.0857     0.1686                        2274000200777 
 23.00       9.5         2.0948     0.1549                        2274000200778 
 23.00      10.5         2.0169     0.1738                        2274000200779 
 23.00      11.5         2.1169     0.1591                        2274000200780 
 23.00      12.5         2.2239     0.1397                        2274000200781 
 23.00      13.5         2.0201     0.1359                        2274000200782 
 23.00      14.5         2.0847     0.1392                        2274000200783 
 23.00      15.5         2.0562     0.1290                        2274000200784 
 23.00      16.5         1.8547     0.1280                        2274000200785 
 23.00      17.5         1.9178     0.1459                        2274000200786 
 23.00      18.5         1.9097     0.1466                        2274000200787 
 23.00      19.5         1.8456     0.1432                        2274000200788 
 23.00      20.5         1.8336     0.1407                        2274000200789 
 23.00      21.5         1.5279     0.1302                        2274000200790 
 23.00      22.5         1.4252     0.1257                        2274000200791 
 23.00      23.5         1.4703     0.1244                        2274000200792 
 23.00      24.5         1.4910     0.1228                        2274000200793 
 23.00      25.5         1.5965     0.1269                        2274000200794 
 23.00      26.5         1.3911     0.1203                        2274000200795 
 23.00      27.5         1.2086     0.1158                        2274000200796 
 23.00      28.5         1.1020     0.1142                        2274000200797 
 23.00      29.5         1.1445     0.1226                        2274000200798 
 24.00       0.5         2.4428     0.2379                        2274000200799 
 24.00       1.5         2.6077     0.1467                        2274000200800 
 24.00       2.5         2.5930     0.1984                        2274000200801 
 24.00       3.5         2.5146     0.2008                        2274000200802 
 24.00       4.5         2.4491     0.1937                        2274000200803 
 24.00       5.5         2.5757     0.2092                        2274000200804 
 24.00       6.5         2.4411     0.2004                        2274000200805 
 24.00       7.5         2.1833     0.1632                        2274000200806 
 24.00       8.5         2.3061     0.1645                        2274000200807 
 24.00       9.5         2.2629     0.1606                        2274000200808 
 24.00      10.5         2.1686     0.1649                        2274000200809 
 24.00      11.5         1.9198     0.1542                        2274000200810 
 24.00      12.5         1.9688     0.1394                        2274000200811 
 24.00      13.5         2.0759     0.1398                        2274000200812 
 24.00      14.5         2.0027     0.1350                        2274000200813 
 24.00      15.5         1.8741     0.1413                        2274000200814 
 24.00      16.5         1.7938     0.1245                        2274000200815 
 24.00      17.5         1.9617     0.1476                        2274000200816 
 24.00      18.5         1.7936     0.1434                        2274000200817 
 24.00      19.5         1.5738     0.1345                        2274000200818 
 24.00      20.5         1.9192     0.1434                        2274000200819 
 24.00      21.5         1.8154     0.1385                        2274000200820 
 24.00      22.5         1.5754     0.1302                        2274000200821 
 24.00      23.5         1.7058     0.1344                        2274000200822 
 24.00      24.5         1.2925     0.1173                        2274000200823 
 24.00      25.5         1.4234     0.1221                        2274000200824 
 24.00      26.5         1.4559     0.1223                        2274000200825 
 24.00      27.5         1.3628     0.1184                        2274000200826 
 24.00      28.5         1.2902     0.1164                        2274000200827 
 24.00      29.5         1.0453     0.1139                        2274000200828 
 25.00       0.5         2.7384     0.3976                        2274000200829 
 25.00       1.5         2.3233     0.2441                        2274000200830 
 25.00       2.5         2.2725     0.1988                        2274000200831 
 25.00       3.5         2.5076     0.1945                        2274000200832 
 25.00       4.5         2.2832     0.2053                        2274000200833 
 25.00       5.5         2.3591     0.2089                        2274000200834 
 25.00       6.5         2.1465     0.2033                        2274000200835 
 25.00       7.5         2.4770     0.1989                        2274000200836 
 25.00       8.5         2.5402     0.2098                        2274000200837 
 25.00       9.5         2.2545     0.1902                        2274000200838 
 25.00      10.5         2.2020     0.1709                        2274000200839 
 25.00      11.5         2.1542     0.1617                        2274000200840 
 25.00      12.5         2.1394     0.1377                        2274000200841 
 25.00      13.5         2.3312     0.1366                        2274000200842 
 25.00      14.5         2.0089     0.1372                        2274000200843 
 25.00      15.5         1.8640     0.1321                        2274000200844 
 25.00      16.5         1.9702     0.1323                        2274000200845 
 25.00      17.5         1.8440     0.1264                        2274000200846 
 25.00      18.5         1.8720     0.1457                        2274000200847 
 25.00      19.5         1.8634     0.1435                        2274000200848 
 25.00      20.5         1.7946     0.1394                        2274000200849 
 25.00      21.5         1.8313     0.1399                        2274000200850 
 25.00      22.5         1.8955     0.1410                        2274000200851 
 25.00      23.5         1.5841     0.1323                        2274000200852 
 25.00      24.5         1.4296     0.1227                        2274000200853 
 25.00      25.5         1.4494     0.1235                        2274000200854 
 25.00      26.5         1.5000     0.1244                        2274000200855 
 25.00      27.5         1.3659     0.1177                        2274000200856 
 25.00      28.5         1.2962     0.1150                        2274000200857 
 25.00      29.5         1.2638     0.1180                        2274000200858 
 26.00       0.5         2.8340     0.3891                        2274000200859 
 26.00       1.5         2.5193     0.2358                        2274000200860 
 26.00       2.5         2.4115     0.2004                        2274000200861 
 26.00       3.5         2.5229     0.2103                        2274000200862 
 26.00       4.5         2.4639     0.1919                        2274000200863 
 26.00       5.5         2.1121     0.2085                        2274000200864 
 26.00       6.5         2.3551     0.2038                        2274000200865 
 26.00       7.5         2.5087     0.2029                        2274000200866 
 26.00       8.5         2.2698     0.2057                        2274000200867 
 26.00       9.5         2.6551     0.2014                        2274000200868 
 26.00      10.5         2.3674     0.1761                        2274000200869 
 26.00      11.5         2.1905     0.1677                        2274000200870 
 26.00      12.5         2.0741     0.1426                        2274000200871 
 26.00      13.5         2.0278     0.1320                        2274000200872 
 26.00      14.5         2.0233     0.1287                        2274000200873 
 26.00      15.5         1.9895     0.1316                        2274000200874 
 26.00      16.5         1.8881     0.1267                        2274000200875 
 26.00      17.5         1.9555     0.1258                        2274000200876 
 26.00      18.5         1.9899     0.1479                        2274000200877 
 26.00      19.5         2.1528     0.1505                        2274000200878 
 26.00      20.5         1.6077     0.1336                        2274000200879 
 26.00      21.5         1.8252     0.1387                        2274000200880 
 26.00      22.5         1.8740     0.1414                        2274000200881 
 26.00      23.5         1.8817     0.1403                        2274000200882 
 26.00      24.5         1.4112     0.1226                        2274000200883 
 26.00      25.5         1.4887     0.1245                        2274000200884 
 26.00      26.5         1.2963     0.1170                        2274000200885 
 26.00      27.5         1.3393     0.1164                        2274000200886 
 26.00      28.5         1.4758     0.1195                        2274000200887 
 26.00      29.5         1.1993     0.1142                        2274000200888 
 27.00       0.5         3.3096     0.3794                        2274000200889 
 27.00       1.5         2.6521     0.2328                        2274000200890 
 27.00       2.5         2.4606     0.2004                        2274000200891 
 27.00       3.5         2.5202     0.2044                        2274000200892 
 27.00       4.5         2.4426     0.2049                        2274000200893 
 27.00       5.5         2.7520     0.2054                        2274000200894 
 27.00       6.5         2.6772     0.2074                        2274000200895 
 27.00       7.5         2.6036     0.1967                        2274000200896 
 27.00       8.5         2.4395     0.1880                        2274000200897 
 27.00       9.5         2.1419     0.1919                        2274000200898 
 27.00      10.5         2.2469     0.1718                        2274000200899 
 27.00      11.5         2.2372     0.1654                        2274000200900 
 27.00      12.5         2.1443     0.1396                        2274000200901 
 27.00      13.5         2.2567     0.1394                        2274000200902 
 27.00      14.5         2.2127     0.1476                        2274000200903 
 27.00      15.5         1.8232     0.1286                        2274000200904 
 27.00      16.5         2.1276     0.1344                        2274000200905 
 27.00      17.5         2.0706     0.1232                        2274000200906 
 27.00      18.5         1.9569     0.1475                        2274000200907 
 27.00      19.5         1.8601     0.1428                        2274000200908 
 27.00      20.5         1.9898     0.1458                        2274000200909 
 27.00      21.5         2.0486     0.1457                        2274000200910 
 27.00      22.5         1.8421     0.1413                        2274000200911 
 27.00      23.5         1.7237     0.1360                        2274000200912 
 27.00      24.5         1.6289     0.1291                        2274000200913 
 27.00      25.5         1.4922     0.1259                        2274000200914 
 27.00      26.5         1.2858     0.1171                        2274000200915 
 27.00      27.5         1.4160     0.1194                        2274000200916 
 27.00      28.5         1.4515     0.1195                        2274000200917 
 27.00      29.5         1.2242     0.1141                        2274000200918 
 28.00       0.5         2.4443     0.3907                        2274000200919 
 28.00       1.5         2.8049     0.2353                        2274000200920 
 28.00       2.5         2.7420     0.2007                        2274000200921 
 28.00       3.5         2.8145     0.2141                        2274000200922 
 28.00       4.5         2.3655     0.2089                        2274000200923 
 28.00       5.5         2.6668     0.2099                        2274000200924 
 28.00       6.5         2.5981     0.2028                        2274000200925 
 28.00       7.5         2.2079     0.1894                        2274000200926 
 28.00       8.5         2.2228     0.1940                        2274000200927 
 28.00       9.5         2.4166     0.1920                        2274000200928 
 28.00      10.5         2.3143     0.1737                        2274000200929 
 28.00      11.5         1.9869     0.1604                        2274000200930 
 28.00      12.5         2.2207     0.1433                        2274000200931 
 28.00      13.5         2.0147     0.1385                        2274000200932 
 28.00      14.5         1.8928     0.1325                        2274000200933 
 28.00      15.5         1.9735     0.1298                        2274000200934 
 28.00      16.5         1.8804     0.1282                        2274000200935 
 28.00      17.5         1.9802     0.1279                        2274000200936 
 28.00      18.5         1.7533     0.1418                        2274000200937 
 28.00      19.5         2.0968     0.1485                        2274000200938 
 28.00      20.5         2.1050     0.1488                        2274000200939 
 28.00      21.5         1.9305     0.1422                        2274000200940 
 28.00      22.5         1.6659     0.1344                        2274000200941 
 28.00      23.5         1.6583     0.1328                        2274000200942 
 28.00      24.5         1.6552     0.1295                        2274000200943 
 28.00      25.5         1.7203     0.1322                        2274000200944 
 28.00      26.5         1.3652     0.1198                        2274000200945 
 28.00      27.5         1.2317     0.1127                        2274000200946 
 28.00      28.5         1.2215     0.1134                        2274000200947 
 28.00      29.5         1.1756     0.1087                        2274000200948 
 29.00       0.5         1.8518     0.3755                        2274000200949 
 29.00       1.5         2.4887     0.2298                        2274000200950 
 29.00       2.5         2.6130     0.1986                        2274000200951 
 29.00       3.5         2.5573     0.2035                        2274000200952 
 29.00       4.5         2.4853     0.2026                        2274000200953 
 29.00       5.5         2.5107     0.2021                        2274000200954 
 29.00       6.5         2.8380     0.2140                        2274000200955 
 29.00       7.5         2.5927     0.2011                        2274000200956 
 29.00       8.5         2.2112     0.1999                        2274000200957 
 29.00       9.5         2.4246     0.1995                        2274000200958 
 29.00      10.5         2.3243     0.1727                        2274000200959 
 29.00      11.5         2.1960     0.1617                        2274000200960 
 29.00      12.5         2.0094     0.1411                        2274000200961 
 29.00      13.5         2.2705     0.1382                        2274000200962 
 29.00      14.5         2.2148     0.1343                        2274000200963 
 29.00      15.5         2.0804     0.1371                        2274000200964 
 29.00      16.5         1.9212     0.1235                        2274000200965 
 29.00      17.5         2.0145     0.1287                        2274000200966 
 29.00      18.5         1.9127     0.1465                        2274000200967 
 29.00      19.5         2.1356     0.1507                        2274000200968 
 29.00      20.5         2.1762     0.1511                        2274000200969 
 29.00      21.5         1.9031     0.1427                        2274000200970 
 29.00      22.5         1.6611     0.1358                        2274000200971 
 29.00      23.5         1.5299     0.1293                        2274000200972 
 29.00      24.5         1.5971     0.1278                        2274000200973 
 29.00      25.5         1.5567     0.1265                        2274000200974 
 29.00      26.5         1.4702     0.1239                        2274000200975 
 29.00      27.5         1.4358     0.1207                        2274000200976 
 29.00      28.5         1.3181     0.1172                        2274000200977 
 29.00      29.5         1.4064     0.1181                        2274000200978 
 30.00       0.5         2.2460     0.3822                        2274000200979 
 30.00       1.5         2.8312     0.2426                        2274000200980 
 30.00       2.5         2.7115     0.2062                        2274000200981 
 30.00       3.5         2.5261     0.2044                        2274000200982 
 30.00       4.5         2.4163     0.1991                        2274000200983 
 30.00       5.5         2.8154     0.2138                        2274000200984 
 30.00       6.5         2.5465     0.2021                        2274000200985 
 30.00       7.5         2.2545     0.2072                        2274000200986 
 30.00       8.5         2.2699     0.2043                        2274000200987 
 30.00       9.5         2.3088     0.2018                        2274000200988 
 30.00      10.5         2.0627     0.2235                        2274000200989 
 30.00      11.5         2.0517     0.2211                        2274000200990 
 30.00      12.5         2.0386     0.1379                        2274000200991 
 30.00      13.5         1.9932     0.1374                        2274000200992 
 30.00      14.5         2.1337     0.1349                        2274000200993 
 30.00      15.5         1.9248     0.1272                        2274000200994 
 30.00      16.5         1.9016     0.1264                        2274000200995 
 30.00      17.5         2.0370     0.1279                        2274000200996 
 30.00      18.5         1.5767     0.1371                        2274000200997 
 30.00      19.5         1.6148     0.1355                        2274000200998 
 30.00      20.5         1.9018     0.1445                        2274000200999 
 30.00      21.5         2.0007     0.1456                        2274000201000 
 30.00      22.5         1.7519     0.1388                        2274000201001 
 30.00      23.5         1.6178     0.1321                        2274000201002 
 30.00      24.5         1.6850     0.1277                        2274000201003 
 30.00      25.5         1.5718     0.1284                        2274000201004 
 30.00      26.5         1.5354     0.1253                        2274000201005 
 30.00      27.5         1.5375     0.1242                        2274000201006 
 30.00      28.5         1.5437     0.1235                        2274000201007 
 30.00      29.5         1.6857     0.1239                        2274000201008 
 31.00       0.5         3.0023     0.3938                        2274000201009 
 31.00       1.5         2.9282     0.2480                        2274000201010 
 31.00       2.5         2.5680     0.2018                        2274000201011 
 31.00       3.5         2.6048     0.2082                        2274000201012 
 31.00       4.5         2.4172     0.2016                        2274000201013 
 31.00       5.5         2.7477     0.2073                        2274000201014 
 31.00       6.5         2.7159     0.2106                        2274000201015 
 31.00       7.5         2.3986     0.2135                        2274000201016 
 31.00       8.5         2.5057     0.2055                        2274000201017 
 31.00       9.5         2.6098     0.1993                        2274000201018 
 31.00      10.5         2.2374     0.2349                        2274000201019 
 31.00      11.5         2.3142     0.2121                        2274000201020 
 31.00      12.5         2.1007     0.1395                        2274000201021 
 31.00      13.5         2.1820     0.1336                        2274000201022 
 31.00      14.5         2.1462     0.1366                        2274000201023 
 31.00      15.5         1.8590     0.1362                        2274000201024 
 31.00      16.5         1.6492     0.1312                        2274000201025 
 31.00      17.5         1.7867     0.1261                        2274000201026 
 31.00      18.5         1.7989     0.1422                        2274000201027 
 31.00      19.5         2.0016     0.1478                        2274000201028 
 31.00      20.5         1.6529     0.1366                        2274000201029 
 31.00      21.5         1.8529     0.1411                        2274000201030 
 31.00      22.5         1.3590     0.1274                        2274000201031 
 31.00      23.5         1.7513     0.1338                        2274000201032 
 31.00      24.5         1.7004     0.1316                        2274000201033 
 31.00      25.5         1.3329     0.1205                        2274000201034 
 31.00      26.5         1.4757     0.1254                        2274000201035 
 31.00      27.5         1.5636     0.1246                        2274000201036 
 31.00      28.5         1.3519     0.1191                        2274000201037 
 31.00      29.5         1.6802     0.1261                        2274000201038 
 32.00       0.5         2.5246     0.4346                        2274000201039 
 32.00       1.5         2.7666     0.2480                        2274000201040 
 32.00       2.5         2.1906     0.1966                        2274000201041 
 32.00       3.5         2.7809     0.2130                        2274000201042 
 32.00       4.5         2.3595     0.1998                        2274000201043 
 32.00       5.5         2.6921     0.2071                        2274000201044 
 32.00       6.5         2.6723     0.2011                        2274000201045 
 32.00       7.5         2.3800     0.2080                        2274000201046 
 32.00       8.5         2.4343     0.2092                        2274000201047 
 32.00       9.5         2.4010     0.1924                        2274000201048 
 32.00      10.5         1.9942     0.2228                        2274000201049 
 32.00      11.5         2.2506     0.2439                        2274000201050 
 32.00      12.5         2.0820     0.1394                        2274000201051 
 32.00      13.5         2.3580     0.1393                        2274000201052 
 32.00      14.5         2.1904     0.1391                        2274000201053 
 32.00      15.5         1.8782     0.1352                        2274000201054 
 32.00      16.5         1.6306     0.1311                        2274000201055 
 32.00      17.5         2.0512     0.1297                        2274000201056 
 32.00      18.5         1.6382     0.1347                        2274000201057 
 32.00      19.5         1.8737     0.1456                        2274000201058 
 32.00      20.5         2.0611     0.1496                        2274000201059 
 32.00      21.5         1.9382     0.1438                        2274000201060 
 32.00      22.5         1.6209     0.1342                        2274000201061 
 32.00      23.5         1.7719     0.1368                        2274000201062 
 32.00      24.5         1.6463     0.1287                        2274000201063 
 32.00      25.5         1.5018     0.1256                        2274000201064 
 32.00      26.5         1.4660     0.1255                        2274000201065 
 32.00      27.5         1.7327     0.1295                        2274000201066 
 32.00      28.5         1.4533     0.1209                        2274000201067 
 32.00      29.5         1.4004     0.1161                        2274000201068 
 33.00       0.5         2.6710     0.3963                        2274000201069 
 33.00       1.5         2.5779     0.2436                        2274000201070 
 33.00       2.5         2.5043     0.2024                        2274000201071 
 33.00       3.5         2.4822     0.2028                        2274000201072 
 33.00       4.5         2.3621     0.2011                        2274000201073 
 33.00       5.5         2.4510     0.2076                        2274000201074 
 33.00       6.5         2.6425     0.1998                        2274000201075 
 33.00       7.5         2.3902     0.2002                        2274000201076 
 33.00       8.5         2.0837     0.1931                        2274000201077 
 33.00       9.5         2.2963     0.1852                        2274000201078 
 33.00      10.5         2.3740     0.2185                        2274000201079 
 33.00      11.5         2.0683     0.2290                        2274000201080 
 33.00      12.5         1.9919     0.1333                        2274000201081 
 33.00      13.5         2.1191     0.1329                        2274000201082 
 33.00      14.5         1.9708     0.1355                        2274000201083 
 33.00      15.5         1.9392     0.1363                        2274000201084 
 33.00      16.5         1.7881     0.1303                        2274000201085 
 33.00      17.5         1.9996     0.1245                        2274000201086 
 33.00      18.5         0.0                                      2274000201087 
 33.00      19.5         1.8814     0.1466                        2274000201088 
 33.00      20.5         1.9095     0.1435                        2274000201089 
 33.00      21.5         1.8553     0.1402                        2274000201090 
 33.00      22.5         1.8441     0.1403                        2274000201091 
 33.00      23.5         1.9464     0.1417                        2274000201092 
 33.00      24.5         1.6405     0.1299                        2274000201093 
 33.00      25.5         1.7259     0.1320                        2274000201094 
 33.00      26.5         1.6242     0.1272                        2274000201095 
 33.00      27.5         1.7403     0.1277                        2274000201096 
 33.00      28.5         1.3450     0.1172                        2274000201097 
 33.00      29.5         1.6002     0.1231                        2274000201098 
 34.00       0.5         2.3426     0.3654                        2274000201099 
 34.00       1.5         2.3088     0.2315                        2274000201100 
 34.00       2.5         2.2900     0.2021                        2274000201101 
 34.00       3.5         2.6631     0.2097                        2274000201102 
 34.00       4.5         2.8030     0.2097                        2274000201103 
 34.00       5.5         2.6903     0.2084                        2274000201104 
 34.00       6.5         2.5577     0.2071                        2274000201105 
 34.00       7.5         2.3267     0.1913                        2274000201106 
 34.00       8.5         2.3651     0.2019                        2274000201107 
 34.00       9.5         2.0763     0.1858                        2274000201108 
 34.00      10.5         2.4826     0.2429                        2274000201109 
 34.00      11.5         1.9579     0.2250                        2274000201110 
 34.00      12.5         1.8372     0.1271                        2274000201111 
 34.00      13.5         2.0041     0.1317                        2274000201112 
 34.00      14.5         1.9300     0.1369                        2274000201113 
 34.00      15.5         1.8682     0.1342                        2274000201114 
 34.00      16.5         1.7709     0.1312                        2274000201115 
 34.00      17.5         1.6939     0.1265                        2274000201116 
 34.00      18.5         0.0                                      2274000201117 
 34.00      19.5         1.8686     0.1464                        2274000201118 
 34.00      20.5         1.9380     0.1463                        2274000201119 
 34.00      21.5         1.9763     0.1446                        2274000201120 
 34.00      22.5         1.8697     0.1408                        2274000201121 
 34.00      23.5         1.7605     0.1354                        2274000201122 
 34.00      24.5         1.8601     0.1365                        2274000201123 
 34.00      25.5         1.7397     0.1319                        2274000201124 
 34.00      26.5         1.6167     0.1288                        2274000201125 
 34.00      27.5         1.5664     0.1236                        2274000201126 
 34.00      28.5         1.7196     0.1280                        2274000201127 
 34.00      29.5         1.4809     0.1188                        2274000201128 
 35.00       0.5         2.4152     0.3769                        2274000201129 
 35.00       1.5         2.3922     0.2306                        2274000201130 
 35.00       2.5         2.8953     0.3735                        2274000201131 
 35.00       3.5         2.4881     0.3709                        2274000201132 
 35.00       4.5         2.8607     0.3642                        2274000201133 
 35.00       5.5         2.8621     0.3635                        2274000201134 
 35.00       6.5         2.4756     0.1999                        2274000201135 
 35.00       7.5         2.5440     0.1965                        2274000201136 
 35.00       8.5         2.2722     0.2007                        2274000201137 
 35.00       9.5         1.9650     0.1813                        2274000201138 
 35.00      10.5         2.1724     0.2354                        2274000201139 
 35.00      11.5         1.7005     0.2264                        2274000201140 
 35.00      12.5         0.0                                      2274000201141 
 35.00      13.5         2.1329     0.1354                        2274000201142 
 35.00      14.5         2.2029     0.1393                        2274000201143 
 35.00      15.5         1.9473     0.1352                        2274000201144 
 35.00      16.5         1.9284     0.1330                        2274000201145 
 35.00      17.5         1.8955     0.1273                        2274000201146 
 35.00      18.5         0.0                                      2274000201147 
 35.00      19.5         0.0                                      2274000201148 
 35.00      20.5         1.8191     0.1422                        2274000201149 
 35.00      21.5         2.0210     0.1459                        2274000201150 
 35.00      22.5         1.5829     0.1323                        2274000201151 
 35.00      23.5         1.9812     0.1411                        2274000201152 
 35.00      24.5         1.6334     0.1316                        2274000201153 
 35.00      25.5         1.6446     0.1295                        2274000201154 
 35.00      26.5         1.5509     0.1261                        2274000201155 
 35.00      27.5         1.5847     0.1246                        2274000201156 
 35.00      28.5         1.3976     0.1183                        2274000201157 
 35.00      29.5         1.3251     0.1146                        2274000201158 
 36.00       0.5         3.2568     0.3941                        2274000201159 
 36.00       1.5         2.6665     0.2400                        2274000201160 
 36.00       2.5         2.4864     0.3376                        2274000201161 
 36.00       3.5         2.6620     0.3830                        2274000201162 
 36.00       4.5         2.9425     0.3350                        2274000201163 
 36.00       5.5         2.5068     0.3695                        2274000201164 
 36.00       6.5         2.3509     0.1893                        2274000201165 
 36.00       7.5         2.6896     0.2093                        2274000201166 
 36.00       8.5         2.5569     0.2003                        2274000201167 
 36.00       9.5         2.2814     0.1942                        2274000201168 
 36.00      10.5         2.1661     0.2379                        2274000201169 
 36.00      11.5         1.9445     0.2377                        2274000201170 
 36.00      12.5         0.0                                      2274000201171 
 36.00      13.5         0.0                                      2274000201172 
 36.00      14.5         2.0303     0.1307                        2274000201173 
 36.00      15.5         1.9004     0.1305                        2274000201174 
 36.00      16.5         2.0424     0.1309                        2274000201175 
 36.00      17.5         1.9118     0.1234                        2274000201176 
 36.00      18.5         0.0                                      2274000201177 
 36.00      19.5         0.0                                      2274000201178 
 36.00      20.5         1.9785     0.1468                        2274000201179 
 36.00      21.5         2.1389     0.1492                        2274000201180 
 36.00      22.5         1.8432     0.1399                        2274000201181 
 36.00      23.5         1.8368     0.1363                        2274000201182 
 36.00      24.5         1.7217     0.1347                        2274000201183 
 36.00      25.5         1.7166     0.1318                        2274000201184 
 36.00      26.5         1.7173     0.1304                        2274000201185 
 36.00      27.5         1.9054     0.1335                        2274000201186 
 36.00      28.5         1.6461     0.1246                        2274000201187 
 36.00      29.5         1.3815     0.1159                        2274000201188 
 37.00       0.5         1.8787     0.3648                        2274000201189 
 37.00       1.5         2.8505     0.2539                        2274000201190 
 37.00       2.5         2.7688     0.3601                        2274000201191 
 37.00       3.5         3.0829     0.3968                        2274000201192 
 37.00       4.5         3.3868     0.3874                        2274000201193 
 37.00       5.5         3.0303     0.3853                        2274000201194 
 37.00       6.5         2.5734     0.2038                        2274000201195 
 37.00       7.5         2.6038     0.2043                        2274000201196 
 37.00       8.5         2.4575     0.2004                        2274000201197 
 37.00       9.5         2.1146     0.2017                        2274000201198 
 37.00      10.5         2.0085     0.2201                        2274000201199 
 37.00      11.5         2.2808     0.2264                        2274000201200 
 37.00      12.5         0.0                                      2274000201201 
 37.00      13.5         0.0                                      2274000201202 
 37.00      14.5         0.0                                      2274000201203 
 37.00      15.5         1.7929     0.1276                        2274000201204 
 37.00      16.5         1.8304     0.1267                        2274000201205 
 37.00      17.5         1.9011     0.1315                        2274000201206 
 37.00      18.5         0.0                                      2274000201207 
 37.00      19.5         0.0                                      2274000201208 
 37.00      20.5         1.8505     0.1435                        2274000201209 
 37.00      21.5         2.1503     0.1505                        2274000201210 
 37.00      22.5         2.2912     0.1519                        2274000201211 
 37.00      23.5         1.9372     0.1391                        2274000201212 
 37.00      24.5         1.5847     0.1305                        2274000201213 
 37.00      25.5         1.7131     0.1318                        2274000201214 
 37.00      26.5         1.7617     0.1289                        2274000201215 
 37.00      27.5         1.4871     0.1218                        2274000201216 
 37.00      28.5         1.7101     0.1247                        2274000201217 
 37.00      29.5         1.6956     0.1255                        2274000201218 
 38.00       0.5         2.7162     0.4048                        2274000201219 
 38.00       1.5         2.7012     0.2579                        2274000201220 
 38.00       2.5         2.8816     0.3633                        2274000201221 
 38.00       3.5         3.4663     0.3948                        2274000201222 
 38.00       4.5         2.9604     0.3620                        2274000201223 
 38.00       5.5         2.5995     0.3671                        2274000201224 
 38.00       6.5         2.2446     0.2064                        2274000201225 
 38.00       7.5         2.6041     0.1949                        2274000201226 
 38.00       8.5         2.2963     0.2001                        2274000201227 
 38.00       9.5         2.4442     0.1986                        2274000201228 
 38.00      10.5         2.2241     0.2512                        2274000201229 
 38.00      11.5         1.7508     0.2062                        2274000201230 
 38.00      12.5         0.0                                      2274000201231 
 38.00      13.5         0.0                                      2274000201232 
 38.00      14.5         0.0                                      2274000201233 
 38.00      15.5         1.8044     0.1308                        2274000201234 
 38.00      16.5         1.9956     0.1309                        2274000201235 
 38.00      17.5         1.9584     0.1325                        2274000201236 
 38.00      18.5         0.0                                      2274000201237 
 38.00      19.5         0.0                                      2274000201238 
 38.00      20.5         0.0                                      2274000201239 
 38.00      21.5         1.9665     0.1458                        2274000201240 
 38.00      22.5         1.9204     0.1418                        2274000201241 
 38.00      23.5         1.7511     0.1340                        2274000201242 
 38.00      24.5         1.9454     0.1382                        2274000201243 
 38.00      25.5         1.6430     0.1291                        2274000201244 
 38.00      26.5         1.7027     0.1285                        2274000201245 
 38.00      27.5         1.3903     0.1190                        2274000201246 
 38.00      28.5         1.7485     0.1271                        2274000201247 
 38.00      29.5         1.5868     0.1222                        2274000201248 
 39.00       0.5         2.6139     0.3800                        2274000201249 
 39.00       1.5         2.2977     0.2412                        2274000201250 
 39.00       2.5         3.1514     0.3800                        2274000201251 
 39.00       3.5         2.7724     0.3636                        2274000201252 
 39.00       4.5         2.9494     0.3793                        2274000201253 
 39.00       5.5         2.7177     0.3771                        2274000201254 
 39.00       6.5         2.4926     0.2087                        2274000201255 
 39.00       7.5         2.9406     0.2111                        2274000201256 
 39.00       8.5         2.5501     0.1999                        2274000201257 
 39.00       9.5         2.3859     0.1978                        2274000201258 
 39.00      10.5         2.0944     0.2359                        2274000201259 
 39.00      11.5         1.7260     0.2296                        2274000201260 
 39.00      12.5         0.0                                      2274000201261 
 39.00      13.5         0.0                                      2274000201262 
 39.00      14.5         0.0                                      2274000201263 
 39.00      15.5         1.6597     0.1288                        2274000201264 
 39.00      16.5         1.7161     0.1192                        2274000201265 
 39.00      17.5         1.8726     0.1299                        2274000201266 
 39.00      18.5         0.0                                      2274000201267 
 39.00      19.5         0.0                                      2274000201268 
 39.00      20.5         0.0                                      2274000201269 
 39.00      21.5         0.0                                      2274000201270 
 39.00      22.5         1.6658     0.1348                        2274000201271 
 39.00      23.5         1.8757     0.1377                        2274000201272 
 39.00      24.5         1.8365     0.1381                        2274000201273 
 39.00      25.5         1.5462     0.1272                        2274000201274 
 39.00      26.5         1.6468     0.1254                        2274000201275 
 39.00      27.5         1.6368     0.1267                        2274000201276 
 39.00      28.5         1.6249     0.1252                        2274000201277 
 39.00      29.5         1.5154     0.1207                        2274000201278 
ENDDATA           1262          0                                 2274000201279 
ENDSUBENT         1278          0                                 2274000299999 
ENDENTRY             2          0                                 2274099999999 
