ENTRY            23120   20110726                             22282312000000001 
SUBENT        23120001   20110726                             22282312000100001 
BIB                 10         43                                 2312000100002 
TITLE       Measurement of the Cm-245(n,f) cross section in the   2312000100003 
            resolved resonance region.                            2312000100004 
AUTHOR     (O.Serot, C.Wagemans, S.Vermote, J.Van Gils, B.Habert) 2312000100005 
INSTITUTE  (2ZZZGEL) J.Van Gils                                   2312000100006 
           (2FR CAD) O.Serot, B.Habert                            2312000100007 
           (2BLGGHT) C.Wagemans, S.Vermote                        2312000100008 
REFERENCE  (S,AIP-1175,207,2011)                                  2312000100009 
            Proc.of Int.Workshop on Nuclear Fission and           2312000100010 
            Fission-product Spectroscopy.                         2312000100011 
           (J,KPS,59,1896,2011) ND2010 Conf.Proc. paper #1506;    2312000100012 
           in ND2010 Abstract book, page 65.                      2312000100013 
FACILITY   (ACCEL,2ZZZGEL) GELINA neutron facility of IRMM, Geel. 2312000100014 
           Repetition frequency of the accelerator 800 Hz.        2312000100015 
INC-SOURCE (BRST,PHOTO) Pulsed, compressed electron beam hits     2312000100016 
           rotating U target, producing bremsstrahlung gamma rays,2312000100017 
           created neutrons via (gamma,n) and (gamma,f) reactions.2312000100018 
           Neutrons are then moderated in 4 cm thick water-filled 2312000100019 
           beryllium containers.                                  2312000100020 
           Cadmium filter is placed in front of the chamber to    2312000100021 
           remove overlapping neutrons from previous bursts.      2312000100022 
DETECTOR   (SIBAR) Two Si-Au surface barrier detectors to detect  2312000100023 
           fission fragments from Cm and alphas from monitor.     2312000100024 
METHOD     (TOF) Length of the flight path is 9.3 m.              2312000100025 
           Incident neutron energy was determined by TOF.         2312000100026 
            Two runs:                                             2312000100027 
           -With highly enriched U-235 sample - to determine the  2312000100028 
           detection geometry factors on both sides and to check  2312000100029 
           if the U-235(n,f) cross section can be reproduced.     2312000100030 
           Gave confidence in the good functioning of exp. setup. 2312000100031 
           -With Cm sample at the same detection geometry.        2312000100032 
           *To remove spontaneous fission contributions,          2312000100033 
           additional run with the beam closed was performed using2312000100034 
           a pulse generator. Background measurement on the boron 2312000100035 
           side was done with the black resonances filters of Rh, 2312000100036 
           Au, Mn, W, Co.                                         2312000100037 
MONITOR    (5-B-10(N,A)3-LI-7,,SIG) For neutron flux determination2312000100038 
           (92-U-235(N,F),,SIG)To detection geometry factors.     2312000100039 
HISTORY    (20101106C)       M.M.                                 2312000100040 
           Request for the data was sent 10.11.2010 to O.Serot.   2312000100041 
           (20110726A) M.M. Ref. J,KPS,59,1896,2011 was added.    2312000100042 
           Authors' data were added in Subent 002.                2312000100043 
           Subent 004 was added.                                  2312000100044 
            BIB information was added.                            2312000100045 
ENDBIB              43          0                                 2312000100046 
NOCOMMON             0          0                                 2312000100047 
ENDSUBENT           46          0                                 2312000199999 
SUBENT        23120002   20110726                             22282312000200001 
BIB                  7         30                                 2312000200002 
REACTION   (96-CM-245(N,F),,SIG)                                  2312000200003 
SAMPLE     Curium oxide sample of 50 microg/cm**2 thickness,active2312000200004 
           diameter 15 mm was mounted in the centre of a vacuum   2312000200005 
           chamber, back-to-back with B-10 layer.                 2312000200006 
           Isotopic composition in March 2003 : Cm-245 - 98.48%,  2312000200007 
           Cm-244 - 1.11%, Cm-246 - 0.405%, Cm-247 - 0.008%,      2312000200008 
           Cm-248 - 0.002%.                                       2312000200009 
REL-REF    (A,10730001,J.C.Brown+,J,NSE,65,166,1978)              2312000200010 
            The energy resolution was improve between 10 and 20 eV2312000200011 
            compared to Browne+ measurement.                      2312000200012 
           (A,10121001,M.S.Moore+,J,PR/C,3,1656,1971)             2312000200013 
            Nice agreement with Moore+ measurement.               2312000200014 
           (D,13993003,R M.White+,C,79KNOX,,496,1979)             2312000200015 
            White+ measurement shows a shift in energy due to     2312000200016 
            a problem of energy calibration.                      2312000200017 
           (N,,C.De Saint Jean+,C,2007NICE,1,251,2007) CONRAD code2312000200018 
ADD-RES     New set of resonance parameters will be determined in 2312000200019 
           near future. Resolved resonance energy region (ends at 2312000200020 
           100 eV in Maslov's evaluation (adopted by JEFF3.1,     2312000200021 
           ENDF/B-VII.O, JENDL 3.3) can be probably extended.     2312000200022 
           Experimental data were analyzed with the CONRAD code   2312000200023 
           developed recently at CEA-Cadarache, to determine the  2312000200024 
           resonance parameters using the Reich-Moore formalism.  2312000200025 
ERR-ANALYS (DATA-ERR) Not specified, probably total.              2312000200026 
STATUS     (TABLE) Data from O.Serot.                             2312000200027 
           (PRELM) Preliminary results.                           2312000200028 
            Figs.4,5,6 of J,KPS,58,(1506),2011.                   2312000200029 
            Fig.4 of S,AIP-1175,207,2010.                         2312000200030 
HISTORY    (20110718R) Data were received from Oliver Serot via   2312000200031 
             N.Otsuka (NDS, IAEA).                                2312000200032 
ENDBIB              30          0                                 2312000200033 
NOCOMMON             0          0                                 2312000200034 
DATA                 3       1122                                 2312000200035 
EN         DATA       DATA-ERR                                    2312000200036 
EV         B          B                                           2312000200037 
  3.9470E-1  2.40660E2     1.31E1                                 2312000200038 
  4.0480E-1  2.00037E2     1.10E1                                 2312000200039 
  4.1500E-1  2.89874E2     1.35E1                                 2312000200040 
  4.2540E-1  2.61218E2     1.20E1                                 2312000200041 
  4.3590E-1  1.60598E2     8.32E0                                 2312000200042 
  4.4650E-1  2.87026E2     1.20E1                                 2312000200043 
  4.5730E-1  1.98149E2     9.22E0                                 2312000200044 
  4.6820E-1  2.06825E2     9.31E0                                 2312000200045 
  4.7920E-1  1.64791E2     7.73E0                                 2312000200046 
  4.9030E-1  2.31404E2     9.43E0                                 2312000200047 
  5.0160E-1  1.85357E2     8.02E0                                 2312000200048 
  5.1300E-1  1.88670E2     8.02E0                                 2312000200049 
  5.2450E-1  2.01392E2     8.20E0                                 2312000200050 
  5.3620E-1  2.59193E2     9.69E0                                 2312000200051 
  5.4790E-1  2.36555E2     8.96E0                                 2312000200052 
  5.5980E-1  2.50690E2     9.35E0                                 2312000200053 
  5.7190E-1  1.99611E2     8.11E0                                 2312000200054 
  5.8400E-1  2.29268E2     8.91E0                                 2312000200055 
  5.9630E-1  1.91602E2     7.94E0                                 2312000200056 
  6.0880E-1  2.46625E2     9.43E0                                 2312000200057 
  6.2130E-1  1.86211E2     7.83E0                                 2312000200058 
  6.3400E-1  2.06264E2     8.30E0                                 2312000200059 
  6.4680E-1  2.37046E2     9.10E0                                 2312000200060 
  6.5970E-1  2.11260E2     8.48E0                                 2312000200061 
  6.7280E-1  2.14605E2     8.64E0                                 2312000200062 
  6.8600E-1  1.95926E2     8.10E0                                 2312000200063 
  6.9930E-1  2.16907E2     8.85E0                                 2312000200064 
  7.1270E-1  2.08676E2     8.54E0                                 2312000200065 
  7.2630E-1  1.64064E2     7.33E0                                 2312000200066 
  7.4000E-1  1.96611E2     8.18E0                                 2312000200067 
  7.5380E-1  2.28509E2     8.94E0                                 2312000200068 
  7.6780E-1  2.41773E2     9.47E0                                 2312000200069 
  7.8190E-1  2.15381E2     8.67E0                                 2312000200070 
  7.9610E-1  2.01241E2     8.51E0                                 2312000200071 
  8.1040E-1  2.19673E2     8.91E0                                 2312000200072 
  8.2490E-1  2.38935E2     9.34E0                                 2312000200073 
  8.3950E-1  2.25840E2     9.03E0                                 2312000200074 
  8.5420E-1  2.24060E2     9.00E0                                 2312000200075 
  8.6900E-1  1.69326E2     7.60E0                                 2312000200076 
  8.8400E-1  1.90691E2     8.28E0                                 2312000200077 
  8.9910E-1  1.61313E2     7.45E0                                 2312000200078 
  9.1440E-1  2.53511E2     9.94E0                                 2312000200079 
  9.2970E-1  2.24229E2     9.16E0                                 2312000200080 
  9.4520E-1  2.15173E2     9.01E0                                 2312000200081 
  9.6080E-1  1.65893E2     7.67E0                                 2312000200082 
  9.7660E-1  1.63181E2     7.57E0                                 2312000200083 
  9.9250E-1  1.72801E2     7.88E0                                 2312000200084 
  1.0085E+0  2.08791E2     8.88E0                                 2312000200085 
  1.0246E+0  1.69250E2     8.11E0                                 2312000200086 
  1.0409E+0  1.49855E2     7.49E0                                 2312000200087 
  1.0573E+0  1.67686E2     8.16E0                                 2312000200088 
  1.0738E+0  1.85021E2     8.51E0                                 2312000200089 
  1.0904E+0  1.58357E2     7.82E0                                 2312000200090 
  1.1072E+0  1.43984E2     7.42E0                                 2312000200091 
  1.1241E+0  1.69348E2     8.25E0                                 2312000200092 
  1.1411E+0  1.51616E2     7.84E0                                 2312000200093 
  1.1583E+0  1.59820E2     8.02E0                                 2312000200094 
  1.1756E+0  1.45995E2     7.66E0                                 2312000200095 
  1.1930E+0  1.26564E2     6.98E0                                 2312000200096 
  1.2105E+0  1.49455E2     7.75E0                                 2312000200097 
  1.2282E+0  1.61713E2     8.05E0                                 2312000200098 
  1.2460E+0  1.56835E2     8.14E0                                 2312000200099 
  1.2639E+0  1.26296E2     7.29E0                                 2312000200100 
  1.2819E+0  1.35853E2     7.65E0                                 2312000200101 
  1.3001E+0  1.15461E2     7.00E0                                 2312000200102 
  1.3184E+0  1.33389E2     7.42E0                                 2312000200103 
  1.3369E+0  1.12417E2     6.68E0                                 2312000200104 
  1.3554E+0  1.47646E2     7.89E0                                 2312000200105 
  1.3741E+0  1.20399E2     6.98E0                                 2312000200106 
  1.3929E+0  8.51916E1     6.02E0                                 2312000200107 
  1.4119E+0  7.04337E1     5.28E0                                 2312000200108 
  1.4310E+0  7.74213E1     5.69E0                                 2312000200109 
  1.4502E+0  1.19573E2     7.29E0                                 2312000200110 
  1.4695E+0  1.00331E2     6.74E0                                 2312000200111 
  1.4890E+0  8.81949E1     6.20E0                                 2312000200112 
  1.5085E+0  9.65601E1     6.56E0                                 2312000200113 
  1.5283E+0  1.07649E2     6.87E0                                 2312000200114 
  1.5481E+0  5.37496E1     4.50E0                                 2312000200115 
  1.5681E+0  3.98315E1     3.63E0                                 2312000200116 
  1.5882E+0  8.56400E1     6.13E0                                 2312000200117 
  1.6084E+0  8.65990E1     6.45E0                                 2312000200118 
  1.6288E+0  9.70796E1     6.74E0                                 2312000200119 
  1.6492E+0  1.20392E2     7.70E0                                 2312000200120 
  1.6699E+0  9.73569E1     6.81E0                                 2312000200121 
  1.6906E+0  4.79502E1     4.52E0                                 2312000200122 
  1.7115E+0  1.18803E2     7.58E0                                 2312000200123 
  1.7325E+0  9.59028E1     6.48E0                                 2312000200124 
  1.7536E+0  1.09076E2     6.84E0                                 2312000200125 
  1.7748E+0  1.22290E2     7.46E0                                 2312000200126 
  1.7962E+0  1.76392E2     9.37E0                                 2312000200127 
  1.8177E+0  2.20507E2     1.05E1                                 2312000200128 
  1.8394E+0  2.55065E2     1.14E1                                 2312000200129 
  1.8611E+0  2.57529E2     1.12E1                                 2312000200130 
  1.8830E+0  3.62914E2     1.34E1                                 2312000200131 
  1.9050E+0  4.01889E2     1.41E1                                 2312000200132 
  1.9272E+0  5.11680E2     1.61E1                                 2312000200133 
  1.9495E+0  5.40658E2     1.66E1                                 2312000200134 
  1.9719E+0  5.67889E2     1.71E1                                 2312000200135 
  1.9944E+0  5.95595E2     1.76E1                                 2312000200136 
  2.0170E+0  5.57697E2     1.71E1                                 2312000200137 
  2.0398E+0  4.79424E2     1.57E1                                 2312000200138 
  2.0627E+0  4.18515E2     1.48E1                                 2312000200139 
  2.0858E+0  4.03093E2     1.46E1                                 2312000200140 
  2.1090E+0  3.95643E2     1.45E1                                 2312000200141 
  2.1323E+0  3.38962E2     1.35E1                                 2312000200142 
  2.1557E+0  3.07962E2     1.29E1                                 2312000200143 
  2.1792E+0  2.94722E2     1.26E1                                 2312000200144 
  2.2029E+0  2.77054E2     1.21E1                                 2312000200145 
  2.2267E+0  2.83353E2     1.24E1                                 2312000200146 
  2.2507E+0  2.60112E2     1.19E1                                 2312000200147 
  2.2748E+0  2.41663E2     1.15E1                                 2312000200148 
  2.2989E+0  2.50732E2     1.17E1                                 2312000200149 
  2.3233E+0  2.19272E2     1.10E1                                 2312000200150 
  2.3477E+0  2.07181E2     1.06E1                                 2312000200151 
  2.3723E+0  1.98457E2     1.04E1                                 2312000200152 
  2.3970E+0  2.03835E2     1.07E1                                 2312000200153 
  2.4218E+0  1.79967E2     1.00E1                                 2312000200154 
  2.4468E+0  1.86240E2     1.04E1                                 2312000200155 
  2.4719E+0  2.06208E2     1.11E1                                 2312000200156 
  2.4971E+0  2.05098E2     1.08E1                                 2312000200157 
  2.5225E+0  1.97945E2     1.07E1                                 2312000200158 
  2.5479E+0  2.15668E2     1.12E1                                 2312000200159 
  2.5735E+0  1.56904E2     9.41E0                                 2312000200160 
  2.5993E+0  1.65836E2     9.79E0                                 2312000200161 
  2.6251E+0  1.67690E2     9.84E0                                 2312000200162 
  2.6511E+0  1.45867E2     9.36E0                                 2312000200163 
  2.6772E+0  1.19233E2     8.45E0                                 2312000200164 
  2.7035E+0  1.12617E2     8.16E0                                 2312000200165 
  2.7299E+0  7.01877E1     6.34E0                                 2312000200166 
  2.7564E+0  7.33463E1     6.69E0                                 2312000200167 
  2.7830E+0  6.95824E1     6.38E0                                 2312000200168 
  2.8097E+0  5.81451E1     5.66E0                                 2312000200169 
  2.8366E+0  3.91308E1     4.49E0                                 2312000200170 
  2.8636E+0  4.25666E1     5.03E0                                 2312000200171 
  2.9730E+0  7.82144E0     1.96E0                                 2312000200172 
  3.0006E+0  1.77982E1     2.99E0                                 2312000200173 
  3.0284E+0  6.66391E0     1.75E0                                 2312000200174 
  3.0563E+0  5.01772E1     5.63E0                                 2312000200175 
  3.0843E+0  2.21795E1     4.12E0                                 2312000200176 
  3.1408E+0  1.44470E1     3.11E0                                 2312000200177 
  3.1692E+0  2.46104E1     4.07E0                                 2312000200178 
  3.1978E+0  6.93853E0     1.79E0                                 2312000200179 
  3.2264E+0  3.04474E1     4.66E0                                 2312000200180 
  3.2552E+0  4.48269E1     5.21E0                                 2312000200181 
  3.2842E+0  2.51667E1     4.19E0                                 2312000200182 
  3.3132E+0  6.51715E1     6.51E0                                 2312000200183 
  3.3424E+0  3.58170E1     4.64E0                                 2312000200184 
  3.3717E+0  2.39631E1     3.88E0                                 2312000200185 
  3.4012E+0  6.02464E1     6.40E0                                 2312000200186 
  3.4307E+0  7.99707E1     7.60E0                                 2312000200187 
  3.4604E+0  6.50763E1     6.60E0                                 2312000200188 
  3.4903E+0  4.30724E1     5.73E0                                 2312000200189 
  3.5202E+0  6.07168E1     6.31E0                                 2312000200190 
  3.5503E+0  2.35595E1     3.87E0                                 2312000200191 
  3.5805E+0  1.89514E1     3.94E0                                 2312000200192 
  3.6109E+0  3.58022E1     5.01E0                                 2312000200193 
  3.6413E+0  7.27821E1     6.99E0                                 2312000200194 
  3.6719E+0  2.64370E1     4.15E0                                 2312000200195 
  3.7027E+0  1.91593E1     3.68E0                                 2312000200196 
  3.7335E+0  5.87159E1     6.43E0                                 2312000200197 
  3.7645E+0  5.69132E1     6.45E0                                 2312000200198 
  3.7956E+0  5.28242E1     6.23E0                                 2312000200199 
  3.8268E+0  7.02094E1     7.12E0                                 2312000200200 
  3.8582E+0  8.37092E1     7.86E0                                 2312000200201 
  3.8897E+0  3.45650E1     4.91E0                                 2312000200202 
  3.9213E+0  6.86901E1     6.90E0                                 2312000200203 
  3.9531E+0  5.92013E1     6.62E0                                 2312000200204 
  3.9849E+0  5.12725E1     5.83E0                                 2312000200205 
  4.0169E+0  8.20946E1     7.60E0                                 2312000200206 
  4.0491E+0  9.55960E1     8.33E0                                 2312000200207 
  4.0813E+0  1.18968E2     9.14E0                                 2312000200208 
  4.1137E+0  1.46531E2     1.02E1                                 2312000200209 
  4.1462E+0  1.44469E2     1.00E1                                 2312000200210 
  4.1789E+0  1.25399E2     9.41E0                                 2312000200211 
  4.2116E+0  1.79153E2     1.15E1                                 2312000200212 
  4.2445E+0  1.88331E2     1.17E1                                 2312000200213 
  4.2776E+0  2.29495E2     1.28E1                                 2312000200214 
  4.3107E+0  2.73849E2     1.42E1                                 2312000200215 
  4.3440E+0  3.19533E2     1.54E1                                 2312000200216 
  4.3774E+0  3.56932E2     1.62E1                                 2312000200217 
  4.4110E+0  4.19373E2     1.76E1                                 2312000200218 
  4.4446E+0  4.94796E2     1.91E1                                 2312000200219 
  4.4784E+0  6.25896E2     2.16E1                                 2312000200220 
  4.5123E+0  7.32104E2     2.33E1                                 2312000200221 
  4.5464E+0  8.55071E2     2.52E1                                 2312000200222 
  4.5806E+0  1.06363E3     2.84E1                                 2312000200223 
  4.6149E+0  1.15768E3     2.95E1                                 2312000200224 
  4.6493E+0  1.24596E3     3.08E1                                 2312000200225 
  4.6839E+0  1.20705E3     3.04E1                                 2312000200226 
  4.7186E+0  1.12566E3     2.92E1                                 2312000200227 
  4.7534E+0  1.00938E3     2.76E1                                 2312000200228 
  4.7883E+0  9.53956E2     2.69E1                                 2312000200229 
  4.8234E+0  8.04221E2     2.49E1                                 2312000200230 
  4.8586E+0  7.12567E2     2.34E1                                 2312000200231 
  4.8940E+0  5.71187E2     2.11E1                                 2312000200232 
  4.9294E+0  4.69092E2     1.91E1                                 2312000200233 
  4.9650E+0  4.43765E2     1.85E1                                 2312000200234 
  5.0007E+0  3.76528E2     1.71E1                                 2312000200235 
  5.0366E+0  3.40868E2     1.63E1                                 2312000200236 
  5.0725E+0  3.18296E2     1.58E1                                 2312000200237 
  5.1086E+0  2.79655E2     1.49E1                                 2312000200238 
  5.1449E+0  2.44414E2     1.40E1                                 2312000200239 
  5.1812E+0  2.36965E2     1.38E1                                 2312000200240 
  5.2177E+0  2.10240E2     1.28E1                                 2312000200241 
  5.2543E+0  2.02156E2     1.27E1                                 2312000200242 
  5.2910E+0  1.86979E2     1.22E1                                 2312000200243 
  5.3279E+0  1.57992E2     1.12E1                                 2312000200244 
  5.3649E+0  1.51871E2     1.11E1                                 2312000200245 
  5.4020E+0  1.44474E2     1.08E1                                 2312000200246 
  5.4393E+0  1.54396E2     1.11E1                                 2312000200247 
  5.4767E+0  1.36015E2     1.04E1                                 2312000200248 
  5.5142E+0  1.20434E2     1.01E1                                 2312000200249 
  5.5518E+0  1.08369E2     9.51E0                                 2312000200250 
  5.5896E+0  1.07818E2     9.51E0                                 2312000200251 
  5.6275E+0  1.23017E2     1.01E1                                 2312000200252 
  5.6655E+0  9.33010E1     8.78E0                                 2312000200253 
  5.7036E+0  9.46007E1     8.88E0                                 2312000200254 
  5.7419E+0  1.10990E2     9.60E0                                 2312000200255 
  5.7803E+0  7.11161E1     7.77E0                                 2312000200256 
  5.8188E+0  7.21354E1     7.89E0                                 2312000200257 
  5.8575E+0  8.24219E1     8.42E0                                 2312000200258 
  5.8963E+0  9.52790E1     9.03E0                                 2312000200259 
  5.9352E+0  1.09724E2     9.63E0                                 2312000200260 
  5.9742E+0  9.33343E1     8.80E0                                 2312000200261 
  6.0134E+0  8.26461E1     8.62E0                                 2312000200262 
  6.0527E+0  1.20653E2     1.01E1                                 2312000200263 
  6.0921E+0  9.64137E1     9.09E0                                 2312000200264 
  6.1317E+0  6.17703E1     7.28E0                                 2312000200265 
  6.1714E+0  8.56396E1     8.34E0                                 2312000200266 
  6.2112E+0  8.02972E1     8.37E0                                 2312000200267 
  6.2511E+0  5.02623E1     6.73E0                                 2312000200268 
  6.2912E+0  6.00074E1     7.14E0                                 2312000200269 
  6.3314E+0  7.82964E1     8.21E0                                 2312000200270 
  6.3717E+0  5.36008E1     6.96E0                                 2312000200271 
  6.4122E+0  8.08225E1     8.43E0                                 2312000200272 
  6.4528E+0  7.41578E1     8.15E0                                 2312000200273 
  6.4935E+0  5.67547E1     7.09E0                                 2312000200274 
  6.5343E+0  5.49640E1     7.07E0                                 2312000200275 
  6.5753E+0  5.09864E1     6.69E0                                 2312000200276 
  6.6164E+0  4.55266E1     6.41E0                                 2312000200277 
  6.6576E+0  4.85851E1     6.72E0                                 2312000200278 
  6.6989E+0  6.79100E1     7.86E0                                 2312000200279 
  6.7404E+0  4.51787E1     6.38E0                                 2312000200280 
  6.7820E+0  4.23053E1     6.29E0                                 2312000200281 
  6.8237E+0  3.02293E1     5.14E0                                 2312000200282 
  6.8656E+0  4.30946E1     6.43E0                                 2312000200283 
  6.9076E+0  3.98739E1     6.32E0                                 2312000200284 
  6.9497E+0  3.41677E1     5.44E0                                 2312000200285 
  6.9919E+0  5.19073E1     6.96E0                                 2312000200286 
  7.0343E+0  2.83517E1     5.04E0                                 2312000200287 
  7.0768E+0  5.04898E1     6.83E0                                 2312000200288 
  7.1194E+0  6.30894E1     7.45E0                                 2312000200289 
  7.1622E+0  7.06515E1     8.17E0                                 2312000200290 
  7.2051E+0  1.01122E2     9.41E0                                 2312000200291 
  7.2481E+0  1.09334E2     9.99E0                                 2312000200292 
  7.2912E+0  1.61264E2     1.22E1                                 2312000200293 
  7.3345E+0  2.28743E2     1.45E1                                 2312000200294 
  7.3779E+0  4.15391E2     1.96E1                                 2312000200295 
  7.4214E+0  6.64723E2     2.48E1                                 2312000200296 
  7.4651E+0  9.44624E2     2.95E1                                 2312000200297 
  7.5088E+0  1.14764E3     3.25E1                                 2312000200298 
  7.5528E+0  1.10826E3     3.20E1                                 2312000200299 
  7.5968E+0  8.19602E2     2.73E1                                 2312000200300 
  7.6410E+0  6.10671E2     2.39E1                                 2312000200301 
  7.6852E+0  4.32118E2     2.02E1                                 2312000200302 
  7.7297E+0  3.39969E2     1.80E1                                 2312000200303 
  7.7742E+0  2.58215E2     1.56E1                                 2312000200304 
  7.8189E+0  2.34311E2     1.48E1                                 2312000200305 
  7.8637E+0  1.85597E2     1.33E1                                 2312000200306 
  7.9086E+0  1.80955E2     1.32E1                                 2312000200307 
  7.9537E+0  1.34268E2     1.13E1                                 2312000200308 
  7.9989E+0  1.05009E2     1.03E1                                 2312000200309 
  8.0442E+0  1.15231E2     1.09E1                                 2312000200310 
  8.0896E+0  1.07575E2     1.04E1                                 2312000200311 
  8.1352E+0  1.26208E2     1.09E1                                 2312000200312 
  8.1809E+0  1.00610E2     1.02E1                                 2312000200313 
  8.2267E+0  1.11294E2     1.04E1                                 2312000200314 
  8.2727E+0  1.06313E2     1.02E1                                 2312000200315 
  8.3188E+0  1.08973E2     1.02E1                                 2312000200316 
  8.3650E+0  9.82380E1     9.81E0                                 2312000200317 
  8.4113E+0  1.09482E2     1.05E1                                 2312000200318 
  8.4578E+0  9.99869E1     1.00E1                                 2312000200319 
  8.5044E+0  1.04132E2     1.01E1                                 2312000200320 
  8.5511E+0  1.14608E2     1.08E1                                 2312000200321 
  8.5980E+0  1.25566E2     1.13E1                                 2312000200322 
  8.6449E+0  1.11465E2     1.05E1                                 2312000200323 
  8.6920E+0  1.38541E2     1.16E1                                 2312000200324 
  8.7393E+0  1.45218E2     1.20E1                                 2312000200325 
  8.7866E+0  1.61464E2     1.29E1                                 2312000200326 
  8.8341E+0  1.56405E2     1.25E1                                 2312000200327 
  8.8818E+0  1.39957E2     1.17E1                                 2312000200328 
  8.9295E+0  1.66340E2     1.30E1                                 2312000200329 
  8.9774E+0  1.63365E2     1.28E1                                 2312000200330 
  9.0254E+0  1.84717E2     1.35E1                                 2312000200331 
  9.0735E+0  1.54690E2     1.25E1                                 2312000200332 
  9.1218E+0  1.62060E2     1.28E1                                 2312000200333 
  9.1702E+0  1.89197E2     1.37E1                                 2312000200334 
  9.2187E+0  1.52976E2     1.23E1                                 2312000200335 
  9.2673E+0  8.76503E1     9.78E0                                 2312000200336 
  9.3161E+0  5.98380E1     7.88E0                                 2312000200337 
  9.3650E+0  6.63021E1     8.13E0                                 2312000200338 
  9.4140E+0  4.65344E1     6.79E0                                 2312000200339 
  9.4632E+0  5.87983E1     7.43E0                                 2312000200340 
  9.5125E+0  6.50924E1     8.61E0                                 2312000200341 
  9.5619E+0  7.99035E1     9.13E0                                 2312000200342 
  9.6114E+0  7.03355E1     8.58E0                                 2312000200343 
  9.6611E+0  6.50278E1     8.34E0                                 2312000200344 
  9.7109E+0  8.79478E1     9.67E0                                 2312000200345 
  9.7608E+0  5.65614E1     7.93E0                                 2312000200346 
  9.8109E+0  8.39115E1     9.50E0                                 2312000200347 
  9.8610E+0  7.66148E1     9.39E0                                 2312000200348 
  9.9113E+0  8.91627E1     9.58E0                                 2312000200349 
  9.9618E+0  7.38880E1     9.05E0                                 2312000200350 
  1.0012E+1  1.12004E2     1.08E1                                 2312000200351 
  1.0063E+1  7.79331E1     9.12E0                                 2312000200352 
  1.0114E+1  7.08708E1     8.68E0                                 2312000200353 
  1.0165E+1  1.09152E2     1.06E1                                 2312000200354 
  1.0216E+1  7.01196E1     9.00E0                                 2312000200355 
  1.0267E+1  7.92369E1     9.39E0                                 2312000200356 
  1.0318E+1  6.71654E1     8.62E0                                 2312000200357 
  1.0370E+1  5.99757E1     8.28E0                                 2312000200358 
  1.0422E+1  5.10151E1     7.54E0                                 2312000200359 
  1.0473E+1  4.99933E1     7.28E0                                 2312000200360 
  1.0525E+1  8.29279E1     9.25E0                                 2312000200361 
  1.0577E+1  4.56874E1     7.06E0                                 2312000200362 
  1.0629E+1  2.84052E1     5.84E0                                 2312000200363 
  1.0681E+1  5.15858E1     7.34E0                                 2312000200364 
  1.0734E+1  3.16478E1     5.55E0                                 2312000200365 
  1.0786E+1  2.74404E1     5.69E0                                 2312000200366 
  1.0839E+1  1.00374E1     3.17E0                                 2312000200367 
  1.0892E+1  3.07715E1     5.61E0                                 2312000200368 
  1.0944E+1  3.75221E1     6.80E0                                 2312000200369 
  1.0997E+1  2.72762E1     5.48E0                                 2312000200370 
  1.1051E+1  4.07095E1     6.99E0                                 2312000200371 
  1.1104E+1  4.28142E1     7.55E0                                 2312000200372 
  1.1157E+1  9.11849E1     1.02E1                                 2312000200373 
  1.1211E+1  1.24645E2     1.19E1                                 2312000200374 
  1.1264E+1  2.11442E2     1.53E1                                 2312000200375 
  1.1318E+1  2.82811E2     1.77E1                                 2312000200376 
  1.1372E+1  2.71001E2     1.71E1                                 2312000200377 
  1.1426E+1  2.28329E2     1.56E1                                 2312000200378 
  1.1480E+1  1.28751E2     1.19E1                                 2312000200379 
  1.1534E+1  1.00539E2     1.07E1                                 2312000200380 
  1.1589E+1  7.87163E1     9.50E0                                 2312000200381 
  1.1643E+1  5.72336E1     8.12E0                                 2312000200382 
  1.1698E+1  3.33997E1     6.59E0                                 2312000200383 
  1.1753E+1  4.39099E1     7.12E0                                 2312000200384 
  1.1808E+1  7.93510E0     5.85E0                                 2312000200385 
  1.1863E+1  2.95844E1     5.88E0                                 2312000200386 
  1.1918E+1  1.05269E1     5.02E0                                 2312000200387 
  1.1973E+1  2.41061E1     5.27E0                                 2312000200388 
  1.2029E+1  2.60809E1     5.09E0                                 2312000200389 
  1.2084E+1  1.78238E1     4.94E0                                 2312000200390 
  1.2140E+1  3.23045E1     6.50E0                                 2312000200391 
  1.2196E+1  1.92624E1     5.91E0                                 2312000200392 
  1.2252E+1  2.74045E1     5.80E0                                 2312000200393 
  1.2308E+1  1.50749E1     3.70E0                                 2312000200394 
  1.2364E+1  8.13600E0     3.44E0                                 2312000200395 
  1.2420E+1  9.57777E0     4.84E0                                 2312000200396 
  1.2533E+1  1.85646E1     6.11E0                                 2312000200397 
  1.2590E+1  1.40411E1     4.16E0                                 2312000200398 
  1.2647E+1  2.30274E1     5.51E0                                 2312000200399 
  1.2704E+1  4.65115E0     3.50E0                                 2312000200400 
  1.2761E+1  1.74536E0     1.56E0                                 2312000200401 
  1.2818E+1  1.97364E1     5.29E0                                 2312000200402 
  1.2875E+1  9.34408E0     3.35E0                                 2312000200403 
  1.2933E+1  1.75187E1     5.09E0                                 2312000200404 
  1.2991E+1  7.58101E0     3.16E0                                 2312000200405 
  1.3048E+1 6.02582E-1    7.66E-1                                 2312000200406 
  1.3106E+1  3.12945E1     5.85E0                                 2312000200407 
  1.3164E+1  2.34593E1     5.30E0                                 2312000200408 
  1.3222E+1  6.58961E0     3.30E0                                 2312000200409 
  1.3280E+1  1.28385E1     3.97E0                                 2312000200410 
  1.3339E+1  2.02306E1     5.36E0                                 2312000200411 
  1.3397E+1  9.46862E0     7.14E0                                 2312000200412 
  1.3456E+1  1.75993E1     4.20E0                                 2312000200413 
  1.3515E+1  2.83871E1     7.06E0                                 2312000200414 
  1.3573E+1  3.56650E1     7.19E0                                 2312000200415 
  1.3633E+1  3.03344E1     6.90E0                                 2312000200416 
  1.3692E+1  5.04329E1     8.07E0                                 2312000200417 
  1.3751E+1  2.61407E1     5.85E0                                 2312000200418 
  1.3810E+1  6.49265E1     8.86E0                                 2312000200419 
  1.3870E+1  8.61173E1     1.03E1                                 2312000200420 
  1.3930E+1  1.10351E2     1.15E1                                 2312000200421 
  1.3989E+1  5.73112E1     8.53E0                                 2312000200422 
  1.4049E+1  5.38605E1     8.38E0                                 2312000200423 
  1.4109E+1  6.51273E0     2.75E0                                 2312000200424 
  1.4230E+1  9.09617E0     4.65E0                                 2312000200425 
  1.4290E+1  1.40092E1     4.68E0                                 2312000200426 
  1.4351E+1  1.51325E1     6.47E0                                 2312000200427 
  1.4411E+1  4.08141E1     7.26E0                                 2312000200428 
  1.4472E+1  1.34205E0    6.60E-1                                 2312000200429 
  1.4655E+1 4.71197E-1    3.01E-1                                 2312000200430 
  1.4717E+1  1.61976E1     4.73E0                                 2312000200431 
  1.4778E+1  3.42534E0     2.56E0                                 2312000200432 
  1.4840E+1  2.81891E1     6.27E0                                 2312000200433 
  1.4901E+1  2.15496E1     5.07E0                                 2312000200434 
  1.4963E+1  1.54718E1     3.80E0                                 2312000200435 
  1.5025E+1  1.24464E1     3.88E0                                 2312000200436 
  1.5087E+1  1.59879E0    5.86E-1                                 2312000200437 
  1.5149E+1  2.08693E1     5.27E0                                 2312000200438 
  1.5212E+1  8.64950E0     4.58E0                                 2312000200439 
  1.5274E+1  3.08045E1     6.18E0                                 2312000200440 
  1.5337E+1  2.74208E1     5.70E0                                 2312000200441 
  1.5400E+1  6.19627E1     8.78E0                                 2312000200442 
  1.5462E+1  9.22611E1     1.09E1                                 2312000200443 
  1.5525E+1  1.02406E2     1.12E1                                 2312000200444 
  1.5589E+1  1.24159E2     1.26E1                                 2312000200445 
  1.5652E+1  8.18173E1     9.72E0                                 2312000200446 
  1.5715E+1  7.80708E1     9.75E0                                 2312000200447 
  1.5779E+1  4.15145E1     7.24E0                                 2312000200448 
  1.5842E+1  1.18244E1     3.54E0                                 2312000200449 
  1.5906E+1  1.61728E1     8.16E0                                 2312000200450 
  1.6034E+1  1.88181E1     4.96E0                                 2312000200451 
  1.6098E+1  3.95053E0     4.98E0                                 2312000200452 
  1.6162E+1  1.60868E1     5.25E0                                 2312000200453 
  1.6227E+1  8.09219E0     3.23E0                                 2312000200454 
  1.6551E+1  1.02291E1     3.48E0                                 2312000200455 
  1.6616E+1  9.51867E0     3.93E0                                 2312000200456 
  1.6746E+1  1.96349E1     6.04E0                                 2312000200457 
  1.6812E+1  4.55896E0     4.65E0                                 2312000200458 
  1.6878E+1  2.80876E1     6.02E0                                 2312000200459 
  1.7075E+1  1.36402E1     4.37E0                                 2312000200460 
  1.7274E+1  1.77997E1     4.65E0                                 2312000200461 
  1.7541E+1  1.00816E1     5.46E0                                 2312000200462 
  1.7608E+1 8.19490E-1    3.87E-1                                 2312000200463 
  1.7743E+1  6.75917E0     3.18E0                                 2312000200464 
  1.7946E+1  2.22747E1     6.29E0                                 2312000200465 
  1.8014E+1  2.23435E1     5.25E0                                 2312000200466 
  1.8081E+1  1.33080E1     5.61E0                                 2312000200467 
  1.8150E+1  1.03494E1     1.15E1                                 2312000200468 
  1.8286E+1  1.95383E1     6.66E0                                 2312000200469 
  1.8423E+1  6.40691E0     5.77E0                                 2312000200470 
  1.8492E+1  5.98135E0     2.98E0                                 2312000200471 
  1.8561E+1  1.69839E1     5.08E0                                 2312000200472 
  1.8699E+1  8.77785E0     4.01E0                                 2312000200473 
  1.8768E+1  1.22913E1     5.11E0                                 2312000200474 
  1.8838E+1  4.83245E0     3.11E0                                 2312000200475 
  1.8977E+1  1.40782E0    9.72E-1                                 2312000200476 
  1.9116E+1  1.98749E1     5.33E0                                 2312000200477 
  1.9186E+1  2.03317E1     5.13E0                                 2312000200478 
  1.9256E+1  3.60516E0     2.68E0                                 2312000200479 
  1.9397E+1  1.60483E1     4.85E0                                 2312000200480 
  1.9468E+1  7.93332E0     3.97E0                                 2312000200481 
  1.9538E+1  2.71989E1     6.89E0                                 2312000200482 
  1.9609E+1  5.14596E1     8.31E0                                 2312000200483 
  1.9680E+1  1.83635E1     5.45E0                                 2312000200484 
  1.9751E+1  2.14899E1     6.11E0                                 2312000200485 
  1.9822E+1  2.00722E1     5.80E0                                 2312000200486 
  1.9894E+1  1.67560E1     4.95E0                                 2312000200487 
  1.9965E+1  4.08098E0     2.01E0                                 2312000200488 
  2.0037E+1  1.78294E1     5.40E0                                 2312000200489 
  2.0108E+1  1.79716E1     5.66E0                                 2312000200490 
  2.0180E+1  2.58763E1     5.58E0                                 2312000200491 
  2.0252E+1  1.61390E1     9.72E0                                 2312000200492 
  2.0324E+1  1.10117E1     2.89E1                                 2312000200493 
  2.0396E+1  2.56613E1     6.77E0                                 2312000200494 
  2.0469E+1  2.29185E1     5.97E0                                 2312000200495 
  2.0541E+1  1.33274E1     4.36E0                                 2312000200496 
  2.0614E+1  4.16664E1     7.76E0                                 2312000200497 
  2.0686E+1  2.35872E1     5.89E0                                 2312000200498 
  2.0759E+1  3.25446E1     6.76E0                                 2312000200499 
  2.0832E+1  6.04298E1     9.40E0                                 2312000200500 
  2.0905E+1  5.96463E1     9.18E0                                 2312000200501 
  2.0979E+1  9.48636E1     1.17E1                                 2312000200502 
  2.1052E+1  1.12112E2     1.29E1                                 2312000200503 
  2.1125E+1  1.25873E2     1.35E1                                 2312000200504 
  2.1199E+1  1.78228E2     1.63E1                                 2312000200505 
  2.1273E+1  1.96999E2     1.67E1                                 2312000200506 
  2.1346E+1  2.63052E2     1.93E1                                 2312000200507 
  2.1421E+1  2.55806E2     1.91E1                                 2312000200508 
  2.1495E+1  2.61866E2     1.92E1                                 2312000200509 
  2.1569E+1  2.15920E2     1.74E1                                 2312000200510 
  2.1643E+1  2.03253E2     1.70E1                                 2312000200511 
  2.1718E+1  1.64664E2     1.52E1                                 2312000200512 
  2.1792E+1  1.62771E2     1.57E1                                 2312000200513 
  2.1867E+1  1.08549E2     1.25E1                                 2312000200514 
  2.1942E+1  9.60528E1     1.15E1                                 2312000200515 
  2.2017E+1  8.78159E1     1.18E1                                 2312000200516 
  2.2092E+1  9.24022E1     1.20E1                                 2312000200517 
  2.2167E+1  8.43532E1     1.10E1                                 2312000200518 
  2.2243E+1  7.54137E1     1.06E1                                 2312000200519 
  2.2318E+1  5.20136E1     8.97E0                                 2312000200520 
  2.2394E+1  6.97142E1     9.83E0                                 2312000200521 
  2.2470E+1  3.97306E1     8.63E0                                 2312000200522 
  2.2546E+1  6.32461E1     9.40E0                                 2312000200523 
  2.2622E+1  5.02440E1     8.47E0                                 2312000200524 
  2.2698E+1  5.48556E1     9.00E0                                 2312000200525 
  2.2774E+1  5.40702E1     9.52E0                                 2312000200526 
  2.2851E+1  4.52061E1     7.76E0                                 2312000200527 
  2.2927E+1  3.37474E1     7.46E0                                 2312000200528 
  2.3004E+1  4.96098E1     8.08E0                                 2312000200529 
  2.3081E+1  5.59614E1     9.05E0                                 2312000200530 
  2.3157E+1  3.41963E1     7.25E0                                 2312000200531 
  2.3235E+1  6.66947E1     9.95E0                                 2312000200532 
  2.3312E+1  3.45699E1     8.22E0                                 2312000200533 
  2.3389E+1  2.06053E1     6.91E0                                 2312000200534 
  2.3467E+1  5.79131E1     9.33E0                                 2312000200535 
  2.3544E+1  4.02482E1     8.62E0                                 2312000200536 
  2.3622E+1  5.05964E1     8.86E0                                 2312000200537 
  2.3700E+1  5.98293E1     9.25E0                                 2312000200538 
  2.3778E+1  3.87152E1     7.34E0                                 2312000200539 
  2.3856E+1  6.29096E1     9.49E0                                 2312000200540 
  2.3934E+1  4.01648E1     8.41E0                                 2312000200541 
  2.4012E+1  5.34641E1     9.99E0                                 2312000200542 
  2.4091E+1  5.29025E1     8.79E0                                 2312000200543 
  2.4169E+1  5.39381E1     8.96E0                                 2312000200544 
  2.4248E+1  8.15375E1     1.11E1                                 2312000200545 
  2.4327E+1  7.28657E1     1.07E1                                 2312000200546 
  2.4406E+1  1.01874E2     1.23E1                                 2312000200547 
  2.4485E+1  9.33051E1     1.20E1                                 2312000200548 
  2.4564E+1  1.36531E2     1.49E1                                 2312000200549 
  2.4644E+1  1.72143E2     1.62E1                                 2312000200550 
  2.4723E+1  2.75312E2     2.03E1                                 2312000200551 
  2.4803E+1  3.14672E2     2.17E1                                 2312000200552 
  2.4882E+1  3.71394E2     2.33E1                                 2312000200553 
  2.4962E+1  2.69666E2     1.98E1                                 2312000200554 
  2.5042E+1  1.57690E2     1.55E1                                 2312000200555 
  2.5122E+1  8.19742E1     1.11E1                                 2312000200556 
  2.5203E+1  2.55298E1     6.86E0                                 2312000200557 
  2.5364E+1  2.01493E1     5.98E0                                 2312000200558 
  2.5444E+1  2.80538E1     7.06E0                                 2312000200559 
  2.5525E+1  1.14449E1     3.95E0                                 2312000200560 
  2.5606E+1  1.27153E1     4.47E0                                 2312000200561 
  2.5687E+1  2.09507E1     7.35E0                                 2312000200562 
  2.5768E+1  1.69948E1     4.83E0                                 2312000200563 
  2.5849E+1  1.44444E1     5.96E0                                 2312000200564 
  2.5931E+1  6.95668E0     1.18E1                                 2312000200565 
  2.6012E+1  1.71013E1     5.15E0                                 2312000200566 
  2.6094E+1  2.48379E1     5.56E0                                 2312000200567 
  2.6176E+1  6.82650E0     4.37E0                                 2312000200568 
  2.6258E+1  9.71354E0     5.38E0                                 2312000200569 
  2.6340E+1  1.70767E1     7.27E0                                 2312000200570 
  2.6422E+1  4.70521E1     8.84E0                                 2312000200571 
  2.6504E+1  4.26057E1     7.95E0                                 2312000200572 
  2.6587E+1  7.26461E1     1.10E1                                 2312000200573 
  2.6669E+1  1.01403E2     1.22E1                                 2312000200574 
  2.6752E+1  1.02524E2     1.26E1                                 2312000200575 
  2.6835E+1  7.74009E1     1.12E1                                 2312000200576 
  2.6918E+1  4.86940E1     9.01E0                                 2312000200577 
  2.7001E+1  4.73326E1     8.81E0                                 2312000200578 
  2.7084E+1  2.92515E1     7.20E0                                 2312000200579 
  2.7167E+1  3.46469E0     3.51E0                                 2312000200580 
  2.7251E+1  3.90613E1     8.92E0                                 2312000200581 
  2.7334E+1  4.00034E1     9.18E0                                 2312000200582 
  2.7418E+1  6.11141E1     1.23E1                                 2312000200583 
  2.7502E+1  1.02294E2     1.56E1                                 2312000200584 
  2.7586E+1  4.54962E1     1.15E1                                 2312000200585 
  2.7670E+1  6.43046E1     1.17E1                                 2312000200586 
  2.7754E+1  3.89216E1     8.35E0                                 2312000200587 
  2.7839E+1  1.85974E1     6.38E0                                 2312000200588 
  2.7923E+1  1.46822E1     5.16E0                                 2312000200589 
  2.8008E+1  7.46080E0     3.68E0                                 2312000200590 
  2.8092E+1  1.35531E1     4.70E0                                 2312000200591 
  2.8262E+1  8.47739E0     3.71E0                                 2312000200592 
  2.8433E+1  1.57099E1     7.60E0                                 2312000200593 
  2.8518E+1  2.35003E1     7.52E0                                 2312000200594 
  2.8689E+1  3.00109E1     7.77E0                                 2312000200595 
  2.8775E+1  4.32310E1     9.26E0                                 2312000200596 
  2.8861E+1  4.52762E1     8.85E0                                 2312000200597 
  2.8947E+1  6.63090E1     1.00E1                                 2312000200598 
  2.9033E+1  8.79181E1     1.18E1                                 2312000200599 
  2.9119E+1  1.54823E2     1.57E1                                 2312000200600 
  2.9206E+1  1.83805E2     1.73E1                                 2312000200601 
  2.9292E+1  2.18509E2     1.84E1                                 2312000200602 
  2.9379E+1  2.52583E2     2.04E1                                 2312000200603 
  2.9466E+1  2.90518E2     2.14E1                                 2312000200604 
  2.9553E+1  2.53875E2     2.03E1                                 2312000200605 
  2.9640E+1  2.16898E2     1.85E1                                 2312000200606 
  2.9727E+1  1.44366E2     1.50E1                                 2312000200607 
  2.9814E+1  1.00163E2     1.27E1                                 2312000200608 
  2.9901E+1  7.59758E1     1.06E1                                 2312000200609 
  2.9989E+1  4.16265E1     8.91E0                                 2312000200610 
  3.0077E+1  4.00935E1     7.85E0                                 2312000200611 
  3.0165E+1  2.40906E1     7.47E0                                 2312000200612 
  3.0253E+1  2.91295E1     7.97E0                                 2312000200613 
  3.0341E+1  2.86559E1     6.37E0                                 2312000200614 
  3.0429E+1  2.33825E1     6.45E0                                 2312000200615 
  3.0517E+1  2.67698E1     8.09E0                                 2312000200616 
  3.0605E+1  3.07910E1     7.57E0                                 2312000200617 
  3.0694E+1  2.22773E1     6.89E0                                 2312000200618 
  3.0783E+1  2.39836E1     7.44E0                                 2312000200619 
  3.0872E+1  3.90015E1     8.32E0                                 2312000200620 
  3.0961E+1  2.81588E1     6.80E0                                 2312000200621 
  3.1050E+1  2.29986E1     6.84E0                                 2312000200622 
  3.1139E+1  3.07843E1     8.44E0                                 2312000200623 
  3.1228E+1  4.21567E1     8.34E0                                 2312000200624 
  3.1318E+1  5.50060E1     9.27E0                                 2312000200625 
  3.1407E+1  5.14840E1     8.95E0                                 2312000200626 
  3.1497E+1  4.20392E1     8.79E0                                 2312000200627 
  3.1587E+1  5.97924E1     1.06E1                                 2312000200628 
  3.1677E+1  4.37273E1     8.70E0                                 2312000200629 
  3.1767E+1  3.51144E1     8.03E0                                 2312000200630 
  3.1857E+1  7.30827E1     1.06E1                                 2312000200631 
  3.1948E+1  5.42606E1     9.97E0                                 2312000200632 
  3.2038E+1  4.24653E1     9.40E0                                 2312000200633 
  3.2129E+1  5.85779E1     9.79E0                                 2312000200634 
  3.2220E+1  4.24765E1     8.72E0                                 2312000200635 
  3.2310E+1  4.77539E1     9.54E0                                 2312000200636 
  3.2401E+1  1.90602E1     6.61E0                                 2312000200637 
  3.2493E+1  2.07071E1     5.78E0                                 2312000200638 
  3.2584E+1  4.52087E1     9.49E0                                 2312000200639 
  3.2675E+1  3.51159E1     7.65E0                                 2312000200640 
  3.2767E+1  3.07460E1     8.29E0                                 2312000200641 
  3.2858E+1  4.10069E1     8.71E0                                 2312000200642 
  3.2950E+1  3.66575E1     8.28E0                                 2312000200643 
  3.3042E+1  4.44795E1     8.52E0                                 2312000200644 
  3.3134E+1  3.94543E1     7.79E0                                 2312000200645 
  3.3226E+1  3.11143E1     7.81E0                                 2312000200646 
  3.3319E+1  6.90434E1     1.03E1                                 2312000200647 
  3.3411E+1  5.02640E1     9.16E0                                 2312000200648 
  3.3504E+1  3.73057E1     9.16E0                                 2312000200649 
  3.3596E+1  5.65134E1     1.03E1                                 2312000200650 
  3.3689E+1  6.02368E1     1.04E1                                 2312000200651 
  3.3782E+1  4.78292E1     9.46E0                                 2312000200652 
  3.3875E+1  6.15860E1     1.06E1                                 2312000200653 
  3.3968E+1  5.31037E1     9.92E0                                 2312000200654 
  3.4062E+1  6.79525E1     1.07E1                                 2312000200655 
  3.4155E+1  4.83824E1     8.24E0                                 2312000200656 
  3.4249E+1  4.90410E1     9.88E0                                 2312000200657 
  3.4342E+1  6.21623E1     1.08E1                                 2312000200658 
  3.4436E+1  7.29867E1     1.16E1                                 2312000200659 
  3.4530E+1  7.33666E1     1.15E1                                 2312000200660 
  3.4624E+1  8.63332E1     1.22E1                                 2312000200661 
  3.4718E+1  7.83646E1     1.14E1                                 2312000200662 
  3.4813E+1  6.18426E1     1.10E1                                 2312000200663 
  3.4907E+1  6.00428E1     9.66E0                                 2312000200664 
  3.5002E+1  9.43018E1     1.29E1                                 2312000200665 
  3.5096E+1  6.85582E1     1.12E1                                 2312000200666 
  3.5191E+1  7.51063E1     1.13E1                                 2312000200667 
  3.5286E+1  5.59576E1     1.00E1                                 2312000200668 
  3.5381E+1  9.28513E1     1.23E1                                 2312000200669 
  3.5477E+1  6.80225E1     1.09E1                                 2312000200670 
  3.5572E+1  7.83170E1     1.11E1                                 2312000200671 
  3.5667E+1  1.09236E2     1.42E1                                 2312000200672 
  3.5763E+1  1.17600E2     1.41E1                                 2312000200673 
  3.5859E+1  1.00329E2     1.37E1                                 2312000200674 
  3.5955E+1  1.67818E2     1.71E1                                 2312000200675 
  3.6051E+1  1.57066E2     1.66E1                                 2312000200676 
  3.6147E+1  1.94349E2     1.85E1                                 2312000200677 
  3.6243E+1  2.11884E2     1.88E1                                 2312000200678 
  3.6340E+1  1.64988E2     1.61E1                                 2312000200679 
  3.6436E+1  1.11434E2     1.34E1                                 2312000200680 
  3.6533E+1  7.24386E1     1.11E1                                 2312000200681 
  3.6630E+1  4.40265E1     9.34E0                                 2312000200682 
  3.6726E+1  3.63321E1     8.25E0                                 2312000200683 
  3.6823E+1  3.54362E1     7.54E0                                 2312000200684 
  3.6920E+1  2.82341E1     7.20E0                                 2312000200685 
  3.7018E+1  2.72067E1     7.10E0                                 2312000200686 
  3.7115E+1  1.12439E1     4.20E0                                 2312000200687 
  3.7213E+1  1.17942E1     3.92E0                                 2312000200688 
  3.7310E+1  2.63320E1     7.41E0                                 2312000200689 
  3.7408E+1  4.43427E1     8.70E0                                 2312000200690 
  3.7506E+1  3.41319E1     7.75E0                                 2312000200691 
  3.7604E+1  2.63817E1     6.85E0                                 2312000200692 
  3.7702E+1  1.58393E1     5.25E0                                 2312000200693 
  3.7801E+1  3.48637E1     8.04E0                                 2312000200694 
  3.7899E+1  3.99357E1     9.30E0                                 2312000200695 
  3.7998E+1  3.12958E1     7.79E0                                 2312000200696 
  3.8096E+1  2.25574E1     5.90E0                                 2312000200697 
  3.8195E+1  1.41991E1     4.85E0                                 2312000200698 
  3.8294E+1  1.78090E1     5.93E0                                 2312000200699 
  3.8393E+1  1.53459E1     4.73E0                                 2312000200700 
  3.8492E+1  8.05101E0     4.04E0                                 2312000200701 
  3.8592E+1  1.58400E1     6.74E0                                 2312000200702 
  3.8691E+1  1.42476E1     5.54E0                                 2312000200703 
  3.8791E+1  1.56726E1     4.82E0                                 2312000200704 
  3.8891E+1  2.70539E1     7.63E0                                 2312000200705 
  3.8990E+1  2.54138E1     6.74E0                                 2312000200706 
  3.9090E+1  4.77893E1     9.66E0                                 2312000200707 
  3.9191E+1  4.47871E1     8.59E0                                 2312000200708 
  3.9291E+1  6.64878E1     1.06E1                                 2312000200709 
  3.9391E+1  6.00300E1     1.01E1                                 2312000200710 
  3.9492E+1  5.89414E1     1.01E1                                 2312000200711 
  3.9592E+1  5.29196E1     1.01E1                                 2312000200712 
  3.9693E+1  4.12555E1     8.24E0                                 2312000200713 
  3.9794E+1  7.60283E1     1.23E1                                 2312000200714 
  3.9895E+1  5.73501E1     1.00E1                                 2312000200715 
  3.9996E+1  8.76351E1     1.32E1                                 2312000200716 
  4.0097E+1  8.76488E1     1.26E1                                 2312000200717 
  4.0199E+1  1.29143E2     1.52E1                                 2312000200718 
  4.0300E+1  1.48101E2     1.61E1                                 2312000200719 
  4.0402E+1  1.70544E2     1.78E1                                 2312000200720 
  4.0503E+1  2.01924E2     1.89E1                                 2312000200721 
  4.0605E+1  1.84907E2     1.82E1                                 2312000200722 
  4.0707E+1  1.42115E2     1.53E1                                 2312000200723 
  4.0810E+1  1.05496E2     1.30E1                                 2312000200724 
  4.0912E+1  1.05321E2     1.35E1                                 2312000200725 
  4.1014E+1  6.37380E1     1.05E1                                 2312000200726 
  4.1117E+1  4.74979E1     1.08E1                                 2312000200727 
  4.1219E+1  5.02164E1     9.50E0                                 2312000200728 
  4.1322E+1  4.29172E1     8.50E0                                 2312000200729 
  4.1425E+1  4.12507E1     9.26E0                                 2312000200730 
  4.1528E+1  2.58098E1     7.29E0                                 2312000200731 
  4.1631E+1  2.47886E1     7.62E0                                 2312000200732 
  4.1734E+1  3.22417E1     8.03E0                                 2312000200733 
  4.1838E+1  1.09108E1     6.41E0                                 2312000200734 
  4.1941E+1  5.97319E0     1.95E0                                 2312000200735 
  4.2045E+1  2.37918E1     7.76E0                                 2312000200736 
  4.2149E+1  4.81964E1     1.00E1                                 2312000200737 
  4.2253E+1  8.51037E1     1.29E1                                 2312000200738 
  4.2357E+1  1.02805E2     1.38E1                                 2312000200739 
  4.2461E+1  1.46492E2     1.61E1                                 2312000200740 
  4.2566E+1  9.79484E1     1.34E1                                 2312000200741 
  4.2670E+1  1.03622E2     1.40E1                                 2312000200742 
  4.2775E+1  5.85181E1     1.08E1                                 2312000200743 
  4.2879E+1  4.49930E1     9.94E0                                 2312000200744 
  4.2984E+1  1.03949E2     1.43E1                                 2312000200745 
  4.3089E+1  7.82569E1     1.24E1                                 2312000200746 
  4.3194E+1  5.79534E1     1.09E1                                 2312000200747 
  4.3299E+1  4.02436E1     8.33E0                                 2312000200748 
  4.3405E+1  2.49087E1     8.34E0                                 2312000200749 
  4.3616E+1  1.85223E1     7.57E0                                 2312000200750 
  4.3722E+1  9.35374E0     5.10E0                                 2312000200751 
  4.3827E+1  3.14545E1     7.83E0                                 2312000200752 
  4.3933E+1  1.29525E1     7.34E0                                 2312000200753 
  4.4039E+1  4.10060E0     4.26E0                                 2312000200754 
  4.4146E+1  4.02186E1     8.34E0                                 2312000200755 
  4.4252E+1  6.58708E1     1.12E1                                 2312000200756 
  4.4359E+1  6.40648E1     1.07E1                                 2312000200757 
  4.4465E+1  7.70187E1     1.19E1                                 2312000200758 
  4.4572E+1  7.15468E1     1.18E1                                 2312000200759 
  4.4679E+1  9.59108E1     1.29E1                                 2312000200760 
  4.4786E+1  4.84533E1     9.91E0                                 2312000200761 
  4.4893E+1  7.65570E1     1.19E1                                 2312000200762 
  4.5000E+1  5.59458E1     1.01E1                                 2312000200763 
  4.5108E+1  3.57937E1     8.39E0                                 2312000200764 
  4.5215E+1  3.95814E1     8.48E0                                 2312000200765 
  4.5323E+1  1.74749E1     5.33E0                                 2312000200766 
  4.5431E+1  3.19620E1     6.87E0                                 2312000200767 
  4.5539E+1  3.23299E1     8.48E0                                 2312000200768 
  4.5647E+1  3.45393E1     7.40E0                                 2312000200769 
  4.5755E+1  5.60809E1     1.08E1                                 2312000200770 
  4.5863E+1  3.12471E1     8.54E0                                 2312000200771 
  4.5971E+1  3.65115E1     8.01E0                                 2312000200772 
  4.6080E+1  3.34961E1     8.65E0                                 2312000200773 
  4.6189E+1  1.58708E1     6.11E0                                 2312000200774 
  4.6297E+1  4.81646E1     1.00E1                                 2312000200775 
  4.6406E+1  2.86831E1     7.42E0                                 2312000200776 
  4.6516E+1  3.33941E1     8.42E0                                 2312000200777 
  4.6625E+1  3.05752E1     7.75E0                                 2312000200778 
  4.6734E+1  2.72722E1     6.78E0                                 2312000200779 
  4.6843E+1  1.96383E1     6.22E0                                 2312000200780 
  4.6953E+1  5.10645E1     9.81E0                                 2312000200781 
  4.7063E+1  6.91057E1     1.15E1                                 2312000200782 
  4.7173E+1  4.69439E1     1.03E1                                 2312000200783 
  4.7282E+1  9.00721E1     1.33E1                                 2312000200784 
  4.7393E+1  1.37460E2     1.61E1                                 2312000200785 
  4.7503E+1  1.21268E2     1.58E1                                 2312000200786 
  4.7613E+1  1.17072E2     1.47E1                                 2312000200787 
  4.7724E+1  8.08410E1     1.15E1                                 2312000200788 
  4.7834E+1  5.27555E1     1.02E1                                 2312000200789 
  4.7945E+1  4.76832E1     8.84E0                                 2312000200790 
  4.8056E+1  4.08518E1     7.98E0                                 2312000200791 
  4.8167E+1  5.61712E1     1.14E1                                 2312000200792 
  4.8278E+1  5.68169E1     1.05E1                                 2312000200793 
  4.8389E+1  6.08013E1     1.08E1                                 2312000200794 
  4.8501E+1  5.97945E1     1.00E1                                 2312000200795 
  4.8612E+1  5.31211E1     1.11E1                                 2312000200796 
  4.8724E+1  6.89191E1     1.11E1                                 2312000200797 
  4.8835E+1  8.80449E1     1.35E1                                 2312000200798 
  4.8947E+1  1.11387E2     1.45E1                                 2312000200799 
  4.9059E+1  9.92399E1     1.38E1                                 2312000200800 
  4.9171E+1  1.24821E2     1.53E1                                 2312000200801 
  4.9284E+1  1.15929E2     1.51E1                                 2312000200802 
  4.9396E+1  1.13995E2     1.45E1                                 2312000200803 
  4.9508E+1  9.37525E1     1.31E1                                 2312000200804 
  4.9621E+1  1.19242E2     1.56E1                                 2312000200805 
  4.9734E+1  7.23104E1     1.19E1                                 2312000200806 
  4.9847E+1  1.18058E2     1.55E1                                 2312000200807 
  4.9960E+1  8.40163E1     1.31E1                                 2312000200808 
  5.0073E+1  9.58058E1     1.32E1                                 2312000200809 
  5.0186E+1  7.78958E1     1.25E1                                 2312000200810 
  5.0300E+1  1.19790E2     1.53E1                                 2312000200811 
  5.0413E+1  7.84233E1     1.26E1                                 2312000200812 
  5.0527E+1  7.97680E1     1.29E1                                 2312000200813 
  5.0641E+1  8.17360E1     1.30E1                                 2312000200814 
  5.0755E+1  7.51085E1     1.15E1                                 2312000200815 
  5.0869E+1  7.54856E1     1.30E1                                 2312000200816 
  5.0983E+1  8.81569E1     1.34E1                                 2312000200817 
  5.1097E+1  7.05611E1     1.16E1                                 2312000200818 
  5.1212E+1  9.91421E1     1.49E1                                 2312000200819 
  5.1326E+1  6.01942E1     1.18E1                                 2312000200820 
  5.1441E+1  7.14536E1     1.23E1                                 2312000200821 
  5.1556E+1  7.85268E1     1.25E1                                 2312000200822 
  5.1671E+1  8.36130E1     1.32E1                                 2312000200823 
  5.1786E+1  7.86751E1     1.24E1                                 2312000200824 
  5.1901E+1  1.09520E2     1.54E1                                 2312000200825 
  5.2016E+1  8.23855E1     1.34E1                                 2312000200826 
  5.2132E+1  8.79851E1     1.29E1                                 2312000200827 
  5.2247E+1  8.02077E1     1.19E1                                 2312000200828 
  5.2363E+1  7.56006E1     1.24E1                                 2312000200829 
  5.2479E+1  9.27627E1     1.44E1                                 2312000200830 
  5.2595E+1  1.07185E2     1.45E1                                 2312000200831 
  5.2711E+1  1.01570E2     1.43E1                                 2312000200832 
  5.2827E+1  1.17708E2     1.50E1                                 2312000200833 
  5.2944E+1  1.27346E2     1.56E1                                 2312000200834 
  5.3060E+1  1.59655E2     1.79E1                                 2312000200835 
  5.3177E+1  1.69902E2     1.90E1                                 2312000200836 
  5.3293E+1  2.00024E2     2.03E1                                 2312000200837 
  5.3410E+1  2.23607E2     2.18E1                                 2312000200838 
  5.3527E+1  2.65572E2     2.35E1                                 2312000200839 
  5.3644E+1  2.31779E2     2.15E1                                 2312000200840 
  5.3762E+1  2.27800E2     2.10E1                                 2312000200841 
  5.3879E+1  1.73210E2     1.85E1                                 2312000200842 
  5.3996E+1  1.22876E2     1.45E1                                 2312000200843 
  5.4114E+1  8.41010E1     1.36E1                                 2312000200844 
  5.4232E+1  6.14525E1     1.13E1                                 2312000200845 
  5.4350E+1 1.60920E-2    2.40E-2                                 2312000200846 
  5.4468E+1  3.21852E1     8.28E0                                 2312000200847 
  5.4586E+1  1.68853E1     6.12E0                                 2312000200848 
  5.4704E+1  1.74355E1     7.80E0                                 2312000200849 
  5.4823E+1  9.54768E0     5.96E0                                 2312000200850 
  5.4941E+1  1.56559E1     5.70E0                                 2312000200851 
  5.5060E+1  2.85510E0     2.27E0                                 2312000200852 
  5.5536E+1  3.13174E1     7.47E0                                 2312000200853 
  5.5655E+1  1.23287E1     9.90E0                                 2312000200854 
  5.5774E+1  1.75262E1     5.74E0                                 2312000200855 
  5.5894E+1  1.96410E1     7.84E0                                 2312000200856 
  5.6014E+1  3.34530E1     9.02E0                                 2312000200857 
  5.6133E+1  2.18508E1     7.73E0                                 2312000200858 
  5.6253E+1  5.86767E1     1.16E1                                 2312000200859 
  5.6374E+1  3.61354E1     1.11E1                                 2312000200860 
  5.6494E+1  3.25414E1     8.80E0                                 2312000200861 
  5.6614E+1  1.90796E1     5.62E0                                 2312000200862 
  5.6734E+1  1.27970E1     6.79E0                                 2312000200863 
  5.6855E+1  2.68307E1     7.47E0                                 2312000200864 
  5.6976E+1  1.62295E1     6.01E0                                 2312000200865 
  5.7097E+1  1.51527E0     3.87E0                                 2312000200866 
  5.7218E+1  2.10452E1     6.66E0                                 2312000200867 
  5.7339E+1  1.95851E1     7.56E0                                 2312000200868 
  5.7460E+1  2.94452E1     9.32E0                                 2312000200869 
  5.7581E+1  4.46472E1     9.84E0                                 2312000200870 
  5.7703E+1  6.06987E1     1.17E1                                 2312000200871 
  5.7824E+1  9.48909E1     1.43E1                                 2312000200872 
  5.7946E+1  1.22776E2     1.66E1                                 2312000200873 
  5.8068E+1  1.81307E2     1.99E1                                 2312000200874 
  5.8190E+1  2.79205E2     2.42E1                                 2312000200875 
  5.8312E+1  3.28357E2     2.57E1                                 2312000200876 
  5.8434E+1  4.09577E2     2.86E1                                 2312000200877 
  5.8557E+1  3.22005E2     2.58E1                                 2312000200878 
  5.8679E+1  2.30046E2     2.15E1                                 2312000200879 
  5.8802E+1  2.14631E2     2.15E1                                 2312000200880 
  5.8925E+1  1.57514E2     1.77E1                                 2312000200881 
  5.9047E+1  9.30640E1     1.33E1                                 2312000200882 
  5.9170E+1  5.75928E1     1.08E1                                 2312000200883 
  5.9294E+1  3.38609E1     8.91E0                                 2312000200884 
  5.9417E+1  2.52592E1     7.26E0                                 2312000200885 
  5.9540E+1  1.97445E1     6.78E0                                 2312000200886 
  5.9664E+1  1.73904E1     5.67E0                                 2312000200887 
  5.9787E+1  2.12508E1     8.51E0                                 2312000200888 
  5.9911E+1  2.26288E1     6.55E0                                 2312000200889 
  6.0035E+1  9.38638E0     5.02E0                                 2312000200890 
  6.0159E+1  2.29309E1     7.97E0                                 2312000200891 
  6.0407E+1  1.47836E1     7.94E0                                 2312000200892 
  6.0532E+1  1.67783E1     5.87E0                                 2312000200893 
  6.0657E+1  6.29939E0     3.56E0                                 2312000200894 
  6.0781E+1  2.39418E1     7.29E0                                 2312000200895 
  6.0906E+1  2.43234E1     7.71E0                                 2312000200896 
  6.1031E+1  8.76813E0     4.62E0                                 2312000200897 
  6.1156E+1  3.39134E1     9.20E0                                 2312000200898 
  6.1281E+1  2.98454E1     8.04E0                                 2312000200899 
  6.1407E+1  2.28554E1     9.16E0                                 2312000200900 
  6.1532E+1  1.99124E1     7.19E0                                 2312000200901 
  6.1657E+1  3.57733E1     8.28E0                                 2312000200902 
  6.1783E+1  3.18731E1     8.11E0                                 2312000200903 
  6.1909E+1  2.63511E1     8.34E0                                 2312000200904 
  6.2035E+1  3.37538E1     1.05E1                                 2312000200905 
  6.2161E+1  7.21574E1     1.27E1                                 2312000200906 
  6.2287E+1  6.46300E1     1.25E1                                 2312000200907 
  6.2414E+1  7.76945E1     1.44E1                                 2312000200908 
  6.2540E+1  1.20841E2     1.65E1                                 2312000200909 
  6.2667E+1  1.41640E2     1.73E1                                 2312000200910 
  6.2793E+1  1.90464E2     2.03E1                                 2312000200911 
  6.2920E+1  2.11640E2     2.16E1                                 2312000200912 
  6.3047E+1  2.19920E2     2.16E1                                 2312000200913 
  6.3174E+1  2.30571E2     2.19E1                                 2312000200914 
  6.3302E+1  2.13767E2     2.18E1                                 2312000200915 
  6.3429E+1  1.74972E2     1.92E1                                 2312000200916 
  6.3556E+1  1.27541E2     1.76E1                                 2312000200917 
  6.3684E+1  9.82410E1     1.46E1                                 2312000200918 
  6.3812E+1  1.23418E2     1.69E1                                 2312000200919 
  6.3940E+1  5.47278E1     1.17E1                                 2312000200920 
  6.4068E+1  4.92966E1     9.42E0                                 2312000200921 
  6.4196E+1  5.48875E1     1.07E1                                 2312000200922 
  6.4324E+1  5.21736E1     1.02E1                                 2312000200923 
  6.4452E+1  4.74440E1     1.12E1                                 2312000200924 
  6.4581E+1  3.65717E1     9.01E0                                 2312000200925 
  6.4710E+1  4.85719E1     1.08E1                                 2312000200926 
  6.4838E+1  5.48027E1     1.09E1                                 2312000200927 
  6.4967E+1  4.42056E1     1.03E1                                 2312000200928 
  6.5096E+1  4.37819E1     1.08E1                                 2312000200929 
  6.5225E+1  5.03729E1     1.14E1                                 2312000200930 
  6.5355E+1  2.48018E1     7.33E0                                 2312000200931 
  6.5484E+1  4.74495E1     1.00E1                                 2312000200932 
  6.5614E+1  3.38409E1     8.15E0                                 2312000200933 
  6.5743E+1  4.47772E1     1.06E1                                 2312000200934 
  6.5873E+1  4.20212E1     1.02E1                                 2312000200935 
  6.6003E+1  5.88344E1     1.14E1                                 2312000200936 
  6.6133E+1  4.22011E1     1.30E1                                 2312000200937 
  6.6263E+1  5.84606E1     1.22E1                                 2312000200938 
  6.6394E+1  4.28920E1     1.33E1                                 2312000200939 
  6.6524E+1  3.12601E1     9.45E0                                 2312000200940 
  6.6655E+1  7.87220E0     1.16E1                                 2312000200941 
  6.6785E+1  6.18316E0     3.95E0                                 2312000200942 
  6.6916E+1  1.15343E1     5.77E0                                 2312000200943 
  6.7047E+1  5.03833E1     1.05E1                                 2312000200944 
  6.7178E+1  4.29014E0     1.53E1                                 2312000200945 
  6.7309E+1  2.71245E1     7.89E0                                 2312000200946 
  6.7441E+1  1.40716E1     4.72E0                                 2312000200947 
  6.7572E+1  2.51063E1     6.48E0                                 2312000200948 
  6.7704E+1  4.35743E0     4.09E0                                 2312000200949 
  6.7835E+1  3.82618E1     1.08E1                                 2312000200950 
  6.7967E+1  5.52102E1     1.22E1                                 2312000200951 
  6.8099E+1  3.29401E1     9.11E0                                 2312000200952 
  6.8231E+1  5.67175E1     1.13E1                                 2312000200953 
  6.8364E+1  4.07823E1     8.80E0                                 2312000200954 
  6.8496E+1  5.70553E1     1.15E1                                 2312000200955 
  6.8628E+1  6.71307E1     1.19E1                                 2312000200956 
  6.8761E+1  6.62185E1     1.22E1                                 2312000200957 
  6.8894E+1  5.90427E1     1.08E1                                 2312000200958 
  6.9027E+1  5.88381E1     1.08E1                                 2312000200959 
  6.9160E+1  7.18613E1     1.35E1                                 2312000200960 
  6.9293E+1  4.00725E1     9.95E0                                 2312000200961 
  6.9426E+1  4.04595E1     8.56E0                                 2312000200962 
  6.9559E+1  8.55006E0     6.52E0                                 2312000200963 
  6.9693E+1  3.45295E1     9.55E0                                 2312000200964 
  6.9826E+1  2.87381E1     9.26E0                                 2312000200965 
  6.9960E+1  1.20429E1     6.18E0                                 2312000200966 
  7.0094E+1  2.22007E1     6.17E0                                 2312000200967 
  7.0228E+1  1.85567E1     8.75E0                                 2312000200968 
  7.0362E+1  1.04423E1     5.31E0                                 2312000200969 
  7.0497E+1  3.51733E0     1.46E0                                 2312000200970 
  7.0631E+1  2.45150E1     1.06E1                                 2312000200971 
  7.0766E+1  2.07848E1     8.06E0                                 2312000200972 
  7.0900E+1  2.57805E1     1.02E1                                 2312000200973 
  7.1170E+1  2.02424E1     7.22E0                                 2312000200974 
  7.1305E+1  1.08593E1     6.49E0                                 2312000200975 
  7.1440E+1  8.97936E0     5.52E0                                 2312000200976 
  7.1576E+1  3.11755E1     9.45E0                                 2312000200977 
  7.1711E+1  4.46321E1     1.11E1                                 2312000200978 
  7.1846E+1  1.49460E1     6.50E0                                 2312000200979 
  7.1982E+1  7.08372E1     1.33E1                                 2312000200980 
  7.2118E+1  5.16371E1     1.16E1                                 2312000200981 
  7.2254E+1  7.57796E1     1.37E1                                 2312000200982 
  7.2390E+1  6.91766E1     1.30E1                                 2312000200983 
  7.2526E+1  7.89261E1     1.45E1                                 2312000200984 
  7.2662E+1  9.51130E1     1.48E1                                 2312000200985 
  7.2799E+1  1.08526E2     1.66E1                                 2312000200986 
  7.2936E+1  1.39130E2     1.89E1                                 2312000200987 
  7.3072E+1  1.50325E2     1.81E1                                 2312000200988 
  7.3209E+1  1.54764E2     1.98E1                                 2312000200989 
  7.3346E+1  1.58389E2     1.91E1                                 2312000200990 
  7.3483E+1  2.44565E2     2.37E1                                 2312000200991 
  7.3620E+1  2.37667E2     2.20E1                                 2312000200992 
  7.3758E+1  2.34985E2     2.28E1                                 2312000200993 
  7.3895E+1  2.47033E2     2.31E1                                 2312000200994 
  7.4033E+1  1.59558E2     1.89E1                                 2312000200995 
  7.4171E+1  7.71462E1     1.31E1                                 2312000200996 
  7.4308E+1  4.50168E1     1.01E1                                 2312000200997 
  7.4446E+1  2.06632E1     6.12E0                                 2312000200998 
  7.4584E+1  2.24229E1     7.09E0                                 2312000200999 
  7.4861E+1  1.65297E1     7.48E0                                 2312000201000 
  7.4999E+1  2.43466E0     3.26E0                                 2312000201001 
  7.5138E+1  9.73975E0     4.32E0                                 2312000201002 
  7.5277E+1  3.01037E1     7.66E0                                 2312000201003 
  7.5416E+1  6.09264E0     6.59E0                                 2312000201004 
  7.5555E+1  1.62125E1     6.34E0                                 2312000201005 
  7.5694E+1  4.35370E0     2.53E0                                 2312000201006 
  7.5833E+1  6.84181E0     1.92E1                                 2312000201007 
  7.5973E+1  3.73778E0     1.77E0                                 2312000201008 
  7.6112E+1  9.53996E0     4.13E0                                 2312000201009 
  7.6392E+1  5.94748E0     3.39E0                                 2312000201010 
  7.6531E+1  1.29284E1     5.23E0                                 2312000201011 
  7.6671E+1  4.51088E0     3.04E0                                 2312000201012 
  7.6812E+1  7.16041E0     8.40E0                                 2312000201013 
  7.6952E+1  7.74114E0     4.80E0                                 2312000201014 
  7.7092E+1  1.62296E1     6.03E0                                 2312000201015 
  7.7514E+1  6.81108E0     4.29E0                                 2312000201016 
  7.7655E+1  2.38642E0     1.73E0                                 2312000201017 
  7.7938E+1  3.25005E0     2.83E0                                 2312000201018 
  7.8079E+1  1.37683E0     1.49E0                                 2312000201019 
  7.8362E+1  1.00494E1     5.58E0                                 2312000201020 
  7.8504E+1  5.63331E0     4.99E0                                 2312000201021 
  7.8645E+1  1.16934E1     4.93E0                                 2312000201022 
  7.8787E+1  1.10712E1     2.28E1                                 2312000201023 
  7.8930E+1  8.08865E0     5.93E0                                 2312000201024 
  7.9072E+1  1.48988E1     5.70E0                                 2312000201025 
  7.9214E+1  2.63983E1     9.57E0                                 2312000201026 
  7.9356E+1  1.36759E1     8.37E0                                 2312000201027 
  7.9499E+1  1.77381E1     9.19E0                                 2312000201028 
  7.9642E+1  1.18709E1     4.46E0                                 2312000201029 
  7.9785E+1  1.68406E1     6.26E0                                 2312000201030 
  7.9928E+1  3.18823E0     1.32E2                                 2312000201031 
  8.0071E+1  2.27129E1     8.34E0                                 2312000201032 
  8.0357E+1  1.37169E1     8.50E0                                 2312000201033 
  8.0501E+1  1.54093E0    6.52E-1                                 2312000201034 
  8.0644E+1  1.70194E1     7.42E0                                 2312000201035 
  8.0788E+1  1.24361E1     6.27E0                                 2312000201036 
  8.0932E+1  2.10331E1     7.68E0                                 2312000201037 
  8.1076E+1  1.57787E1     9.61E0                                 2312000201038 
  8.1220E+1  2.96612E1     8.92E0                                 2312000201039 
  8.1365E+1  2.87211E1     8.11E0                                 2312000201040 
  8.1509E+1  2.00475E1     6.41E0                                 2312000201041 
  8.1653E+1  2.61646E1     7.08E0                                 2312000201042 
  8.1798E+1  3.94658E1     1.13E1                                 2312000201043 
  8.1943E+1  2.27804E1     6.67E0                                 2312000201044 
  8.2088E+1  2.62710E1     8.91E0                                 2312000201045 
  8.2233E+1  3.57193E1     9.16E0                                 2312000201046 
  8.2378E+1  2.63987E1     7.07E0                                 2312000201047 
  8.2523E+1  8.39167E0     4.70E0                                 2312000201048 
  8.2669E+1  4.61531E1     1.18E1                                 2312000201049 
  8.2814E+1  5.24717E1     1.18E1                                 2312000201050 
  8.2960E+1  3.95398E1     9.54E0                                 2312000201051 
  8.3106E+1  7.23546E1     1.44E1                                 2312000201052 
  8.3251E+1  3.98122E1     9.98E0                                 2312000201053 
  8.3398E+1  6.31420E1     1.27E1                                 2312000201054 
  8.3544E+1  1.86468E1     6.02E0                                 2312000201055 
  8.3690E+1  2.80057E1     1.00E1                                 2312000201056 
  8.3837E+1  3.76487E1     9.93E0                                 2312000201057 
  8.3983E+1  5.16537E1     1.26E1                                 2312000201058 
  8.4130E+1  8.40031E1     1.76E1                                 2312000201059 
  8.4277E+1  6.19097E1     1.37E1                                 2312000201060 
  8.4424E+1  7.16737E1     1.65E1                                 2312000201061 
  8.4571E+1  4.90136E1     1.19E1                                 2312000201062 
  8.4718E+1  6.18768E1     1.44E1                                 2312000201063 
  8.4865E+1  6.67912E1     1.61E1                                 2312000201064 
  8.5013E+1  8.54437E1     1.55E1                                 2312000201065 
  8.5160E+1  7.61926E1     1.46E1                                 2312000201066 
  8.5308E+1  8.61891E1     1.52E1                                 2312000201067 
  8.5456E+1  7.95485E1     1.42E1                                 2312000201068 
  8.5604E+1  5.79266E1     1.14E1                                 2312000201069 
  8.5752E+1  3.77638E1     9.93E0                                 2312000201070 
  8.5900E+1  2.51669E1     8.55E0                                 2312000201071 
  8.6048E+1  4.52015E1     1.14E1                                 2312000201072 
  8.6197E+1  1.31149E1     7.47E0                                 2312000201073 
  8.6346E+1  3.78055E1     9.55E0                                 2312000201074 
  8.6494E+1  3.91000E1     9.51E0                                 2312000201075 
  8.6643E+1  2.97721E1     8.19E0                                 2312000201076 
  8.6792E+1  5.54156E1     1.26E1                                 2312000201077 
  8.6941E+1  4.31903E1     1.10E1                                 2312000201078 
  8.7091E+1  1.89699E1     6.31E0                                 2312000201079 
  8.7240E+1  3.11409E1     7.88E0                                 2312000201080 
  8.7389E+1  3.42449E1     9.52E0                                 2312000201081 
  8.7539E+1  2.89272E1     9.02E0                                 2312000201082 
  8.7689E+1  2.68617E1     9.01E0                                 2312000201083 
  8.7839E+1  1.33195E1     7.08E0                                 2312000201084 
  8.7989E+1  4.90918E1     1.45E1                                 2312000201085 
  8.8139E+1  2.14627E1     8.28E0                                 2312000201086 
  8.8289E+1  3.55385E1     1.24E1                                 2312000201087 
  8.8439E+1  3.63952E0     1.63E0                                 2312000201088 
  8.8590E+1  7.41699E0     4.58E0                                 2312000201089 
  8.8741E+1  2.69540E1     3.50E1                                 2312000201090 
  8.8891E+1  3.14250E1     1.67E1                                 2312000201091 
  8.9042E+1  6.79560E1     2.30E1                                 2312000201092 
  8.9193E+1  4.08382E1     2.59E1                                 2312000201093 
  8.9345E+1  5.13002E1     3.17E1                                 2312000201094 
  8.9496E+1  4.72812E1     2.48E1                                 2312000201095 
  8.9799E+1  5.11266E1     2.14E1                                 2312000201096 
  8.9951E+1  3.88833E1     1.24E1                                 2312000201097 
  9.0102E+1  5.54001E1     1.30E1                                 2312000201098 
  9.0254E+1  6.37130E1     1.29E1                                 2312000201099 
  9.0406E+1  4.22568E1     1.07E1                                 2312000201100 
  9.0559E+1  3.89022E1     1.05E1                                 2312000201101 
  9.0711E+1  3.51230E1     1.04E1                                 2312000201102 
  9.0863E+1  5.35625E1     1.32E1                                 2312000201103 
  9.1016E+1  2.79569E1     7.41E0                                 2312000201104 
  9.1169E+1  6.06352E1     1.29E1                                 2312000201105 
  9.1322E+1  4.41078E1     1.12E1                                 2312000201106 
  9.1475E+1  5.51071E1     1.20E1                                 2312000201107 
  9.1627E+1  5.68147E1     1.32E1                                 2312000201108 
  9.1781E+1  7.09522E1     1.44E1                                 2312000201109 
  9.1934E+1  9.99381E1     1.62E1                                 2312000201110 
  9.2088E+1  1.20282E2     1.65E1                                 2312000201111 
  9.2241E+1  1.19873E2     1.75E1                                 2312000201112 
  9.2395E+1  1.28597E2     1.73E1                                 2312000201113 
  9.2549E+1  1.29351E2     1.77E1                                 2312000201114 
  9.2703E+1  1.50765E2     1.93E1                                 2312000201115 
  9.2857E+1  1.38824E2     1.78E1                                 2312000201116 
  9.3011E+1  1.24771E2     1.79E1                                 2312000201117 
  9.3165E+1  1.34515E2     1.84E1                                 2312000201118 
  9.3320E+1  1.11583E2     1.57E1                                 2312000201119 
  9.3475E+1  9.44788E1     1.59E1                                 2312000201120 
  9.3629E+1  8.29971E1     1.48E1                                 2312000201121 
  9.3784E+1  8.17812E1     1.50E1                                 2312000201122 
  9.3939E+1  4.52686E1     1.09E1                                 2312000201123 
  9.4094E+1  3.31966E1     8.63E0                                 2312000201124 
  9.4250E+1  3.42418E1     9.77E0                                 2312000201125 
  9.4405E+1  1.11997E1     5.56E0                                 2312000201126 
  9.4561E+1  4.32590E1     1.28E1                                 2312000201127 
  9.4872E+1  3.20560E0     2.22E0                                 2312000201128 
  9.5028E+1  8.84275E0     8.82E0                                 2312000201129 
  9.5184E+1  7.17887E0     5.39E0                                 2312000201130 
  9.5340E+1  9.36799E0     5.74E0                                 2312000201131 
  9.5653E+1  1.31256E1     9.43E0                                 2312000201132 
  9.5809E+1  2.53258E0     4.13E0                                 2312000201133 
  9.6123E+1  2.90475E1     9.19E0                                 2312000201134 
  9.6280E+1  2.68750E0     2.92E0                                 2312000201135 
  9.6437E+1  1.78197E0    9.72E-1                                 2312000201136 
  9.6594E+1  2.97771E1     7.83E0                                 2312000201137 
  9.6751E+1  1.40705E1     6.40E0                                 2312000201138 
  9.6909E+1  3.20846E1     7.72E0                                 2312000201139 
  9.7066E+1  3.07515E1     8.81E0                                 2312000201140 
  9.7224E+1  2.97866E1     8.31E0                                 2312000201141 
  9.7382E+1  3.52222E1     9.34E0                                 2312000201142 
  9.7540E+1  1.79259E1     7.18E0                                 2312000201143 
  9.7698E+1  1.94080E1     6.78E0                                 2312000201144 
  9.7856E+1  1.13419E1     5.81E0                                 2312000201145 
  9.8014E+1  3.06544E1     8.81E0                                 2312000201146 
  9.8173E+1  8.58219E0     1.25E1                                 2312000201147 
  9.8332E+1  2.48886E1     9.64E0                                 2312000201148 
  9.8490E+1  1.97661E1     7.93E0                                 2312000201149 
  9.8649E+1  1.56489E0    9.56E-1                                 2312000201150 
  9.8808E+1  5.13081E0     3.41E0                                 2312000201151 
  9.8967E+1  4.57739E1     1.38E1                                 2312000201152 
  9.9126E+1  5.90538E1     1.54E1                                 2312000201153 
  9.9286E+1  7.81360E1     1.62E1                                 2312000201154 
  9.9445E+1  1.08274E2     1.75E1                                 2312000201155 
  9.9605E+1  8.84822E1     1.56E1                                 2312000201156 
  9.9765E+1  1.23495E2     1.86E1                                 2312000201157 
  9.9925E+1  1.13031E2     1.62E1                                 2312000201158 
  1.0008E+2  1.03157E2     1.52E1                                 2312000201159 
ENDDATA           1124          0                                 2312000201160 
ENDSUBENT         1159          0                                 2312000299999 
SUBENT        23120003   20110726                             22282312000300001 
BIB                  5         13                                 2312000300002 
REACTION   (92-U-235(N,F),,SIG)                                   2312000300003 
SAMPLE      Highly enriched U-235 sample.                         2312000300004 
ANALYSIS   Average ratio of detection efficiencies of U to B was  2312000300005 
           determined by fit from 2 to 20 eV to be 1.214 +- 0.02  2312000300006 
             (Fig.2a of S,AIP-1175,,207,2010).                    2312000300007 
           C-s was measured to test the good functioning of exp.  2312000300008 
           setup and to calibrate the incident neutron energy.    2312000300009 
ADD-RES    (COMP) Compared with JEFF-3.1 .                        2312000300010 
STATUS     (PRELM) Preliminary result.                            2312000300011 
            Fig.2b of S,AIP-1175,207,2010.                        2312000300012 
            Fig.3 of J,KPS,58,(1506),2011.                        2312000300013 
           (UNOBT) Request for the data was sent 26-07-2011 to    2312000300014 
            Oliver Serot - olivier.serot@cea.fr .                 2312000300015 
ENDBIB              13          0                                 2312000300016 
COMMON               2          3                                 2312000300017 
EN-MIN     EN-MAX                                                 2312000300018 
EV         EV                                                     2312000300019 
 2.        20.                                                    2312000300020 
ENDCOMMON            3          0                                 2312000300021 
NODATA               0          0                                 2312000300022 
ENDSUBENT           21          0                                 2312000399999 
SUBENT        23120004   20110726                             22282312000400001 
BIB                  7         26                                 2312000400002 
REACTION   (96-CM-245(N,F),,RI,,LIM)                              2312000400003 
SAMPLE     Curium oxide sample of 50 microg/cm**2 thickness,active2312000400004 
           diameter 15 mm was mounted in the centre of a vacuum   2312000400005 
           chamber, back-to-back with B-10 layer.                 2312000400006 
           Isotopic composition in March 2003 : Cm-245 - 98.48%,  2312000400007 
           Cm-244 - 1.11%, Cm-246 - 0.405%, Cm-247 - 0.008%,      2312000400008 
           Cm-248 - 0.002%.                                       2312000400009 
REL-REF    (A,10730001,J.C.Brown+,J,NSE,65,166,1978)              2312000400010 
           (A,10121001,M.S.Moore+,J,PR/C,3,1656,1971)             2312000400011 
           (D,13993001,R M.White+,C,79KNOX,,496,1979)             2312000400012 
            RI are compared with those of:                        2312000400013 
             Energy range,ev  JEFF-3.1  Browne  Moore  White      2312000400014 
             0.5    10.       585.07    575.58                    2312000400015 
            10.     20.       23.33     24.90          28.94      2312000400016 
            20.     35.       35.79     43.14   35.45  47.04      2312000400017 
            35.     63.       47.00             47.54  52.99      2312000400018 
            63.    100.       25.10             25.40             2312000400019 
           100.   1000.       54.59             54.53             2312000400020 
ADD-RES    (COMP) Between 0.5 eV and 100 eV the difference between2312000400021 
           JEFF-3.1.1 and the present work is < 1%. Between 20 eV 2312000400022 
           and 100 eV our results show a more important systematic2312000400023 
           underestimation (up to 15%) compared to JEFF-3.1.1.    2312000400024 
ERR-ANALYS (DATA-ERR) Not specified, probably total.              2312000400025 
STATUS     (TABLE) Table 2 of J,KPS,58,(1506),2011.               2312000400026 
           (PRELM) Preliminary results.                           2312000400027 
HISTORY    (20110718C) Subent was added.                          2312000400028 
ENDBIB              26          0                                 2312000400029 
NOCOMMON             0          0                                 2312000400030 
DATA                 4          6                                 2312000400031 
EN-MIN     EN-MAX     DATA       DATA-ERR                         2312000400032 
EV         EV         B          B                                2312000400033 
  0.5        10.       591.       21.                             2312000400034 
 10.         20.        23.        4.                             2312000400035 
 20.         35.        39.        6.                             2312000400036 
 35.         63.        42.        6.                             2312000400037 
 63.        100.        21.        5.                             2312000400038 
100.       1000.        49.       22.                             2312000400039 
ENDDATA              8          0                                 2312000400040 
ENDSUBENT           39          0                                 2312000499999 
ENDENTRY             4          0                                 2312099999999 
