ENTRY            23290   20180429                             227023290  0    1 
SUBENT        23290001   20180429                             227023290  1    1 
BIB                 12         29                                 23290  1    2 
TITLE      Energy spectra of beta-delayed neutrons from 27-31Na   23290  1    3 
           decay.                                                 23290  1    4 
AUTHOR     (W.Ziegert,L.C.Carraz,P.G.Hansen,B.Jonson,K.-L.Kratz,  23290  1    5 
           G.Nyman,H.Ohm,H.L.Ravn,A.Schroeder)                    23290  1    6 
INSTITUTE  (2GERMNZ) W.Ziegert,K.-L.Kratz,H.Ohm,A.Schroeder.      23290  1    7 
           (2ZZZCER) L.C.Carraz,B.Jonson,G.Nyman,H.L.Ravn.        23290  1    8 
           (2DENAAU) P.G.Hansen.                                  23290  1    9 
REFERENCE  (R,CERN-81-09,327,1981)                                23290  1   10 
           (P,MAINZ-78,20,1979) In German. First author W.Ziegert.23290  1   11 
            Na-27,29,31 delayed neutron spectra on figs.          23290  1   12 
REL-REF    (I,,H.Franz+,J,NIM,144,253,1977)                       23290  1   13 
FACILITY   (SYNCY,2ZZZCER) Mass-separator ISOLDE facility at CERN 23290  1   14 
           synchrocyclotron .                                     23290  1   15 
SAMPLE      Sodium isotopes were produced by bombarding a uranium 23290  1   16 
           carbide at 2000 degC with 600-MeV protons.             23290  1   17 
           After mass separation the isotope was collected on an  23290  1   18 
           Al foil in a thin tube situated in the center of a     23290  1   19 
           2x2x2 m paraffin/Cd shielding cabin.                   23290  1   20 
DETECTOR   (IOCH) Three identical He-3-filled ionization chambers 23290  1   21 
           operated in parallel.                                  23290  1   22 
EN-SEC     (E,N) Delayed neutron energy                           23290  1   23 
METHOD     (PHD) Pulse-height spectra measured were unfolded for  23290  1   24 
           detector response to eliminate the contributions from  23290  1   25 
           wall effects, proton and He-3 recoil.                  23290  1   26 
CORRECTION For detector efficiency.                               23290  1   27 
HISTORY    (20160325C) M.M.                                       23290  1   28 
           (20170620A) M.M. Ref. P,MAINZ-78,20,1978 was added.    23290  1   29 
           Subent 002 data were re-digitized.                     23290  1   30 
           (20180429U) SD: Year corrected in ref.(1978 -> 1979).  23290  1   31 
ENDBIB              29          0                                 23290  1   32 
NOCOMMON             0          0                                 23290  1   33 
ENDSUBENT           32          0                                 23290  199999 
SUBENT        23290002   20170620                             226023290  2    1 
BIB                  5         13                                 23290  2    2 
REACTION   (11-NA-27(0,B-)12-MG-27,,PN/DE,,REL)                   23290  2    3 
           Relative beta-delayed neutron spectrum, counts/8keV .  23290  2    4 
DECAY-DATA (11-NA-27,295.MSEC)                                    23290  2    5 
ERR-ANALYS  Quantization errors (one pixel):                      23290  2    6 
            scale X (energy) - 2.07 keV,                          23290  2    7 
            scale Y (data) - 1.26 arb.units .                     23290  2    8 
STATUS     (CURVE) Fig.1 of R,CERN-81-09,327,1981                 23290  2    9 
            Digitized data received from consultants of           23290  2   10 
            beta-delayed neutron CRP were re-digitized.           23290  2   11 
            The same data on Fig.11a, P,MAINZ-78,20,1978 .        23290  2   12 
HISTORY    (20170620A) M.M. Figure was re-digitized as histogram, 23290  2   13 
            scaling 1/10 was introduced at E > ~510 keV as        23290  2   14 
            mentioned on fig.1 of R,CERN-81-09,327,1981 .         23290  2   15 
ENDBIB              13          0                                 23290  2   16 
COMMON               2          3                                 23290  2   17 
EN-ERR-DIG ERR-DIG                                                23290  2   18 
KEV        ARB-UNITS                                              23290  2   19 
0.752      0.356                                                  23290  2   20 
ENDCOMMON            3          0                                 23290  2   21 
DATA                 3        181                                 23290  2   22 
E-MIN      E-MAX      DATA                                        23290  2   23 
KEV        KEV        ARB-UNITS                                   23290  2   24 
   0.83       23.59      4.87                                     23290  2   25 
  23.59       37.04      6.15                                     23290  2   26 
  37.04       57.74      4.92                                     23290  2   27 
  57.74       66.01      6.20                                     23290  2   28 
  66.01       81.53      4.97                                     23290  2   29 
  81.53       89.81      6.24                                     23290  2   30 
  89.81       98.09      5.00                                     23290  2   31 
  98.09      120.85      7.54                                     23290  2   32 
 120.85      129.12      8.82                                     23290  2   33 
 129.12      178.79      7.61                                     23290  2   34 
 178.79      192.24      9.54                                     23290  2   35 
 192.24      216.04      7.69                                     23290  2   36 
 216.04      225.35      8.34                                     23290  2   37 
 225.35      240.87      5.85                                     23290  2   38 
 240.87      249.13     15.29                                     23290  2   39 
 249.13      255.33     12.79                                     23290  2   40 
 255.33      263.62     17.83                                     23290  2   41 
 263.62      270.88      5.28                                     23290  2   42 
 270.88      280.17      9.69                                     23290  2   43 
 280.17      290.52     15.36                                     23290  2   44 
 290.52      296.74      7.21                                     23290  2   45 
 296.74      311.20     14.13                                     23290  2   46 
 311.20      319.47     16.03                                     23290  2   47 
 319.47      338.10     19.20                                     23290  2   48 
 338.10      344.32     16.70                                     23290  2   49 
 344.32      350.51     14.20                                     23290  2   50 
 350.51      367.01     23.01                                     23290  2   51 
 367.01      375.28     35.60                                     23290  2   52 
 375.28      383.51     30.59                                     23290  2   53 
 383.51      391.74     60.75                                     23290  2   54 
 391.74      398.01     48.20                                     23290  2   55 
 398.01      406.30     36.28                                     23290  2   56 
 406.30      414.57     38.80                                     23290  2   57 
 414.57      422.79     40.70                                     23290  2   58 
 422.79      431.03     63.33                                     23290  2   59 
 431.03      439.05     59.57                                     23290  2   60 
 439.05      446.42    182.07                                     23290  2   61 
 446.42      454.91    470.39                                     23290  2   62 
 454.91      462.51    558.35                                     23290  2   63 
 462.51      471.68    305.85                                     23290  2   64 
 471.68      478.47    153.22                                     23290  2   65 
 478.47      487.06     41.43                                     23290  2   66 
 487.06      494.38     13.18                                     23290  2   67 
 494.38      501.62      6.91                                     23290  2   68 
 501.62      508.86     14.46                                     23290  2   69 
 508.86      517.94      9.45                                     23290  2   70 
 517.94      526.19     11.44                                     23290  2   71 
 526.19      542.90      2.71                                     23290  2   72 
 542.90      549.14      3.84                                     23290  2   73 
 549.14      557.37      1.33                                     23290  2   74 
 557.37      565.60      6.35                                     23290  2   75 
 565.60      582.23      3.84                                     23290  2   76 
 582.23      588.43      2.71                                     23290  2   77 
 588.43      596.63      3.85                                     23290  2   78 
 596.63      604.97      6.49                                     23290  2   79 
 604.97      613.38      1.34                                     23290  2   80 
 613.38      621.61      0.                                       23290  2   81 
 621.61      628.81      3.98                                     23290  2   82 
 628.81      638.11      1.40                                     23290  2   83 
 638.11      644.19      5.24                                     23290  2   84 
 644.19      652.36      6.62                                     23290  2   85 
 652.36      661.54     10.64                                     23290  2   86 
 661.54      669.94     12.02                                     23290  2   87 
 669.94      677.24      5.49                                     23290  2   88 
 677.24      685.46      9.39                                     23290  2   89 
 685.46      693.83      8.13                                     23290  2   90 
 693.83      724.89      5.50                                     23290  2   91 
 724.89      733.05      6.88                                     23290  2   92 
 733.05      741.20     11.16                                     23290  2   93 
 741.20      749.48     12.54                                     23290  2   94 
 749.48      756.81     11.35                                     23290  2   95 
 756.81      781.67      8.52                                     23290  2   96 
 781.67      789.01      9.91                                     23290  2   97 
 789.01      797.34      4.38                                     23290  2   98 
 797.34      804.65      7.15                                     23290  2   99 
 804.65      812.05      1.49                                     23290  2  100 
 812.05      821.33      0.11                                     23290  2  101 
 821.33      830.62      2.75                                     23290  2  102 
 830.62      838.86      1.50                                     23290  2  103 
 838.86      844.07      4.33                                     23290  2  104 
 844.07      853.38      0.                                       23290  2  105 
 853.38      861.52      4.39                                     23290  2  106 
 861.52      869.69      5.96                                     23290  2  107 
 869.69      878.01      9.11                                     23290  2  108 
 878.01      885.08      4.58                                     23290  2  109 
 885.08      894.18     16.90                                     23290  2  110 
 894.18      908.88     13.95                                     23290  2  111 
 908.88      917.46      7.67                                     23290  2  112 
 917.46      925.88      0.                                       23290  2  113 
 925.88      942.26      1.51                                     23290  2  114 
 942.26      950.57      7.80                                     23290  2  115 
 950.57      958.88      0.                                       23290  2  116 
 958.88      973.29      6.29                                     23290  2  117 
 973.29      981.70      3.28                                     23290  2  118 
 981.70      991.00      0.                                       23290  2  119 
 991.00     1006.35      4.85                                     23290  2  120 
1006.35     1013.45      6.55                                     23290  2  121 
1013.45     1022.60     11.58                                     23290  2  122 
1022.60     1030.95     14.85                                     23290  2  123 
1030.95     1037.25      8.38                                     23290  2  124 
1037.25     1045.60      9.95                                     23290  2  125 
1045.60     1054.05      5.05                                     23290  2  126 
1054.05     1062.35      1.66                                     23290  2  127 
1062.35     1069.70      3.23                                     23290  2  128 
1069.70     1077.95      0.                                       23290  2  129 
1077.95     1087.10      3.30                                     23290  2  130 
1087.10     1093.35      6.82                                     23290  2  131 
1093.35     1101.70      1.67                                     23290  2  132 
1101.70     1110.00      3.30                                     23290  2  133 
1110.00     1134.85      0.                                       23290  2  134 
1134.85     1142.00      3.37                                     23290  2  135 
1142.00     1149.30      5.19                                     23290  2  136 
1149.30     1157.60      0.                                       23290  2  137 
1157.60     1165.75      3.44                                     23290  2  138 
1165.75     1174.05      6.96                                     23290  2  139 
1174.05     1182.25      1.81                                     23290  2  140 
1182.25     1190.55      8.84                                     23290  2  141 
1190.55     1197.70      1.75                                     23290  2  142 
1197.70     1205.95     12.68                                     23290  2  143 
1205.95     1213.45      3.57                                     23290  2  144 
1213.45     1221.80      1.75                                     23290  2  145 
1221.80     1231.05      0.                                       23290  2  146 
1231.05     1237.25      5.33                                     23290  2  147 
1237.25     1244.50      0.                                       23290  2  148 
1244.50     1254.65      5.46                                     23290  2  149 
1254.65     1262.85      7.35                                     23290  2  150 
1262.85     1279.10      9.36                                     23290  2  151 
1279.10     1294.25     22.68                                     23290  2  152 
1294.25     1302.75     26.64                                     23290  2  153 
1302.75     1310.25     13.45                                     23290  2  154 
1310.25     1317.80     11.56                                     23290  2  155 
1317.80     1326.05      0.                                       23290  2  156 
1326.05     1333.20     13.45                                     23290  2  157 
1333.20     1341.65      3.84                                     23290  2  158 
1341.65     1348.95      5.60                                     23290  2  159 
1348.95     1357.20      1.96                                     23290  2  160 
1357.20     1364.45      5.73                                     23290  2  161 
1364.45     1372.75      3.78                                     23290  2  162 
1372.75     1380.10      1.90                                     23290  2  163 
1380.10     1389.40      0.                                       23290  2  164 
1389.40     1403.90      3.73                                     23290  2  165 
1403.90     1412.15      0.                                       23290  2  166 
1412.15     1420.35      3.85                                     23290  2  167 
1420.35     1452.45      1.97                                     23290  2  168 
1452.45     1458.75      3.86                                     23290  2  169 
1458.75     1470.15      0.                                       23290  2  170 
1470.15     1476.25      1.85                                     23290  2  171 
1476.25     1484.60      3.99                                     23290  2  172 
1484.60     1491.85      0.                                       23290  2  173 
1491.85     1500.05      3.99                                     23290  2  174 
1500.05     1509.40      0.                                       23290  2  175 
1509.40     1516.60      4.06                                     23290  2  176 
1516.60     1538.30      1.99                                     23290  2  177 
1538.30     1547.55      6.01                                     23290  2  178 
1547.55     1555.90      4.06                                     23290  2  179 
1555.90     1572.50      2.06                                     23290  2  180 
1572.50     1580.80      4.01                                     23290  2  181 
1580.80     1588.05      0.                                       23290  2  182 
1588.05     1610.85      2.00                                     23290  2  183 
1610.85     1619.15      0.                                       23290  2  184 
1619.15     1627.45      1.94                                     23290  2  185 
1627.45     1666.75      0.                                       23290  2  186 
1666.75     1684.30      2.01                                     23290  2  187 
1684.30     1714.35      0.                                       23290  2  188 
1714.35     1730.60      2.02                                     23290  2  189 
1730.60     1737.85      11.13                                    23290  2  190 
1737.85     1745.35      2.27                                     23290  2  191 
1745.35     1753.65      0.                                       23290  2  192 
1753.65     1777.45      2.03                                     23290  2  193 
1777.45     1801.20      0.                                       23290  2  194 
1801.20     1810.55      4.42                                     23290  2  195 
1810.55     1818.80      0.                                       23290  2  196 
1818.80     1827.05      4.42                                     23290  2  197 
1827.05     1857.15      0.                                       23290  2  198 
1857.15     1865.40      2.04                                     23290  2  199 
1865.40     1873.60      0.                                       23290  2  200 
1873.60     1889.15      4.43                                     23290  2  201 
1889.15     1899.50      0.                                       23290  2  202 
1899.50     1916.00      4.44                                     23290  2  203 
1916.00     1938.90      2.30                                     23290  2  204 
1938.90                  0.0                                      23290  2  205 
ENDDATA            183          0                                 23290  2  206 
ENDSUBENT          205          0                                 23290  299999 
SUBENT        23290003   20160324                             224923290  3    1 
BIB                  3          6                                 23290  3    2 
REACTION   (11-NA-28(0,B-)12-MG-28,,PN/DE,,REL)                   23290  3    3 
           Relative beta-delayed neutron spectrum, counts/8keV .  23290  3    4 
DECAY-DATA (11-NA-28,31.MSEC)                                     23290  3    5 
STATUS     (CURVE) Fig.3 of R,CERN-81-09,327,1981                 23290  3    6 
            Digitized data were received from consultants of      23290  3    7 
            beta-delayed neutron CRP .                            23290  3    8 
ENDBIB               6          0                                 23290  3    9 
NOCOMMON             0          0                                 23290  3   10 
DATA                 2        241                                 23290  3   11 
E          DATA                                                   23290  3   12 
KEV        ARB-UNITS                                              23290  3   13 
  8.220E+00  9.860E+00                                            23290  3   14 
  2.502E+01  1.835E+01                                            23290  3   15 
  4.442E+01  2.376E+01                                            23290  3   16 
  6.253E+01  2.839E+01                                            23290  3   17 
  7.286E+01  3.610E+01                                            23290  3   18 
  8.576E+01  5.152E+01                                            23290  3   19 
  9.084E+01  8.926E+01                                            23290  3   20 
  1.021E+02  2.317E+02                                            23290  3   21 
  1.111E+02  7.346E+02                                            23290  3   22 
  1.231E+02  5.891E+02                                            23290  3   23 
  1.322E+02  1.201E+02                                            23290  3   24 
  1.440E+02  4.541E+01                                            23290  3   25 
  1.518E+02  3.541E+01                                            23290  3   26 
  1.621E+02  4.235E+01                                            23290  3   27 
  1.712E+02  5.314E+01                                            23290  3   28 
  1.828E+02  5.315E+01                                            23290  3   29 
  1.906E+02  6.163E+01                                            23290  3   30 
  1.983E+02  7.011E+01                                            23290  3   31 
  2.124E+02  1.371E+02                                            23290  3   32 
  2.210E+02  2.950E+02                                            23290  3   33 
  2.310E+02  4.182E+02                                            23290  3   34 
  2.405E+02  2.519E+02                                            23290  3   35 
  2.499E+02  1.325E+02                                            23290  3   36 
  2.604E+02  6.786E+01                                            23290  3   37 
  2.722E+02  4.554E+01                                            23290  3   38 
  2.877E+02  4.016E+01                                            23290  3   39 
  2.890E+02  3.939E+01                                            23290  3   40 
  3.494E+02  2.089E+02                                            23290  3   41 
  3.624E+02  1.873E+02                                            23290  3   42 
  3.674E+02  2.466E+02                                            23290  3   43 
  3.827E+02  3.136E+02                                            23290  3   44 
  3.933E+02  2.220E+02                                            23290  3   45 
  4.001E+02  9.880E+01                                            23290  3   46 
  4.104E+02  1.342E+02                                            23290  3   47 
  4.208E+02  1.250E+02                                            23290  3   48 
  4.338E+02  1.119E+02                                            23290  3   49 
  4.441E+02  1.058E+02                                            23290  3   50 
  4.505E+02  1.443E+02                                            23290  3   51 
  4.607E+02  2.013E+02                                            23290  3   52 
  4.724E+02  1.913E+02                                            23290  3   53 
  4.815E+02  1.589E+02                                            23290  3   54 
  4.919E+02  1.536E+02                                            23290  3   55 
  5.024E+02  1.097E+02                                            23290  3   56 
  5.113E+02  1.420E+02                                            23290  3   57 
  5.217E+02  1.497E+02                                            23290  3   58 
  5.308E+02  1.313E+02                                            23290  3   59 
  5.424E+02  1.197E+02                                            23290  3   60 
  5.516E+02  8.816E+01                                            23290  3   61 
  5.607E+02  5.737E+01                                            23290  3   62 
  5.710E+02  8.048E+01                                            23290  3   63 
  5.813E+02  1.252E+02                                            23290  3   64 
  5.903E+02  1.213E+02                                            23290  3   65 
  6.019E+02  1.537E+02                                            23290  3   66 
  6.107E+02  2.353E+02                                            23290  3   67 
  6.210E+02  2.499E+02                                            23290  3   68 
  6.301E+02  2.646E+02                                            23290  3   69 
  6.433E+02  1.583E+02                                            23290  3   70 
  6.486E+02  1.052E+02                                            23290  3   71 
  6.588E+02  1.776E+02                                            23290  3   72 
  6.707E+02  7.904E+01                                            23290  3   73 
  6.795E+02  1.591E+02                                            23290  3   74 
  6.927E+02  9.138E+01                                            23290  3   75 
  7.031E+02  7.214E+01                                            23290  3   76 
  7.092E+02  1.838E+02                                            23290  3   77 
  7.235E+02  1.715E+02                                            23290  3   78 
  7.303E+02  4.521E+01                                            23290  3   79 
  7.418E+02  9.220E+01                                            23290  3   80 
  7.522E+02  8.835E+01                                            23290  3   81 
  7.600E+02  6.064E+01                                            23290  3   82 
  7.690E+02  8.683E+01                                            23290  3   83 
  7.793E+02  1.246E+02                                            23290  3   84 
  7.910E+02  1.123E+02                                            23290  3   85 
  7.984E+02  2.178E+02                                            23290  3   86 
  8.112E+02  2.725E+02                                            23290  3   87 
  8.205E+02  1.924E+02                                            23290  3   88 
  8.285E+02  1.162E+02                                            23290  3   89 
  8.389E+02  1.015E+02                                            23290  3   90 
  8.494E+02  4.532E+01                                            23290  3   91 
  8.596E+02  1.015E+02                                            23290  3   92 
  8.712E+02  1.170E+02                                            23290  3   93 
  8.804E+02  8.155E+01                                            23290  3   94 
  8.920E+02  7.232E+01                                            23290  3   95 
  9.022E+02  1.362E+02                                            23290  3   96 
  9.099E+02  1.686E+02                                            23290  3   97 
  9.176E+02  1.786E+02                                            23290  3   98 
  9.320E+02  1.247E+02                                            23290  3   99 
  9.437E+02  1.009E+02                                            23290  3  100 
  9.516E+02  5.389E+01                                            23290  3  101 
  9.619E+02  7.547E+01                                            23290  3  102 
  9.723E+02  5.160E+01                                            23290  3  103 
  9.840E+02  3.390E+01                                            23290  3  104 
  9.904E+02  6.702E+01                                            23290  3  105 
  1.002E+03  7.550E+01                                            23290  3  106 
  1.010E+03  1.025E+02                                            23290  3  107 
  1.021E+03  8.784E+01                                            23290  3  108 
  1.032E+03  1.841E+02                                            23290  3  109 
  1.041E+03  1.233E+02                                            23290  3  110 
  1.054E+03  1.318E+02                                            23290  3  111 
  1.062E+03  2.858E+02                                            23290  3  112 
  1.073E+03  2.719E+02                                            23290  3  113 
  1.083E+03  2.797E+02                                            23290  3  114 
  1.094E+03  2.204E+02                                            23290  3  115 
  1.103E+03  1.387E+02                                            23290  3  116 
  1.112E+03  2.111E+02                                            23290  3  117 
  1.120E+03  3.244E+02                                            23290  3  118 
  1.132E+03  4.738E+02                                            23290  3  119 
  1.144E+03  3.575E+02                                            23290  3  120 
  1.152E+03  2.281E+02                                            23290  3  121 
  1.164E+03  1.534E+02                                            23290  3  122 
  1.170E+03  2.946E+01                                            23290  3  123 
  1.181E+03  4.718E+01                                            23290  3  124 
  1.194E+03  3.304E+00                                            23290  3  125 
  1.200E+03  5.875E+01                                            23290  3  126 
  1.213E+03  4.876E+01                                            23290  3  127 
  1.225E+03  6.032E+01                                            23290  3  128 
  1.244E+03  3.338E+01                                            23290  3  129 
  1.251E+03  7.960E+01                                            23290  3  130 
  1.261E+03  9.116E+01                                            23290  3  131 
  1.271E+03  7.114E+01                                            23290  3  132 
  1.282E+03  6.114E+01                                            23290  3  133 
  1.289E+03  1.320E+02                                            23290  3  134 
  1.302E+03  1.528E+02                                            23290  3  135 
  1.309E+03  8.350E+01                                            23290  3  136 
  1.319E+03  7.504E+01                                            23290  3  137 
  1.331E+03  8.198E+01                                            23290  3  138 
  1.337E+03  7.660E+01                                            23290  3  139 
  1.349E+03  8.354E+01                                            23290  3  140 
  1.362E+03  6.353E+01                                            23290  3  141 
  1.371E+03  9.357E+01                                            23290  3  142 
  1.379E+03  2.427E+01                                            23290  3  143 
  1.389E+03  5.355E+01                                            23290  3  144 
  1.401E+03  7.666E+01                                            23290  3  145 
  1.413E+03  1.521E+02                                            23290  3  146 
  1.429E+03  1.106E+02                                            23290  3  147 
  1.439E+03  8.979E+01                                            23290  3  148 
  1.448E+03  9.827E+01                                            23290  3  149 
  1.459E+03  2.281E+01                                            23290  3  150 
  1.468E+03  5.439E+01                                            23290  3  151 
  1.477E+03  3.515E+01                                            23290  3  152 
  1.489E+03  4.517E+01                                            23290  3  153 
  1.499E+03  5.519E+01                                            23290  3  154 
  1.511E+03  3.441E+01                                            23290  3  155 
  1.521E+03  2.364E+01                                            23290  3  156 
  1.529E+03  3.443E+01                                            23290  3  157 
  1.540E+03  5.677E+01                                            23290  3  158 
  1.553E+03  3.445E+01                                            23290  3  159 
  1.568E+03  5.834E+01                                            23290  3  160 
  1.588E+03  5.759E+01                                            23290  3  161 
  1.600E+03  9.456E+01                                            23290  3  162 
  1.606E+03  1.300E+02                                            23290  3  163 
  1.622E+03  9.613E+01                                            23290  3  164 
  1.633E+03  1.808E+02                                            23290  3  165 
  1.646E+03  2.309E+02                                            23290  3  166 
  1.657E+03  3.410E+02                                            23290  3  167 
  1.670E+03  1.840E+02                                            23290  3  168 
  1.685E+03  4.921E+01                                            23290  3  169 
  1.698E+03  1.116E+02                                            23290  3  170 
  1.709E+03  3.768E+01                                            23290  3  171 
  1.718E+03  2.614E+01                                            23290  3  172 
  1.727E+03  5.002E+01                                            23290  3  173 
  1.739E+03  3.771E+01                                            23290  3  174 
  1.744E+03  2.463E+01                                            23290  3  175 
  1.755E+03  5.082E+01                                            23290  3  176 
  1.768E+03  1.464E+01                                            23290  3  177 
  1.779E+03  3.929E+01                                            23290  3  178 
  1.786E+03  6.471E+01                                            23290  3  179 
  1.798E+03  2.347E+00                                            23290  3  180 
  1.807E+03  2.469E+01                                            23290  3  181 
  1.818E+03  2.366E+00                                            23290  3  182 
  1.825E+03  2.471E+01                                            23290  3  183 
  1.836E+03  1.613E+00                                            23290  3  184 
  1.850E+03  2.627E+01                                            23290  3  185 
  1.867E+03  6.556E+01                                            23290  3  186 
  1.880E+03  8.020E+01                                            23290  3  187 
  1.896E+03  2.708E+01                                            23290  3  188 
  1.904E+03  1.708E+01                                            23290  3  189 
  1.913E+03  2.787E+01                                            23290  3  190 
  1.925E+03  6.716E+01                                            23290  3  191 
  1.935E+03  5.638E+01                                            23290  3  192 
  1.944E+03  2.559E+01                                            23290  3  193 
  1.955E+03  9.568E+01                                            23290  3  194 
  1.966E+03  5.487E+01                                            23290  3  195 
  1.975E+03  2.947E+01                                            23290  3  196 
  1.983E+03  6.952E+01                                            23290  3  197 
  1.996E+03  4.335E+01                                            23290  3  198 
  2.004E+03  8.417E+01                                            23290  3  199 
  2.013E+03  7.032E+01                                            23290  3  200 
  2.024E+03  1.289E+02                                            23290  3  201 
  2.039E+03  1.158E+02                                            23290  3  202 
  2.058E+03  7.113E+01                                            23290  3  203 
  2.063E+03  3.033E+01                                            23290  3  204 
  2.074E+03  1.262E+01                                            23290  3  205 
  2.083E+03  2.803E+01                                            23290  3  206 
  2.091E+03  3.193E-01                                            23290  3  207 
  2.104E+03  1.419E+01                                            23290  3  208 
  2.113E+03  4.346E+01                                            23290  3  209 
  2.127E+03 -1.186E+00                                            23290  3  210 
  2.142E+03  1.346E+01                                            23290  3  211 
  2.152E+03  3.780E-01                                            23290  3  212 
  2.166E+03  1.271E+01                                            23290  3  213 
  2.177E+03  1.272E+01                                            23290  3  214 
  2.189E+03  4.143E-01                                            23290  3  215 
  2.201E+03  7.512E+01                                            23290  3  216 
  2.211E+03  3.047E+01                                            23290  3  217 
  2.219E+03  4.434E+01                                            23290  3  218 
  2.232E+03 -3.146E-01                                            23290  3  219 
  2.243E+03  4.513E+01                                            23290  3  220 
  2.252E+03  1.588E+01                                            23290  3  221 
  2.260E+03  2.821E+01                                            23290  3  222 
  2.273E+03  4.439E+01                                            23290  3  223 
  2.285E+03 -2.574E+00                                            23290  3  224 
  2.292E+03  7.906E+01                                            23290  3  225 
  2.303E+03  1.747E+01                                            23290  3  226 
  2.315E+03  3.057E+01                                            23290  3  227 
  2.325E+03  1.441E+01                                            23290  3  228 
  2.333E+03 -1.757E+00                                            23290  3  229 
  2.343E+03  6.371E+01                                            23290  3  230 
  2.351E+03  4.908E+01                                            23290  3  231 
  2.364E+03  1.675E+01                                            23290  3  232 
  2.370E+03  3.293E+01                                            23290  3  233 
  2.386E+03  1.601E+01                                            23290  3  234 
  2.403E+03  3.065E+01                                            23290  3  235 
  2.413E+03 -1.680E+00                                            23290  3  236 
  2.422E+03  4.761E+01                                            23290  3  237 
  2.428E+03  6.456E+01                                            23290  3  238 
  2.443E+03  3.454E+01                                            23290  3  239 
  2.452E+03  1.607E+01                                            23290  3  240 
  2.472E+03  1.686E+01                                            23290  3  241 
  2.489E+03  2.997E+01                                            23290  3  242 
  2.498E+03  1.611E+01                                            23290  3  243 
  2.510E+03  6.849E+01                                            23290  3  244 
  2.526E+03  1.768E+01                                            23290  3  245 
  2.536E+03  3.386E+01                                            23290  3  246 
  2.549E+03  1.693E+01                                            23290  3  247 
  2.563E+03  7.754E-01                                            23290  3  248 
  2.572E+03  1.619E+01                                            23290  3  249 
  2.584E+03  2.537E-02                                            23290  3  250 
  2.590E+03  5.163E+01                                            23290  3  251 
  2.610E+03 -1.490E+00                                            23290  3  252 
  2.620E+03  3.471E+01                                            23290  3  253 
  2.641E+03 -1.460E+00                                            23290  3  254 
ENDDATA            243          0                                 23290  3  255 
ENDSUBENT          254          0                                 23290  399999 
SUBENT        23290004   20170620                             226023290  4    1 
BIB                  4         11                                 23290  4    2 
REACTION   (11-NA-29(0,B-)12-MG-29,,PN/DE,,REL)                   23290  4    3 
           Relative beta-delayed neutron spectrum, counts/8keV .  23290  4    4 
DECAY-DATA (11-NA-29,43.MSEC)                                     23290  4    5 
ERR-ANALYS (E-ERR-DIG) Digitizing error of scale X ( energy);     23290  4    6 
           (ERR-DIG) Digitizing error of scale Y ( data);         23290  4    7 
            reflect deviation of scale from linear low.           23290  4    8 
              Quantization error (one pixel) :                    23290  4    9 
           scale X - 1.86   keV ,                                 23290  4   10 
           scale Y - 0.852  arb.units .                           23290  4   11 
STATUS     (CURVE) Fig.5 of R,CERN-81-09,327,1981                 23290  4   12 
            Fig.11b, P,MAINZ-78,20,1978 - previous publication.   23290  4   13 
ENDBIB              11          0                                 23290  4   14 
COMMON               2          3                                 23290  4   15 
E-ERR-DIG  ERR-DIG                                                23290  4   16 
KEV        ARB-UNITS                                              23290  4   17 
 2.43      0.916                                                  23290  4   18 
ENDCOMMON            3          0                                 23290  4   19 
DATA                 3        297                                 23290  4   20 
E-MIN      E-MAX      DATA                                        23290  4   21 
KEV        KEV        ARB-UNITS                                   23290  4   22 
                12.12       0.                                    23290  4   23 
  12.12         21.48       5.755                                 23290  4   24 
  21.48         29.87       8.717                                 23290  4   25 
  29.87         39.17      11.255                                 23290  4   26 
  39.17         49.38       9.101                                 23290  4   27 
  49.38         55.87       6.95                                  23290  4   28 
  55.87         66.08       9.485                                 23290  4   29 
  66.08         74.48       4.351                                 23290  4   30 
  74.48         82.86      14.561                                 23290  4   31 
  82.86         93.16       6.859                                 23290  4   32 
  93.16        101.85      29.437                                 23290  4   33 
 101.85        110.66      63.088                                 23290  4   34 
 110.66        120.04     108.250                                 23290  4   35 
 120.04        129.81      80.091                                 23290  4   36 
 129.81        138.83      26.789                                 23290  4   37 
 138.83        148.02      33.160                                 23290  4   38 
 148.02        157.38       8.843                                 23290  4   39 
 157.38        165.33      42.922                                 23290  4   40 
 165.33        174.40      99.592                                 23290  4   41 
 174.40        182.93     332.305                                 23290  4   42 
 182.93        191.47     623.415                                 23290  4   43 
 191.47        201.07     526.205                                 23290  4   44 
 201.07        209.53     185.185                                 23290  4   45 
 209.53        218.72      50.468                                 23290  4   46 
 218.72        226.89       2.283                                 23290  4   47 
 226.89        238.06      15.472                                 23290  4   48 
 238.06        245.38       4.792                                 23290  4   49 
 245.38        257.49       0.                                    23290  4   50 
 257.49        265.01       8.584                                 23290  4   51 
 265.01        273.34      11.974                                 23290  4   52 
 273.34        279.79       3.860                                 23290  4   53 
 279.79        293.73       1.702                                 23290  4   54 
 293.73        301.30       4.235                                 23290  4   55 
 301.30        310.02      24.677                                 23290  4   56 
 310.02        318.78      66.853                                 23290  4   57 
 318.78        326.82      94.967                                 23290  4   58 
 326.82        337.18     337.905                                 23290  4   59 
 337.18        346.77     448.710                                 23290  4   60 
 346.77        355.13     390.720                                 23290  4   61 
 355.13        363.33     282.005                                 23290  4   62 
 363.33        373.51     198.435                                 23290  4   63 
 373.51        389.78     274.705                                 23290  4   64 
 389.78        399.70     115.680                                 23290  4   65 
 399.70        409.35      57.263                                 23290  4   66 
 409.35        419.29      13.760                                 23290  4   67 
 419.29        434.98       7.338                                 23290  4   68 
 434.98        453.60       0.                                    23290  4   69 
 453.60        462.09      11.528                                 23290  4   70 
 462.09        471.60      18.325                                 23290  4   71 
 471.60        480.63      49.419                                 23290  4   72 
 480.63        490.58     138.060                                 23290  4   73 
 490.58        499.34     164.035                                 23290  4   74 
 499.34        506.41     207.925                                 23290  4   75 
 506.41        516.76     429.550                                 23290  4   76 
 516.76        525.77     394.150                                 23290  4   77 
 525.77        535.20     214.675                                 23290  4   78 
 535.20        544.38      89.761                                 23290  4   79 
 544.38        553.40      30.918                                 23290  4   80 
 553.40        562.57      40.273                                 23290  4   81 
 562.57        570.72       8.712                                 23290  4   82 
 570.72        581.02       2.294                                 23290  4   83 
 581.02        590.28      23.157                                 23290  4   84 
 590.28        615.29       0.                                    23290  4   85 
 615.29        624.62       7.731                                 23290  4   86 
 624.62        632.92       3.020                                 23290  4   87 
 632.92        651.56       0.                                    23290  4   88 
 651.56        670.20      12.749                                 23290  4   89 
 670.20        688.77       5.032                                 23290  4   90 
 688.77        707.37      10.529                                 23290  4   91 
 707.37        714.73       7.088                                 23290  4   92 
 714.73        733.29       0.                                    23290  4   93 
 733.29        748.19       1.902                                 23290  4   94 
 748.19        758.47       3.579                                 23290  4   95 
 758.47        770.56      12.075                                 23290  4   96 
 770.56        778.90       4.380                                 23290  4   97 
 778.90        785.70       6.918                                 23290  4   98 
 785.70        795.34      58.049                                 23290  4   99 
 795.34        805.68      67.404                                 23290  4  100 
 805.68        813.24      79.317                                 23290  4  101 
 813.24        822.37      88.674                                 23290  4  102 
 822.37        830.34      50.290                                 23290  4  103 
 830.34        841.24      19.153                                 23290  4  104 
 841.24        850.41       6.768                                 23290  4  105 
 850.41        859.78       0.                                    23290  4  106 
 859.78        869.07      19.937                                 23290  4  107 
 869.07        878.34       0.                                    23290  4  108 
 878.34        885.90      13.501                                 23290  4  109 
 885.90        894.16      19.025                                 23290  4  110 
 894.16        922.93       0.                                    23290  4  111 
 922.93        932.25      11.688                                 23290  4  112 
 932.25        941.46       1.436                                 23290  4  113 
 941.46        975.93       0.                                    23290  4  114 
 975.93        986.18      15.825                                 23290  4  115 
 986.18        996.39       1.734                                 23290  4  116 
 996.39       1005.65      12.366                                 23290  4  117 
1005.65       1014.00       1.262                                 23290  4  118 
1014.00       1022.55       8.061                                 23290  4  119 
1022.55       1039.70      38.296                                 23290  4  120 
1039.70       1049.55      79.612                                 23290  4  121 
1049.55       1059.20     138.410                                 23290  4  122 
1059.20       1068.00     133.695                                 23290  4  123 
1068.00       1076.75      56.527                                 23290  4  124 
1076.75       1085.15      35.193                                 23290  4  125 
1085.15       1093.75      63.307                                 23290  4  126 
1093.75       1106.00      85.445                                 23290  4  127 
1106.00       1114.35      83.718                                 23290  4  128 
1114.35       1121.50      81.567                                 23290  4  129 
1121.50       1130.45      35.087                                 23290  4  130 
1130.45       1141.40      23.128                                 23290  4  131 
1141.40       1150.65       2.218                                 23290  4  132 
1150.65       1164.65       9.863                                 23290  4  133 
1164.65       1177.85      11.533                                 23290  4  134 
1177.85       1186.35      41.348                                 23290  4  135 
1186.35       1195.85      45.588                                 23290  4  136 
1195.85       1205.10      68.583                                 23290  4  137 
1205.10       1215.00      41.705                                 23290  4  138 
1215.00       1224.05       8.010                                 23290  4  139 
1224.05       1232.40       4.152                                 23290  4  140 
1232.40       1240.80       7.118                                 23290  4  141 
1240.80       1251.00       4.112                                 23290  4  142 
1251.00       1261.25       1.528                                 23290  4  143 
1261.25       1268.65       9.181                                 23290  4  144 
1268.65       1286.30       0.                                    23290  4  145 
1286.30       1296.55       8.266                                 23290  4  146 
1296.55       1312.30       0.                                    23290  4  147 
1312.30       1327.20       3.938                                 23290  4  148 
1327.20       1334.70       0.                                    23290  4  149 
1334.70       1342.25      23.501                                 23290  4  150 
1342.25       1353.25      12.394                                 23290  4  151 
1353.25       1361.80       4.271                                 23290  4  152 
1361.80       1370.35      37.072                                 23290  4  153 
1370.35       1378.90      40.464                                 23290  4  154 
1378.90       1387.25      74.117                                 23290  4  155 
1387.25       1398.20      38.715                                 23290  4  156 
1398.20       1407.40      30.592                                 23290  4  157 
1407.40       1415.65      26.308                                 23290  4  158 
1415.65       1433.20      10.508                                 23290  4  159 
1433.20       1443.40       1.521                                 23290  4  160 
1443.40       1452.75      17.697                                 23290  4  161 
1452.75       1461.10      11.707                                 23290  4  162 
1461.10       1469.45      17.230                                 23290  4  163 
1469.45       1479.60       1.861                                 23290  4  164 
1479.60       1506.70       9.063                                 23290  4  165 
1506.70       1516.15      18.827                                 23290  4  166 
1516.15       1524.60      46.084                                 23290  4  167 
1524.60       1533.85      26.029                                 23290  4  168 
1533.85       1543.65      46.464                                 23290  4  169 
1543.65       1551.80     113.365                                 23290  4  170 
1551.80       1561.45     168.760                                 23290  4  171 
1561.45       1568.75     175.985                                 23290  4  172 
1568.75       1577.75     145.700                                 23290  4  173 
1577.75       1588.35     127.350                                 23290  4  174 
1588.35       1597.00      42.928                                 23290  4  175 
1597.00       1606.25      21.594                                 23290  4  176 
1606.25       1613.80      30.523                                 23290  4  177 
1613.80       1622.20      35.196                                 23290  4  178 
1622.20       1632.35      36.879                                 23290  4  179 
1632.35       1642.00      27.902                                 23290  4  180 
1642.00       1651.50      99.066                                 23290  4  181 
1651.50       1659.00      57.699                                 23290  4  182 
1659.00       1669.10     121.610                                 23290  4  183 
1669.10       1677.35     199.595                                 23290  4  184 
1677.35       1686.40     261.380                                 23290  4  185 
1686.40       1696.40     315.070                                 23290  4  186 
1696.40       1706.05     550.330                                 23290  4  187 
1706.05       1714.55     547.330                                 23290  4  188 
1714.55       1721.90     576.290                                 23290  4  189 
1721.90       1732.90     367.410                                 23290  4  190 
1732.90       1741.55     220.760                                 23290  4  191 
1741.55       1749.85      85.616                                 23290  4  192 
1749.85       1758.00      50.642                                 23290  4  193 
1758.00       1768.95      46.784                                 23290  4  194 
1768.95       1777.25      18.630                                 23290  4  195 
1777.25       1787.50      30.541                                 23290  4  196 
1787.50       1795.95      27.535                                 23290  4  197 
1795.95       1805.30      43.288                                 23290  4  198 
1805.30       1812.75      36.020                                 23290  4  199 
1812.75       1822.00      39.410                                 23290  4  200 
1822.00       1832.15      31.713                                 23290  4  201 
1832.15       1842.25      29.560                                 23290  4  202 
1842.25       1850.50      12.060                                 23290  4  203 
1850.50       1857.90       7.353                                 23290  4  204 
1857.90       1867.30       5.202                                 23290  4  205 
1867.30       1877.60      26.492                                 23290  4  206 
1877.60       1886.80      23.058                                 23290  4  207 
1886.80       1895.15       6.841                                 23290  4  208 
1895.15       1904.55      23.014                                 23290  4  209 
1904.55       1914.80      21.287                                 23290  4  210 
1914.80       1922.20      24.677                                 23290  4  211 
1922.20       1931.65      20.395                                 23290  4  212 
1931.65       1938.20      55.328                                 23290  4  213 
1938.20       1949.25      25.044                                 23290  4  214 
1949.25       1957.60      32.267                                 23290  4  215 
1957.60       1966.75      23.723                                 23290  4  216 
1966.75       1985.30      12.177                                 23290  4  217 
1985.30       1995.45       7.881                                 23290  4  218 
1995.45       2001.95       5.304                                 23290  4  219 
2001.95       2012.15       1.024                                 23290  4  220 
2012.15       2020.60      11.658                                 23290  4  221 
2020.60       2030.70       6.518                                 23290  4  222 
2030.70       2038.15       1.384                                 23290  4  223 
2038.15       2049.40      11.591                                 23290  4  224 
2049.40       2058.70      14.124                                 23290  4  225 
2058.70       2076.25      11.962                                 23290  4  226 
2076.25       2093.90       0.                                    23290  4  227 
2093.90       2103.20       8.051                                 23290  4  228 
2103.20       2111.55       0.                                    23290  4  229 
2111.55       2119.00      12.276                                 23290  4  230 
2119.00       2129.20       0.                                    23290  4  231 
2129.20       2138.50       5.409                                 23290  4  232 
2138.50       2155.20       0.                                    23290  4  233 
2155.20       2163.80       7.907                                 23290  4  234 
2163.80       2175.00      29.624                                 23290  4  235 
2175.00       2182.30      21.924                                 23290  4  236 
2182.30       2191.50       1.023                                 23290  4  237 
2191.50       2200.00      11.655                                 23290  4  238 
2200.00       2209.35      15.045                                 23290  4  239 
2209.35       2219.65      27.810                                 23290  4  240 
2219.65       2227.05      29.919                                 23290  4  241 
2227.05       2238.30      18.813                                 23290  4  242 
2238.30       2245.90      46.498                                 23290  4  243 
2245.90       2256.15      49.889                                 23290  4  244 
2256.15       2263.70      53.276                                 23290  4  245 
2263.70       2271.95      66.898                                 23290  4  246 
2271.95       2282.05      31.070                                 23290  4  247 
2282.05       2291.35      43.835                                 23290  4  248 
2291.35       2299.60      31.880                                 23290  4  249 
2299.60       2308.00      29.727                                 23290  4  250 
2308.00       2317.45      34.396                                 23290  4  251 
2317.45       2326.60      63.358                                 23290  4  252 
2326.60       2336.55       8.775                                 23290  4  253 
2336.55       2353.25      10.877                                 23290  4  254 
2353.25       2364.35       1.465                                 23290  4  255 
2364.35       2371.75       5.705                                 23290  4  256 
2371.75       2382.10       0.                                    23290  4  257 
2382.10       2390.55      27.404                                 23290  4  258 
2390.55       2400.65      12.459                                 23290  4  259 
2400.65       2416.45       1.348                                 23290  4  260 
2416.45       2426.65       6.429                                 23290  4  261 
2426.65       2435.85       4.276                                 23290  4  262 
2435.85       2444.30       0.                                    23290  4  263 
2444.30       2452.75      14.892                                 23290  4  264 
2452.75       2463.75       5.064                                 23290  4  265 
2463.75       2481.45       0.                                    23290  4  266 
2481.45       2489.85       7.129                                 23290  4  267 
2489.85       2507.55       4.543                                 23290  4  268 
2507.55       2516.00       9.625                                 23290  4  269 
2516.00       2526.25      27.507                                 23290  4  270 
2526.25       2535.50      14.270                                 23290  4  271 
2535.50       2543.80      16.381                                 23290  4  272 
2543.80       2553.05       5.274                                 23290  4  273 
2553.05       2562.40       9.943                                 23290  4  274 
2562.40       2571.75       7.789                                 23290  4  275 
2571.75       2581.90      16.292                                 23290  4  276 
2581.90       2590.20       0.923                                 23290  4  277 
2590.20       2598.65       2.608                                 23290  4  278 
2598.65       2609.00      19.638                                 23290  4  279 
2609.00       2617.35      22.171                                 23290  4  280 
2617.35       2625.70      20.451                                 23290  4  281 
2625.70       2632.20      22.986                                 23290  4  282 
2632.20       2644.20      17.849                                 23290  4  283 
2644.20       2651.60       3.761                                 23290  4  284 
2651.60       2661.00      17.807                                 23290  4  285 
2661.00       2670.25      19.916                                 23290  4  286 
2670.25       2681.30       6.678                                 23290  4  287 
2681.30       2689.65       8.787                                 23290  4  288 
2689.65       2697.05       0.669                                 23290  4  289 
2697.05       2707.35       6.188                                 23290  4  290 
2707.35       2715.70       8.299                                 23290  4  291 
2715.70       2725.95       3.586                                 23290  4  292 
2725.95       2732.50       8.681                                 23290  4  293 
2732.50       2753.85      12.061                                 23290  4  294 
2753.85       2761.25       9.894                                 23290  4  295 
2761.25       2770.60       4.333                                 23290  4  296 
2770.60       2778.10      17.953                                 23290  4  297 
2778.10       2788.35      21.343                                 23290  4  298 
2788.35       2797.65      19.185                                 23290  4  299 
2797.65       2806.85      16.610                                 23290  4  300 
2806.85       2815.15       2.520                                 23290  4  301 
2815.15       2823.50      12.306                                 23290  4  302 
2823.50       2834.60       2.902                                 23290  4  303 
2834.60       2843.00       5.439                                 23290  4  304 
2843.00       2856.95       0.298                                 23290  4  305 
2856.95       2873.60       5.375                                 23290  4  306 
2873.60       2882.95       0.655                                 23290  4  307 
2882.95       2889.40       2.767                                 23290  4  308 
2889.40       2897.80       0.618                                 23290  4  309 
2897.80       2908.05       2.303                                 23290  4  310 
2908.05       2915.45       4.838                                 23290  4  311 
2915.45       2922.85       0.132                                 23290  4  312 
2922.85       2934.05       0.                                    23290  4  313 
2934.05       2946.15       7.756                                 23290  4  314 
2946.15       3008.35       0.                                    23290  4  315 
3008.35       3021.35       1.609                                 23290  4  316 
3021.35       3027.85       0.                                    23290  4  317 
3027.85       3039.00       2.418                                 23290  4  318 
3039.00                     0.                                    23290  4  319 
ENDDATA            299          0                                 23290  4  320 
ENDSUBENT          319          0                                 23290  499999 
SUBENT        23290005   20160324                             224923290  5    1 
BIB                  4         10                                 23290  5    2 
REACTION   (11-NA-30(0,B-)12-MG-30,,PN/DE,,REL)                   23290  5    3 
           Relative beta-delayed neutron spectrum, counts/8keV .  23290  5    4 
DECAY-DATA (11-NA-30,53.MSEC)                                     23290  5    5 
ERR-ANALYS (E-ERR-DIG) Digitizing error of scale X ( energy);     23290  5    6 
           (ERR-DIG) Digitizing error of scale Y ( data);         23290  5    7 
            reflect deviation of scale from linear low.           23290  5    8 
              Quantization error (one pixel) :                    23290  5    9 
           scale X - 1.411 keV ,                                  23290  5   10 
           scale Y - 0.890 arb.units .                            23290  5   11 
STATUS     (CURVE) Fig.7 of R,CERN-81-09,327,1981                 23290  5   12 
ENDBIB              10          0                                 23290  5   13 
COMMON               2          3                                 23290  5   14 
E-ERR-DIG  ERR-DIG                                                23290  5   15 
KEV        ARB-UNITS                                              23290  5   16 
0.804      0.479                                                  23290  5   17 
ENDCOMMON            3          0                                 23290  5   18 
DATA                 3        249                                 23290  5   19 
E-MIN      E-MAX      DATA                                        23290  5   20 
KEV        KEV        ARB-UNITS                                   23290  5   21 
   2.28      11.46       2.049                                    23290  5   22 
  11.46      17.84       3.812                                    23290  5   23 
  17.84      28.49      13.145                                    23290  5   24 
  28.49      37.06      24.702                                    23290  5   25 
  37.06      47.79      49.171                                    23290  5   26 
  47.79      55.92      78.981                                    23290  5   27 
  55.92      64.17     190.275                                    23290  5   28 
  64.17      73.85     534.420                                    23290  5   29 
  73.85      81.82     658.620                                    23290  5   30 
  81.82      91.82     340.705                                    23290  5   31 
  91.82      99.28     153.245                                    23290  5   32 
  99.28     109.41     220.900                                    23290  5   33 
 109.41     116.75     523.200                                    23290  5   34 
 116.75     126.68     599.315                                    23290  5   35 
 126.68     136.66     268.485                                    23290  5   36 
 136.66     144.47      86.368                                    23290  5   37 
 144.47     154.97      14.666                                    23290  5   38 
 154.97     162.82      48.932                                    23290  5   39 
 162.82     171.99      44.906                                    23290  5   40 
 171.99     181.80      43.106                                    23290  5   41 
 181.80     190.20      15.928                                    23290  5   42 
 190.20     198.70      12.794                                    23290  5   43 
 198.70     206.48      28.360                                    23290  5   44 
 206.48     217.09      17.210                                    23290  5   45 
 217.09     226.40      34.557                                    23290  5   46 
 226.40     234.41      68.819                                    23290  5   47 
 234.41     243.70     124.455                                    23290  5   48 
 243.70     261.18     111.960                                    23290  5   49 
 261.18     271.55      58.505                                    23290  5   50 
 271.55     279.94      26.429                                    23290  5   51 
 279.94     289.09      25.076                                    23290  5   52 
 289.09     296.89      12.147                                    23290  5   53 
 296.89     307.53      38.396                                    23290  5   54 
 307.53     316.07      31.253                                    23290  5   55 
 316.07     323.97      62.847                                    23290  5   56 
 323.97     334.53      83.755                                    23290  5   57 
 334.53     343.01      47.671                                    23290  5   58 
 343.01     351.56      85.944                                    23290  5   59 
 351.56     360.25      78.358                                    23290  5   60 
 360.25     370.69     169.610                                    23290  5   61 
 370.69     379.49     291.585                                    23290  5   62 
 379.49     387.63     296.020                                    23290  5   63 
 387.63     397.63     163.320                                    23290  5   64 
 397.63     405.05      68.023                                    23290  5   65 
 405.05     415.52      25.707                                    23290  5   66 
 415.52     423.26      19.902                                    23290  5   67 
 423.26     433.13      15.431                                    23290  5   68 
 433.13     442.97      11.404                                    23290  5   69 
 442.97     450.71       0.                                       23290  5   70 
 450.71     462.72       2.460                                    23290  5   71 
 462.72     486.73       0.                                       23290  5   72 
 486.73     495.98       2.835                                    23290  5   73 
 495.98     505.18      23.741                                    23290  5   74 
 505.18     513.67      11.702                                    23290  5   75 
 513.67     523.51      27.712                                    23290  5   76 
 523.51     532.68       0.                                       23290  5   77 
 532.68     541.25      23.222                                    23290  5   78 
 541.25     549.08      33.001                                    23290  5   79 
 549.08     558.97      45.003                                    23290  5   80 
 558.97     568.19      34.299                                    23290  5   81 
 568.19     577.40      60.547                                    23290  5   82 
 577.40     587.19      45.390                                    23290  5   83 
 587.19     595.00      25.781                                    23290  5   84 
 595.00     604.24      59.603                                    23290  5   85 
 604.24     612.69      48.008                                    23290  5   86 
 612.69     621.86      49.772                                    23290  5   87 
 621.86     631.05      45.299                                    23290  5   88 
 631.05     639.62      54.186                                    23290  5   89 
 639.62     649.68      80.436                                    23290  5   90 
 649.68     657.56     120.935                                    23290  5   91 
 657.56     666.85     124.925                                    23290  5   92 
 666.85     676.02     164.530                                    23290  5   93 
 676.02     684.36     119.100                                    23290  5   94 
 684.36     694.14     112.845                                    23290  5   95 
 694.14     701.87      75.874                                    23290  5   96 
 701.87     711.78      99.902                                    23290  5   97 
 711.78     720.87      85.185                                    23290  5   98 
 720.87     728.58      64.688                                    23290  5   99 
 728.58     737.72      62.446                                    23290  5  100 
 737.72     745.45      47.289                                    23290  5  101 
 745.45     754.67      49.497                                    23290  5  102 
 754.67     763.88      61.056                                    23290  5  103 
 763.88     773.83      60.145                                    23290  5  104 
 773.83     781.82      86.840                                    23290  5  105 
 781.82     792.56     145.590                                    23290  5  106 
 792.56     800.30     143.795                                    23290  5  107 
 800.30     809.37     135.760                                    23290  5  108 
 809.37     817.93      98.789                                    23290  5  109 
 817.93     826.64     166.890                                    23290  5  110 
 826.64     837.00     192.255                                    23290  5  111 
 837.00     845.19     350.290                                    23290  5  112 
 845.19     854.94     356.055                                    23290  5  113 
 854.94     863.59     298.600                                    23290  5  114 
 863.59     872.27     151.215                                    23290  5  115 
 872.27     882.01     102.665                                    23290  5  116 
 882.01     888.98      95.969                                    23290  5  117 
 888.98     899.52      65.230                                    23290  5  118 
 899.52     907.30      74.117                                    23290  5  119 
 907.30     916.49      72.318                                    23290  5  120 
 916.49     925.67      74.081                                    23290  5  121 
 925.67     934.83      74.951                                    23290  5  122 
 934.83     941.90      66.921                                    23290  5  123 
 941.90     950.39      77.145                                    23290  5  124 
 950.39     961.65      70.892                                    23290  5  125 
 961.65     968.76      65.085                                    23290  5  126 
 968.76     978.62      86.884                                    23290  5  127 
 978.62     986.98      53.918                                    23290  5  128 
 986.98     997.53      44.993                                    23290  5  129 
 997.53    1004.60      39.634                                    23290  5  130 
1004.60    1013.80      36.499                                    23290  5  131 
1013.80    1023.75      73.434                                    23290  5  132 
1023.75    1030.75      52.491                                    23290  5  133 
1030.75    1039.90      46.242                                    23290  5  134 
1039.90    1049.10      39.989                                    23290  5  135 
1049.10    1060.40      43.530                                    23290  5  136 
1060.40    1068.15      37.277                                    23290  5  137 
1068.15    1077.30      49.728                                    23290  5  138 
1077.30    1085.70      16.314                                    23290  5  139 
1085.70    1094.20      26.984                                    23290  5  140 
1094.20    1112.65      23.393                                    23290  5  141 
1112.65    1120.40      53.645                                    23290  5  142 
1120.40    1130.90      21.122                                    23290  5  143 
1130.90    1139.40      30.008                                    23290  5  144 
1139.40    1148.60      20.639                                    23290  5  145 
1148.60    1157.15      30.419                                    23290  5  146 
1157.15    1166.30      46.872                                    23290  5  147 
1166.30    1175.50      31.716                                    23290  5  148 
1175.50    1184.65      54.403                                    23290  5  149 
1184.65    1194.55      20.546                                    23290  5  150 
1194.55    1201.65      45.462                                    23290  5  151 
1201.65    1212.30      61.027                                    23290  5  152 
1212.30    1219.40      57.447                                    23290  5  153 
1219.40    1229.30      53.868                                    23290  5  154 
1229.30    1237.25      80.562                                    23290  5  155 
1237.25    1247.20     124.625                                    23290  5  156 
1247.20    1255.70     101.900                                    23290  5  157 
1255.70    1264.30     141.950                                    23290  5  158 
1264.30    1274.10     135.255                                    23290  5  159 
1274.10    1283.95     122.320                                    23290  5  160 
1283.95    1293.00     112.510                                    23290  5  161 
1293.00    1300.00      75.536                                    23290  5  162 
1300.00    1308.45      74.184                                    23290  5  163 
1308.45    1319.05      91.973                                    23290  5  164 
1319.05    1326.75      72.811                                    23290  5  165 
1326.75    1336.65      60.769                                    23290  5  166 
1336.65    1345.15      73.665                                    23290  5  167 
1345.15    1354.20      71.864                                    23290  5  168 
1354.20    1363.40      35.781                                    23290  5  169 
1363.40    1372.00      73.609                                    23290  5  170 
1372.00    1380.45      68.694                                    23290  5  171 
1380.45    1391.75      72.682                                    23290  5  172 
1391.75    1401.60      67.761                                    23290  5  173 
1401.60    1408.60      64.627                                    23290  5  174 
1408.60    1416.30      38.788                                    23290  5  175 
1416.30    1426.15      41.442                                    23290  5  176 
1426.15    1433.95      24.059                                    23290  5  177 
1433.95    1444.60      44.077                                    23290  5  178 
1444.60    1453.15      52.516                                    23290  5  179 
1453.15    1462.30      64.965                                    23290  5  180 
1462.30    1472.20      54.704                                    23290  5  181 
1472.20    1478.60      61.811                                    23290  5  182 
1478.60    1488.50      63.576                                    23290  5  183 
1488.50    1496.95      69.345                                    23290  5  184 
1496.95    1506.10      63.985                                    23290  5  185 
1506.10    1515.95      58.622                                    23290  5  186 
1515.95    1524.35      47.916                                    23290  5  187 
1524.35    1534.25      34.542                                    23290  5  188 
1534.25    1542.75      60.793                                    23290  5  189 
1542.75    1552.00      33.168                                    23290  5  190 
1552.00    1560.45      70.105                                    23290  5  191 
1560.45    1569.55      46.491                                    23290  5  192 
1569.55    1579.55      37.566                                    23290  5  193 
1579.55    1587.40      83.850                                    23290  5  194 
1587.40    1597.35      85.169                                    23290  5  195 
1597.35    1606.40      91.828                                    23290  5  196 
1606.40    1616.25      45.950                                    23290  5  197 
1616.25    1624.00      65.076                                    23290  5  198 
1624.00    1631.70      37.902                                    23290  5  199 
1631.70    1641.60      43.226                                    23290  5  200 
1641.60    1650.70      32.520                                    23290  5  201 
1650.70    1660.55      19.590                                    23290  5  202 
1660.55    1668.35      21.797                                    23290  5  203 
1668.35    1679.00      33.801                                    23290  5  204 
1679.00    1688.10      28.438                                    23290  5  205 
1688.10    1695.20      23.523                                    23290  5  206 
1695.20    1706.50      32.408                                    23290  5  207 
1706.50    1713.55      19.476                                    23290  5  208 
1713.55    1724.20      39.943                                    23290  5  209 
1724.20    1732.00      38.140                                    23290  5  210 
1732.00    1742.60      42.573                                    23290  5  211 
1742.60    1751.70      35.431                                    23290  5  212 
1751.70    1760.20      21.163                                    23290  5  213 
1760.20    1770.20      48.306                                    23290  5  214 
1770.20    1776.55      59.863                                    23290  5  215 
1776.55    1787.10      41.147                                    23290  5  216 
1787.10    1797.00      49.142                                    23290  5  217 
1797.00    1806.15      43.777                                    23290  5  218 
1806.15    1814.65      41.534                                    23290  5  219 
1814.65    1823.20      66.004                                    23290  5  220 
1823.20    1833.00      52.183                                    23290  5  221 
1833.00    1841.45      45.042                                    23290  5  222 
1841.45    1851.30      33.889                                    23290  5  223 
1851.30    1859.75      27.639                                    23290  5  224 
1859.75    1868.30      40.088                                    23290  5  225 
1868.30    1877.50      48.085                                    23290  5  226 
1877.50    1886.70      38.269                                    23290  5  227 
1886.70    1894.50      64.967                                    23290  5  228 
1894.50    1902.95      56.490                                    23290  5  229 
1902.95    1912.80      38.661                                    23290  5  230 
1912.80    1919.85      40.427                                    23290  5  231 
1919.85    1931.20      41.742                                    23290  5  232 
1931.20    1940.35      62.647                                    23290  5  233 
1940.35    1950.25      41.702                                    23290  5  234 
1950.25    1958.80      55.484                                    23290  5  235 
1958.80    1967.95      71.943                                    23290  5  236 
1967.95    1975.75      50.551                                    23290  5  237 
1975.75    1984.90      63.892                                    23290  5  238 
1984.90    1993.35      61.202                                    23290  5  239 
1993.35    2001.15      49.609                                    23290  5  240 
2001.15    2011.70      61.167                                    23290  5  241 
2011.70    2018.10      50.463                                    23290  5  242 
2018.10    2028.60      52.228                                    23290  5  243 
2028.60    2037.15      36.178                                    23290  5  244 
2037.15    2047.10      70.444                                    23290  5  245 
2047.10    2055.50      61.965                                    23290  5  246 
2055.50    2063.40      57.050                                    23290  5  247 
2063.40    2074.00     101.555                                    23290  5  248 
2074.00    2090.15      61.011                                    23290  5  249 
2090.15    2099.95      64.101                                    23290  5  250 
2099.95    2107.70      38.706                                    23290  5  251 
2107.70    2116.90      44.030                                    23290  5  252 
2116.90    2126.80      49.800                                    23290  5  253 
2126.80    2136.60      42.208                                    23290  5  254 
2136.60    2145.00      20.820                                    23290  5  255 
2145.00    2153.50      24.366                                    23290  5  256 
2153.50    2162.05      23.455                                    23290  5  257 
2162.05    2171.95      39.911                                    23290  5  258 
2171.95    2179.60      20.749                                    23290  5  259 
2179.60    2188.80       7.818                                    23290  5  260 
2188.80    2198.05      41.193                                    23290  5  261 
2198.05    2207.20      28.706                                    23290  5  262 
2207.20    2217.75      31.359                                    23290  5  263 
2217.75    2224.15      16.201                                    23290  5  264 
2224.15    2229.85      36.673                                    23290  5  265 
2229.85    2241.10      38.436                                    23290  5  266 
2241.10    2250.90      22.385                                    23290  5  267 
2250.90    2260.80      14.794                                    23290  5  268 
2260.80    2270.70      19.228                                    23290  5  269 
2270.70    2279.1       11.194                                    23290  5  270 
ENDDATA            251          0                                 23290  5  271 
ENDSUBENT          270          0                                 23290  599999 
SUBENT        23290006   20170620                             226023290  6    1 
BIB                  4         11                                 23290  6    2 
REACTION   (11-NA-31(0,B-)12-MG-31,,PN/DE,,REL)                   23290  6    3 
           Relative beta-delayed neutron spectrum, counts/8keV .  23290  6    4 
DECAY-DATA (11-NA-31,17.MSEC)                                     23290  6    5 
ERR-ANALYS (E-ERR-DIG) Digitizing error of scale X ( energy);     23290  6    6 
           (ERR-DIG) Digitizing error of scale Y ( data);         23290  6    7 
            reflect deviation of scale from linear low.           23290  6    8 
              Quantization error (one pixel) :                    23290  6    9 
           scale X - 1.61  keV ,                                  23290  6   10 
           scale Y - 0.141 arb.units .                            23290  6   11 
STATUS     (CURVE) Fig.8 of R,CERN-81-09,327,1981                 23290  6   12 
            Fig.11c, P,MAINZ-78,20,1978 - previous publication.   23290  6   13 
ENDBIB              11          0                                 23290  6   14 
COMMON               2          3                                 23290  6   15 
E-ERR-DIG  ERR-DIG                                                23290  6   16 
KEV        ARB-UNITS                                              23290  6   17 
0.86       0.086                                                  23290  6   18 
ENDCOMMON            3          0                                 23290  6   19 
DATA                 3        293                                 23290  6   20 
E-MIN      E-MAX      DATA                                        23290  6   21 
KEV        KEV        ARB-UNITS                                   23290  6   22 
   0.0         4.99      2.101                                    23290  6   23 
   4.99       13.18      4.426                                    23290  6   24 
  13.18       22.12      7.736                                    23290  6   25 
  22.12       30.95      8.085                                    23290  6   26 
  30.95       37.38      6.673                                    23290  6   27 
  37.38       44.67      7.868                                    23290  6   28 
  44.67       53.67      8.852                                    23290  6   29 
  53.67       62.19     13.786                                    23290  6   30 
  62.19       70.10     27.605                                    23290  6   31 
  70.10       79.21     72.736                                    23290  6   32 
  79.21       86.24    101.860                                    23290  6   33 
  86.24       94.35     64.407                                    23290  6   34 
  94.35      100.01      8.622                                    23290  6   35 
 100.01      108.07      1.357                                    23290  6   36 
 108.07      117.72      8.899                                    23290  6   37 
 117.72      126.36      1.208                                    23290  6   38 
 126.36      133.74      0.641                                    23290  6   39 
 133.74      141.03      6.633                                    23290  6   40 
 141.03      149.96      2.962                                    23290  6   41 
 149.96      158.15      9.588                                    23290  6   42 
 158.15      166.11      9.091                                    23290  6   43 
 166.11      174.22      5.773                                    23290  6   44 
 174.22      181.31     12.048                                    23290  6   45 
 181.31      197.17      0.                                       23290  6   46 
 197.17      203.69      2.659                                    23290  6   47 
 203.69      214.10      2.938                                    23290  6   48 
 214.10      222.06      1.100                                    23290  6   49 
 222.06      229.38      0.                                       23290  6   50 
 229.38      239.21      4.056                                    23290  6   51 
 239.21      245.53      6.662                                    23290  6   52 
 245.53      270.50      0.                                       23290  6   53 
 270.50      277.22      7.708                                    23290  6   54 
 277.22      286.38     10.949                                    23290  6   55 
 286.38      294.14     19.691                                    23290  6   56 
 294.14      302.62      0.                                       23290  6   57 
 302.62      309.27      5.298                                    23290  6   58 
 309.27      319.10      8.257                                    23290  6   59 
 319.10      326.22     12.203                                    23290  6   60 
 326.22      334.22      3.314                                    23290  6   61 
 334.22      341.41     10.505                                    23290  6   62 
 341.41      350.01      1.192                                    23290  6   63 
 350.01      358.28      0.555                                    23290  6   64 
 358.28      365.63     10.213                                    23290  6   65 
 365.63      375.24      4.921                                    23290  6   66 
 375.24      382.60      8.373                                    23290  6   67 
 382.60      389.65      9.921                                    23290  6   68 
 389.65      397.74      0.610                                    23290  6   69 
 397.74      407.56     11.608                                    23290  6   70 
 407.56      414.58      7.373                                    23290  6   71 
 414.58      420.04      2.716                                    23290  6   72 
 420.04      431.43      0.527                                    23290  6   73 
 431.43      439.55      7.927                                    23290  6   74 
 439.55      446.66      3.694                                    23290  6   75 
 446.66      454.15      2.562                                    23290  6   76 
 454.15      463.88     13.561                                    23290  6   77 
 463.88      470.33      5.659                                    23290  6   78 
 470.33      477.79     14.190                                    23290  6   79 
 477.79      486.08     14.539                                    23290  6   80 
 486.08      494.03     23.704                                    23290  6   81 
 494.03      501.14     43.094                                    23290  6   82 
 501.14      509.76     50.214                                    23290  6   83 
 509.76      519.25     65.866                                    23290  6   84 
 519.25      526.20     43.649                                    23290  6   85 
 526.20      533.30     22.489                                    23290  6   86 
 533.30      541.57      5.985                                    23290  6   87 
 541.57      573.65      0.                                       23290  6   88 
 573.65      581.72      1.738                                    23290  6   89 
 581.72      590.52      0.818                                    23290  6   90 
 590.52      635.69      0.                                       23290  6   91 
 635.69      645.38      5.663                                    23290  6   92 
 645.38      652.49      1.005                                    23290  6   93 
 652.49      659.81      0.438                                    23290  6   94 
 659.81      671.05      3.960                                    23290  6   95 
 671.05      692.89      0.                                       23290  6   96 
 692.89      700.20      8.603                                    23290  6   97 
 700.20      716.35      2.533                                    23290  6   98 
 716.35      724.46     10.992                                    23290  6   99 
 724.46      732.36      4.712                                    23290  6  100 
 732.36      740.35      5.696                                    23290  6  101 
 740.35      748.28      2.378                                    23290  6  102 
 748.28      755.74      1.177                                    23290  6  103 
 755.74      763.80     10.976                                    23290  6  104 
 763.80      771.79      1.735                                    23290  6  105 
 771.79      779.21      8.714                                    23290  6  106 
 779.21      788.63      9.063                                    23290  6  107 
 788.63      796.51      0.                                       23290  6  108 
 796.51      803.87      2.498                                    23290  6  109 
 803.87      811.84      4.188                                    23290  6  110 
 811.84      827.07      0.                                       23290  6  111 
 827.07      834.50      2.134                                    23290  6  112 
 834.50      842.67      6.785                                    23290  6  113 
 842.67      851.54      7.205                                    23290  6  114 
 851.54      858.61      7.484                                    23290  6  115 
 858.61      867.36      0.429                                    23290  6  116 
 867.36      875.42      3.528                                    23290  6  117 
 875.42      882.56      1.128                                    23290  6  118 
 882.56      905.99      0.                                       23290  6  119 
 905.99      913.50      5.065                                    23290  6  120 
 913.50      923.17      9.998                                    23290  6  121 
 923.17      930.15      5.905                                    23290  6  122 
 930.15      937.48      0.                                       23290  6  123 
 937.48      946.39      9.425                                    23290  6  124 
 946.39      953.38      2.158                                    23290  6  125 
 953.38      962.49      0.                                       23290  6  126 
 962.49      969.82     12.166                                    23290  6  127 
 969.82      978.77      3.136                                    23290  6  128 
 978.77      986.35     16.250                                    23290  6  129 
 986.35      992.89     16.741                                    23290  6  130 
 992.89     1001.35     20.405                                    23290  6  131 
1001.35     1009.15     33.942                                    23290  6  132 
1009.15     1017.50     10.103                                    23290  6  133 
1017.50     1026.40     14.895                                    23290  6  134 
1026.40     1032.95     10.661                                    23290  6  135 
1032.95     1040.05     20.390                                    23290  6  136 
1040.05     1048.45      6.071                                    23290  6  137 
1048.45     1054.75      1.202                                    23290  6  138 
1054.75     1063.10      0.776                                    23290  6  139 
1063.10     1071.95     13.185                                    23290  6  140 
1071.95     1087.05      0.                                       23290  6  141 
1087.05     1096.80      6.970                                    23290  6  142 
1096.80     1103.35      2.453                                    23290  6  143 
1103.35     1113.05     12.605                                    23290  6  144 
1113.05     1119.35      2.729                                    23290  6  145 
1119.35     1126.65      9.496                                    23290  6  146 
1126.65     1136.35      3.146                                    23290  6  147 
1136.35     1143.70     13.439                                    23290  6  148 
1143.70     1151.55      5.114                                    23290  6  149 
1151.55     1159.75      6.663                                    23290  6  150 
1159.75     1167.65     12.231                                    23290  6  151 
1167.65     1176.25      2.002                                    23290  6  152 
1176.25     1183.80      0.                                       23290  6  153 
1183.80     1192.05     14.690                                    23290  6  154 
1192.05     1206.15      7.915                                    23290  6  155 
1206.15     1215.65      0.436                                    23290  6  156 
1215.65     1222.35      2.548                                    23290  6  157 
1222.35     1228.90      8.187                                    23290  6  158 
1228.90     1240.00      8.395                                    23290  6  159 
1240.00     1247.25      0.494                                    23290  6  160 
1247.25     1256.15     10.504                                    23290  6  161 
1256.15     1264.10      0.487                                    23290  6  162 
1264.10     1272.20      8.876                                    23290  6  163 
1272.20     1279.45      0.551                                    23290  6  164 
1279.45     1288.55     11.127                                    23290  6  165 
1288.55     1294.95      9.713                                    23290  6  166 
1294.95     1302.95     11.403                                    23290  6  167 
1302.95     1311.50      6.181                                    23290  6  168 
1311.50     1318.90      0.677                                    23290  6  169 
1318.90     1326.15     11.958                                    23290  6  170 
1326.15     1334.00      0.883                                    23290  6  171 
1334.00     1342.10      4.477                                    23290  6  172 
1342.10     1350.00      2.922                                    23290  6  173 
1350.00     1355.75      0.                                       23290  6  174 
1355.75     1365.65      6.866                                    23290  6  175 
1365.65     1373.65      8.696                                    23290  6  176 
1373.65     1383.50      5.307                                    23290  6  177 
1383.50     1391.80     17.011                                    23290  6  178 
1391.80     1398.25     15.879                                    23290  6  179 
1398.25     1405.60     17.498                                    23290  6  180 
1405.60     1414.30     17.848                                    23290  6  181 
1414.30     1423.25     14.389                                    23290  6  182 
1423.25     1430.10     20.099                                    23290  6  183 
1430.10     1444.20      0.                                       23290  6  184 
1444.20     1454.05      4.363                                    23290  6  185 
1454.05     1461.15      6.335                                    23290  6  186 
1461.15     1468.30      0.549                                    23290  6  187 
1468.30     1478.00      4.495                                    23290  6  188 
1478.00     1485.95      0.                                       23290  6  189 
1485.95     1493.40      2.585                                    23290  6  190 
1493.40     1502.35      6.813                                    23290  6  191 
1502.35     1510.45      5.329                                    23290  6  192 
1510.45     1518.55     11.038                                    23290  6  193 
1518.55     1526.30      5.322                                    23290  6  194 
1526.30     1533.00      1.300                                    23290  6  195 
1533.00     1543.05     15.754                                    23290  6  196 
1543.05     1549.30     17.937                                    23290  6  197 
1549.30     1557.10      5.804                                    23290  6  198 
1557.10     1566.60      9.891                                    23290  6  199 
1566.60     1573.25      0.                                       23290  6  200 
1573.25     1581.65     18.630                                    23290  6  201 
1581.65     1597.75     12.701                                    23290  6  202 
1597.75     1603.60     19.255                                    23290  6  203 
1603.60     1615.60     21.580                                    23290  6  204 
1615.60     1621.75     17.697                                    23290  6  205 
1621.75     1628.25      9.162                                    23290  6  206 
1628.25     1637.75     19.878                                    23290  6  207 
1637.75     1654.55      2.807                                    23290  6  208 
1654.55     1661.85     15.778                                    23290  6  209 
1661.85     1670.05      5.408                                    23290  6  210 
1670.05     1678.20     22.894                                    23290  6  211 
1678.20     1685.85      9.986                                    23290  6  212 
1685.85     1693.25      8.079                                    23290  6  213 
1693.25     1702.10     14.493                                    23290  6  214 
1702.10     1709.60      8.143                                    23290  6  215 
1709.60     1716.25     23.796                                    23290  6  216 
1716.25     1726.40     17.587                                    23290  6  217 
1726.40     1732.95     13.212                                    23290  6  218 
1732.95     1741.95     19.838                                    23290  6  219 
1741.95     1749.70     20.046                                    23290  6  220 
1749.70     1779.05      8.967                                    23290  6  221 
1779.05     1789.25      2.330                                    23290  6  222 
1789.25     1796.55      0.493                                    23290  6  223 
1796.55     1804.70      2.183                                    23290  6  224 
1804.70     1814.50      6.834                                    23290  6  225 
1814.50     1825.80      7.112                                    23290  6  226 
1825.80     1838.50      7.248                                    23290  6  227 
1838.50     1845.70      0.474                                    23290  6  228 
1845.70     1852.95      4.844                                    23290  6  229 
1852.95     1862.50      2.936                                    23290  6  230 
1862.50     1877.15      0.534                                    23290  6  231 
1877.15     1887.15      9.838                                    23290  6  232 
1887.15     1895.00     12.232                                    23290  6  233 
1895.00     1902.10      3.273                                    23290  6  234 
1902.10     1910.20      7.784                                    23290  6  235 
1910.20     1918.20      3.478                                    23290  6  236 
1918.20     1927.40      8.130                                    23290  6  237 
1927.40     1936.15     15.390                                    23290  6  238 
1936.15     1957.80      6.146                                    23290  6  239 
1957.80     1966.50     10.936                                    23290  6  240 
1966.50     1975.50      0.706                                    23290  6  241 
1975.50     1984.65     15.935                                    23290  6  242 
1984.65     1989.85     14.029                                    23290  6  243 
1989.85     1999.40      0.                                       23290  6  244 
1999.40     2008.45      8.804                                    23290  6  245 
2008.45     2014.75      6.685                                    23290  6  246 
2014.75     2022.90      4.496                                    23290  6  247 
2022.90     2031.30     11.756                                    23290  6  248 
2031.30     2039.10     16.761                                    23290  6  249 
2039.10     2046.00      4.628                                    23290  6  250 
2046.00     2055.60      0.394                                    23290  6  251 
2055.60     2062.90      4.480                                    23290  6  252 
2062.90     2072.65      0.528                                    23290  6  253 
2072.65     2080.95      9.480                                    23290  6  254 
2080.95     2087.25     11.947                                    23290  6  255 
2087.25     2095.25      2.493                                    23290  6  256 
2095.25     2102.65      9.472                                    23290  6  257 
2102.65     2112.05      9.751                                    23290  6  258 
2112.05     2127.35      0.                                       23290  6  259 
2127.35     2134.65      9.742                                    23290  6  260 
2134.65     2143.55      2.475                                    23290  6  261 
2143.55     2151.85     12.416                                    23290  6  262 
2151.85     2158.75     10.368                                    23290  6  263 
2158.75     2167.45      0.421                                    23290  6  264 
2167.45     2174.85      2.463                                    23290  6  265 
2174.85     2184.50      7.608                                    23290  6  266 
2184.50     2198.75      2.667                                    23290  6  267 
2198.75     2207.60      0.                                       23290  6  268 
2207.60     2221.60      2.658                                    23290  6  269 
2221.60     2230.30     10.552                                    23290  6  270 
2230.30     2238.45      0.                                       23290  6  271 
2238.45     2246.65     13.155                                    23290  6  272 
2246.65     2255.25      5.676                                    23290  6  273 
2255.25     2269.90      3.133                                    23290  6  274 
2269.90     2278.70     10.886                                    23290  6  275 
2278.70     2286.75      3.266                                    23290  6  276 
2286.75     2293.20     10.810                                    23290  6  277 
2293.20     2302.75      3.330                                    23290  6  278 
2302.75     2309.45      5.725                                    23290  6  279 
2309.45     2317.40     16.371                                    23290  6  280 
2317.40     2325.30      0.713                                    23290  6  281 
2325.30     2333.50     11.217                                    23290  6  282 
2333.50     2341.55      6.277                                    23290  6  283 
2341.55     2350.45     11.281                                    23290  6  284 
2350.45     2357.50      9.092                                    23290  6  285 
2357.50     2365.45      3.729                                    23290  6  286 
2365.45     2374.35      5.912                                    23290  6  287 
2374.35     2380.75      3.512                                    23290  6  288 
2380.75     2389.65      6.118                                    23290  6  289 
2389.65     2396.15      3.576                                    23290  6  290 
2396.15     2404.90      9.003                                    23290  6  291 
2404.90     2412.05      1.031                                    23290  6  292 
2412.05     2420.25      3.567                                    23290  6  293 
2420.25     2428.55      8.924                                    23290  6  294 
2428.55     2437.45     14.633                                    23290  6  295 
2437.45     2445.25      9.552                                    23290  6  296 
2445.25     2452.35      3.907                                    23290  6  297 
2452.35     2467.85      6.442                                    23290  6  298 
2467.85     2476.70     12.361                                    23290  6  299 
2476.70     2484.45      4.177                                    23290  6  300 
2484.45     2493.20      1.353                                    23290  6  301 
2493.20     2499.70      0.433                                    23290  6  302 
2499.70     2523.40      4.095                                    23290  6  303 
2523.40     2532.25     15.301                                    23290  6  304 
2532.25     2540.10      4.579                                    23290  6  305 
2540.10     2548.15      7.044                                    23290  6  306 
2548.15     2556.05      4.573                                    23290  6  307 
2556.05     2564.95      1.819                                    23290  6  308 
2564.95     2579.55      7.174                                    23290  6  309 
2579.55     2587.40      4.560                                    23290  6  310 
2587.40     2597.05      0.                                       23290  6  311 
2597.05     2611.50      4.411                                    23290  6  312 
2611.50     2622.00      0.                                       23290  6  313 
2622.00     2629.25      4.332                                    23290  6  314 
2629.25      2638.1      1.791                                    23290  6  315 
ENDDATA            295          0                                 23290  6  316 
ENDSUBENT          315          0                                 23290  699999 
ENDENTRY             6          0                                 2329099999999 
